Data from calibration3_FLMT105791__4__17-25-32-069.txt Node

Date: Mon Mar 20 17:25:32 GMT 2023
User: antho
Spectrometer: FLMT10579
Trigger mode: 0
Integration Time (sec): 1.000000E-1
Scans to average: 10
Electric dark correction enabled: true
Nonlinearity correction enabled: false
Boxcar width: 0
XAxis mode: Wavelengths
Number of Pixels in Spectrum: 3648
>>>>>Begin Spectral Data<<<<<
345.248	-140.47
345.464	-140.47
345.681	-140.47
345.898	-164.69
346.114	-147.44
346.331	-26.35
346.548	25.38
346.764	-21.31
346.981	-0.39
347.197	-9.3
347.414	13.76
347.631	-13.95
347.847	70.91
348.064	20.92
348.28	21.51
348.497	-64.71
348.713	-16.47
348.93	27.9
349.146	90.29
349.363	102.69
349.579	110.24
349.796	110.05
350.012	95.32
350.229	139.69
350.445	128.45
350.661	138.72
350.878	159.65
351.094	148.8
351.311	172.05
351.527	166.24
351.743	122.64
351.96	142.6
352.176	186.77
352.392	182.7
352.609	173.79
352.825	141.44
353.041	134.07
353.257	125.74
353.474	160.04
353.69	179.02
353.906	176.5
354.122	115.09
354.339	237.15
354.555	181.93
354.771	195.88
354.987	247.42
355.203	240.25
355.42	171.47
355.636	169.72
355.852	180.57
356.068	212.93
356.284	153.64
356.5	242.57
356.716	188.52
356.932	199.37
357.148	189.29
357.364	164.3
357.58	197.82
357.796	248
358.012	236.57
358.228	162.55
358.444	133.1
358.66	229.2
358.876	168.75
359.092	150.93
359.308	190.45
359.524	227.07
359.74	204.6
359.956	249.16
360.172	234.63
360.388	287.91
360.604	243.93
360.819	321.81
361.035	253.42
361.251	251.68
361.467	202.85
361.683	293.14
361.898	240.63
362.114	283.65
362.33	278.03
362.546	277.45
362.762	265.43
362.977	310.58
363.193	272.41
363.409	313.29
363.624	277.64
363.84	237.34
364.056	281.51
364.271	321.23
364.487	364.63
364.703	317.36
364.918	281.71
365.134	287.71
365.35	302.63
365.565	462.47
365.781	364.83
365.996	421.01
366.212	426.83
366.427	440.58
366.643	401.44
366.858	407.64
367.074	380.33
367.289	480.69
367.505	526.41
367.72	396.6
367.936	408.61
368.151	464.99
368.367	443.87
368.582	426.24
368.798	376.06
369.013	456.86
369.228	428.96
369.444	466.54
369.659	512.46
369.874	500.26
370.09	488.05
370.305	398.34
370.52	473.71
370.736	510.72
370.951	440
371.166	506.46
371.381	484.37
371.597	500.26
371.812	451.43
372.027	425.08
372.242	456.08
372.458	518.27
372.673	395.05
372.888	436.32
373.103	438.45
373.318	531.25
373.533	442.91
373.749	429.34
373.964	346.61
374.179	427.02
374.394	360.37
374.609	438.84
374.824	388.27
375.039	471.97
375.254	373.54
375.469	493.28
375.684	459.96
375.899	552.95
376.114	514.4
376.329	523.12
376.544	515.17
376.759	526.41
376.974	482.24
377.189	508.39
377.404	494.06
377.619	581.82
377.834	541.14
378.049	567.68
378.264	589.19
378.478	671.92
378.693	654.48
378.908	686.06
379.123	622.12
379.338	633.75
379.553	592.29
379.767	584.92
379.982	549.47
380.197	593.84
380.412	565.55
380.626	629.48
380.841	714.93
381.056	672.5
381.271	756.39
381.485	683.35
381.7	601.78
381.915	690.13
382.129	578.92
382.344	570.2
382.559	544.43
382.773	545.79
382.988	444.65
383.202	522.73
383.417	450.46
383.632	549.27
383.846	480.88
384.061	468.09
384.275	508.59
384.49	557.02
384.704	623.09
384.919	686.06
385.133	709.7
385.348	747.86
385.562	688.97
385.777	735.66
385.991	676.18
386.206	699.81
386.42	663.39
386.634	719.77
386.849	729.65
387.063	766.46
387.277	720.93
387.492	723.06
387.706	704.27
387.92	708.92
388.135	799.59
388.349	759.68
388.563	781.77
388.778	771.89
388.992	789.13
389.206	802.5
389.42	879.81
389.635	861.98
389.849	915.46
390.063	1020.08
390.277	1024.92
390.491	1075.1
390.706	1017.37
390.92	1041
391.134	1052.82
391.348	1069.48
391.562	1096.03
391.776	1140.2
391.99	1118.89
392.205	1131.29
392.419	1060.57
392.633	1039.07
392.847	1004.77
393.061	860.43
393.275	864.69
393.489	685.87
393.703	553.54
393.917	622.32
394.131	620.77
394.345	714.73
394.559	905.96
394.773	937.54
394.986	1075.3
395.2	1128.97
395.414	1223.51
395.628	1214.41
395.842	1286.87
396.056	1276.02
396.27	1161.51
396.484	1136.52
396.697	1027.64
396.911	913.52
397.125	852.49
397.339	781.38
397.553	829.63
397.766	988.11
397.98	1112.69
398.194	1308.38
398.408	1404.47
398.621	1499.6
398.835	1615.66
399.049	1635.03
399.262	1753.61
399.476	1769.69
399.69	1853.39
399.903	1832.85
400.117	1825.68
400.331	1907.05
400.544	1913.45
400.758	2021.17
400.971	1924.3
401.185	1987.65
401.398	1905.89
401.612	2012.45
401.826	2075.61
402.039	2102.16
402.253	2088.21
402.466	2149.24
402.68	2107.39
402.893	2235.07
403.106	2127.73
403.32	2100.61
403.533	2150.01
403.747	2036.09
403.96	2142.46
404.174	2176.56
404.387	2155.24
404.6	2185.08
404.814	2199.03
405.027	2117.66
405.24	2121.73
405.454	2164.93
405.667	2249.41
405.88	2181.98
406.094	2223.83
406.307	2257.54
406.52	2182.56
406.733	2126.96
406.947	2183.14
407.16	2274.01
407.373	2270.33
407.586	2318.96
407.799	2249.79
408.012	2293.19
408.226	2295.13
408.439	2420.68
408.652	2404.6
408.865	2505.93
409.078	2602.41
409.291	2614.23
409.504	2570.83
409.717	2598.73
409.93	2593.5
410.143	2428.23
410.357	2290.67
410.57	2183.53
410.783	2272.07
410.996	2342.99
411.209	2485.39
411.421	2682.04
411.634	2710.33
411.847	2679.72
412.06	2775.04
412.273	2819.02
412.486	2831.81
412.699	2852.93
412.912	2845.76
413.125	2809.53
413.338	2816.7
413.55	2736.68
413.763	2712.65
413.976	2793.64
414.189	2793.06
414.402	2845.76
414.615	2983.71
414.827	2811.08
415.04	2845.95
415.253	2914.54
415.466	2954.45
415.678	2933.91
415.891	2885.09
416.104	2853.32
416.316	2904.08
416.529	3029.04
416.742	3069.92
416.954	3153.04
417.167	3049.97
417.38	2997.46
417.592	2998.24
417.805	2879.47
418.017	2911.25
418.23	2938.76
418.442	2921.13
418.655	2932.95
418.868	2974.41
419.08	3014.71
419.293	3070.89
419.505	3082.52
419.718	3037.96
419.93	3137.54
420.142	3049.78
420.355	3026.91
420.567	3015.29
420.78	3085.42
420.992	3078.84
421.205	3230.15
421.417	3305.13
421.629	3346.79
421.842	3360.16
422.054	3340.01
422.266	3414.99
422.479	3339.23
422.691	3179.39
422.903	3196.05
423.115	3045.71
423.328	3053.26
423.54	3128.82
423.752	3160.02
423.964	3285.76
424.177	3332.26
424.389	3315.98
424.601	3449.67
424.813	3415.38
425.025	3459.55
425.238	3414.21
425.45	3388.06
425.662	3348.15
425.874	3641.29
426.086	3384.96
426.298	3432.04
426.51	3413.44
426.722	3407.05
426.934	3487.64
427.146	3443.08
427.358	3380.89
427.57	3408.21
427.782	3306.49
427.994	3326.64
428.206	3295.25
428.418	3543.44
428.63	3610.48
428.842	3637.22
429.054	3466.53
429.266	3435.72
429.478	3374.3
429.69	3342.91
429.902	3248.75
430.114	3215.43
430.325	3048.81
430.537	2830.07
430.749	2791.7
430.961	2649.3
431.173	2700.26
431.384	2792.87
431.596	2916.67
431.808	3317.73
432.02	3699.02
432.231	3950.31
432.443	4163.24
432.655	4029.75
432.867	3923.38
433.078	3926.87
433.29	4027.23
433.502	4128.37
433.713	4188.43
433.925	4255.66
434.136	4097.37
434.348	3871.26
434.56	3795.51
434.771	4016.19
434.983	3875.14
435.194	4177.19
435.406	4365.51
435.617	4382.37
435.829	4491.25
436.04	4528.84
436.252	4444.37
436.463	4692.17
436.675	4861.51
436.886	4890.96
437.098	4931.84
437.309	4926.99
437.521	4774.71
437.732	4654
437.943	4583.67
438.155	4616.8
438.366	4540.85
438.578	4653.03
438.789	4383.14
439	4348.46
439.211	4348.85
439.423	4455.02
439.634	4596.65
439.845	4788.85
440.057	4811.52
440.268	4956.64
440.479	4931.25
440.69	4962.64
440.902	4817.14
441.113	4824.31
441.324	4943.27
441.535	5075.01
441.746	5309.06
441.957	5232.14
442.168	5317.01
442.38	5380.17
442.591	5440.23
442.802	5325.72
443.013	5494.48
443.224	5532.45
443.435	5513.08
443.646	5447.78
443.857	5364.67
444.068	5389.66
444.279	5424.53
444.49	5691.91
444.701	5547.95
444.912	5797.89
445.123	5800.4
445.334	5593.29
445.545	5650.25
445.756	5532.45
445.967	5483.63
446.178	5367.19
446.388	5321.27
446.599	5433.83
446.81	5477.23
447.021	5473.36
447.232	5606.85
447.443	5732.21
447.653	5882.75
447.864	5968.77
448.075	6016.24
448.286	5998.03
448.496	5947.46
448.707	6026.31
448.918	5834.7
449.129	5956.18
449.339	5957.73
449.55	6071.65
449.761	6000.16
449.971	6005.97
450.182	6127.64
450.393	6153.41
450.603	6167.17
450.814	6474.26
451.024	6403.54
451.235	6648.63
451.446	6603.49
451.656	6630.03
451.867	6469.61
452.077	6326.82
452.288	6486.27
452.498	6315.97
452.709	6345.8
452.919	6186.35
453.13	6036.58
453.34	6014.88
453.55	5767.47
453.761	6126.29
453.971	6048.21
454.182	6192.94
454.392	6252.61
454.602	6588.96
454.813	6508.36
455.023	6356.07
455.233	6315.97
455.444	6418.07
455.654	6185.57
455.864	6378.55
456.075	6456.05
456.285	6461.47
456.495	6562.41
456.705	6571.71
456.916	6749.18
457.126	6799.75
457.336	6731.36
457.546	6575.97
457.756	6746.86
457.967	6893.33
458.177	6600.77
458.387	6723.03
458.597	6530.25
458.807	6647.66
459.017	6559.31
459.227	6592.83
459.437	6592.25
459.647	6700.75
459.857	6712.18
460.068	6816.61
460.278	6888.68
460.488	6818.35
460.698	6843.73
460.908	6954.94
461.117	7093.86
461.327	7074.87
461.537	7207.4
461.747	7167.48
461.957	7144.82
462.167	7333.14
462.377	7251.96
462.587	7168.84
462.797	7407.54
463.007	7295.75
463.216	7486.59
463.426	7645.85
463.636	7548.39
463.846	7254.67
464.056	7324.23
464.265	7263
464.475	7290.13
464.685	7523.01
464.895	7390.1
465.104	7234.72
465.314	7490.46
465.524	7333.91
465.733	7261.84
465.943	7609.23
466.153	7742.14
466.362	7771.78
466.572	7680.92
466.782	7494.14
466.991	7738.46
467.201	7586.95
467.41	7392.04
467.62	7715.21
467.829	7720.63
468.039	7900.04
468.249	7810.53
468.458	8023.07
468.668	7951.19
468.877	8103.67
469.086	8160.25
469.296	8380.54
469.505	8470.82
469.715	8368.14
469.924	8238.33
470.134	8379.37
470.343	8180.59
470.552	8216.82
470.762	8175.75
470.971	8256.54
471.18	8351.47
471.39	8447.19
471.599	8361.94
471.808	8528.75
472.018	8826.74
472.227	8963.33
472.436	9198.15
472.645	9160.95
472.855	9148.16
473.064	9511.05
473.273	9448.08
473.482	9108.83
473.691	9298.12
473.901	9253.56
474.11	9112.32
474.319	9459.9
474.528	9432.2
474.737	9856.5
474.946	9680.19
475.155	9845.46
475.364	10004.72
475.573	9840.23
475.783	10041.14
475.992	10008.21
476.201	9988.25
476.41	10114.38
476.619	9950.86
476.828	9976.63
477.037	9914.05
477.245	10002.78
477.454	10164.56
477.663	10441.81
477.872	10747.35
478.081	10876.58
478.29	10768.47
478.499	10942.65
478.708	11076.34
478.917	11095.52
479.125	10836.86
479.334	10981.21
479.543	11265.24
479.752	11409.77
479.961	11376.84
480.169	11615.73
480.378	11715.7
480.587	12062.12
480.796	11835.05
481.004	11910.22
481.213	11993.53
481.422	12064.06
481.63	12319.42
481.839	12417.45
482.048	12555.4
482.256	12561.99
482.465	12886.9
482.674	12702.84
482.882	12744.5
483.091	12848.73
483.299	12671.07
483.508	13045.19
483.716	13145.56
483.925	13181.4
484.134	12802.62
484.342	13059.73
484.551	13087.04
484.759	12906.28
484.967	13470.08
485.176	13353.83
485.384	13367.59
485.593	13176.94
485.801	13042.87
486.01	12594.54
486.218	12036.16
486.426	11537.84
486.635	11244.12
486.843	11400.28
487.051	11797.66
487.26	11991.02
487.468	12310.51
487.676	12642.01
487.885	13100.22
488.093	13417.19
488.301	13834.13
488.509	13818.25
488.717	14032.53
488.926	14047.84
489.134	13871.14
489.342	13903.3
489.55	13853.12
489.758	14149.75
489.967	14655.43
490.175	14555.84
490.383	15038.66
490.591	15350.01
490.799	15216.33
491.007	15100.47
491.215	15207.03
491.423	15010.18
491.631	14975.89
491.839	14918.92
492.047	14878.82
492.255	14487.45
492.463	14587.23
492.671	14282.46
492.879	14825.54
493.087	14945.85
493.295	15086.9
493.503	15355.24
493.711	15694.3
493.919	15702.05
494.127	15519.15
494.334	15562.36
494.542	15536.4
494.75	16036.46
494.958	15801.44
495.166	16216.64
495.374	16392.18
495.581	16392.18
495.789	16407.1
495.997	16452.05
496.205	15783.81
496.412	16124.03
496.62	16424.15
496.828	16187.19
497.035	16474.91
497.243	16576.04
497.451	16557.25
497.658	16542.53
497.866	16554.73
498.074	16708.95
498.281	16348.39
498.489	16419.3
498.696	16104.85
498.904	15977.56
499.112	16024.83
499.319	16364.86
499.527	16471.03
499.734	16621.96
499.942	16578.37
500.149	16589.03
500.357	16583.6
500.564	16312.74
500.771	16220.32
500.979	15949.66
501.186	15800.28
501.394	16157.94
501.601	15753.2
501.808	15841.35
502.016	15887.08
502.223	15804.35
502.43	15950.24
502.638	15954.7
502.845	16278.84
503.052	16450.69
503.26	16453.21
503.467	16669.82
503.674	16736.08
503.881	16584.18
504.089	16432.48
504.296	16347.03
504.503	16197.07
504.71	16116.28
504.917	16356.33
505.125	16466.19
505.332	16674.27
505.539	16690.35
505.746	17117.18
505.953	17327.01
506.16	17343.28
506.367	17415.36
506.574	17601.74
506.781	17690.09
506.988	17490.53
507.195	17358.98
507.402	17329.53
507.609	17327.98
507.816	17071.84
508.023	16976.71
508.23	16760.69
508.437	16739.95
508.644	16852.13
508.851	17030.96
509.058	17399.08
509.265	17456.04
509.472	17590.12
509.679	17794.13
509.885	17692.8
510.092	17607.94
510.299	17616.08
510.506	17228.78
510.713	17385.52
510.92	17365.56
511.126	17529.67
511.333	17616.47
511.54	17826.1
511.746	17859.62
511.953	17895.66
512.16	18144.82
512.367	17943.51
512.573	17889.46
512.78	17828.04
512.987	17694.93
513.193	17404.31
513.4	17354.33
513.606	17483.17
513.813	17512.81
514.02	17292.13
514.226	17236.92
514.433	17333.21
514.639	17133.26
514.846	17205.53
515.052	17218.32
515.259	17340.57
515.465	17474.06
515.672	17507.39
515.878	17562.99
516.085	17718.96
516.291	17660.06
516.497	17556.21
516.704	17012.17
516.91	16582.44
517.117	15982.02
517.323	15535.82
517.529	15361.83
517.736	15336.84
517.942	15531.17
518.148	15838.45
518.354	16052.93
518.561	16152.32
518.767	15929.9
518.973	16067.46
519.179	16379.97
519.386	16643.47
519.592	16591.35
519.798	16739.57
520.004	17394.82
520.21	17377
520.417	17447.91
520.623	17583.14
520.829	17704.04
521.035	17601.16
521.241	17644.37
521.447	17763.71
521.653	17989.43
521.859	17793.16
522.065	18038.84
522.271	18057.82
522.477	18096.18
522.683	18135.32
522.889	17826.88
523.095	17568.42
523.301	17642.43
523.507	17560.86
523.713	17624.8
523.919	17686.41
524.125	18134.16
524.331	18241.5
524.537	18634.8
524.742	18657.47
524.948	18530.18
525.154	18690.21
525.36	18580.94
525.566	18365.69
525.772	18492.2
525.977	18355.81
526.183	18259.32
526.389	18323.64
526.595	17812.15
526.8	17512.04
527.006	16991.44
527.212	16570.62
527.417	16531.09
527.623	16610.92
527.829	16867.83
528.034	17233.82
528.24	17290.78
528.446	17725.16
528.651	18054.53
528.857	18291.68
529.062	18352.12
529.268	18548.2
529.473	18813.44
529.679	18921.94
529.884	18857.81
530.09	18763.26
530.295	18365.88
530.501	18688.28
530.706	18649.33
530.912	18861.49
531.117	18942.47
531.323	18826.42
531.528	19117.23
531.733	19163.34
531.939	19054.26
532.144	18940.92
532.35	18834.75
532.555	18772.17
532.76	18320.35
532.966	18170.78
533.171	18015.59
533.376	17852.84
533.581	17943.12
533.787	18097.35
533.992	18481.16
534.197	18117.3
534.402	18510.42
534.607	18623.76
534.813	18537.15
535.018	18583.85
535.223	18872.34
535.428	18719.66
535.633	18968.82
535.838	19292.77
536.043	19328.8
536.249	19561.3
536.454	19205.19
536.659	19311.75
536.864	19228.06
537.069	18899.07
537.274	18783.41
537.479	18793.87
537.684	18776.82
537.889	18667.55
538.094	19145.71
538.299	18974.25
538.504	19220.89
538.708	19093.79
538.913	19368.33
539.118	19350.12
539.323	19174.78
539.528	18921.74
539.733	18778.37
539.938	18838.24
540.142	18647.78
540.347	18627.44
540.552	18537.54
540.757	18257.77
540.962	18498.02
541.166	18255.45
541.371	18277.92
541.576	18296.13
541.781	18505.19
541.985	18927.94
542.19	18589.27
542.395	19152.88
542.599	19055.23
542.804	18823.32
543.008	19115.68
543.213	19018.42
543.418	18783.6
543.622	19022.1
543.827	18675.88
544.031	18946.54
544.236	19121.69
544.44	19327.84
544.645	19293.54
544.849	19220.11
545.054	19375.69
545.258	19490.2
545.463	19441.57
545.667	19114.52
545.872	19494.65
546.076	19352.44
546.281	19257.7
546.485	19238.32
546.689	19215.46
546.894	19272.81
547.098	19392.55
547.302	19204.81
547.507	19274.56
547.711	19332.68
547.915	19222.83
548.119	18943.83
548.324	18999.82
548.528	19002.34
548.732	19008.73
548.936	19305.36
549.141	19294.9
549.345	19340.43
549.549	19397.2
549.753	19603.73
549.957	19432.07
550.161	19529.91
550.366	19530.88
550.57	19427.23
550.774	19357.29
550.978	19415.8
551.182	19373.56
551.386	19198.61
551.59	19348.57
551.794	19174.39
551.998	19414.63
552.202	19362.32
552.406	19383.64
552.61	19628.14
552.814	19556.65
553.018	19340.04
553.222	19117.43
553.426	19308.46
553.63	19409.4
553.833	19372.59
554.037	19238.91
554.241	19221.08
554.445	19450.28
554.649	19397.59
554.853	19359.8
555.056	19493.3
555.26	19651.39
555.464	19494.65
555.668	19583.97
555.871	19537.08
556.075	19587.84
556.279	19323.38
556.483	19310.01
556.686	19155.79
556.89	19145.91
557.094	19092.43
557.297	18829.52
557.501	18908.18
557.704	18657.28
557.908	18843.86
558.112	18914.96
558.315	19006.99
558.519	18815.18
558.722	18595.67
558.926	18600.51
559.129	18123.89
559.333	18354.26
559.536	18388.74
559.74	18183.37
559.943	18084.17
560.147	18262.03
560.35	18156.25
560.553	18521.46
560.757	18442.02
560.96	18604.58
561.164	18720.05
561.367	18831.65
561.57	18756.67
561.774	18627.44
561.977	18447.45
562.18	18511.58
562.384	18549.94
562.587	18508.29
562.79	18598.18
562.993	18379.83
563.197	18436.02
563.4	18636.74
563.603	18634.03
563.806	18653.4
564.009	18621.82
564.212	18708.23
564.416	18345.34
564.619	18303.88
564.822	18177.17
565.025	18495.5
565.228	18387.39
565.431	18479.03
565.634	18214.18
565.837	18151.4
566.04	17939.06
566.243	17915.61
566.446	17669.75
566.649	18045.23
566.852	17769.53
567.055	18008.22
567.258	17947.97
567.461	18199.26
567.664	18251.76
567.867	18194.8
568.07	18034.57
568.273	18165.55
568.475	18256.8
568.678	17835.59
568.881	17805.56
569.084	17536.06
569.287	17331.46
569.489	17608.52
569.692	17665.48
569.895	17716.44
570.098	17528.51
570.3	17499.83
570.503	17473.68
570.706	17456.24
570.909	17290.58
571.111	16999.19
571.314	16958.11
571.516	17023.79
571.719	17095.29
571.922	17069.32
572.124	17192.74
572.327	17341.73
572.529	17354.91
572.732	17458.56
572.935	17452.56
573.137	17815.83
573.34	17497.89
573.542	17782.7
573.745	17623.05
573.947	17630.61
574.15	17530.06
574.352	17594.57
574.554	17678.66
574.757	17410.51
574.959	17191.19
575.162	17512.04
575.364	17149.54
575.566	17336.5
575.769	17048.59
575.971	17112.92
576.173	16757.39
576.376	16991.83
576.578	17201.85
576.78	17109.62
576.982	17024.38
577.185	17161.94
577.387	17080.56
577.589	17240.02
577.791	17141.59
577.993	17204.17
578.196	17202.43
578.398	16964.51
578.6	16910.06
578.802	16882.75
579.004	16759.33
579.206	16907.55
579.408	17115.05
579.61	16876.74
579.812	17194.29
580.014	16964.7
580.216	17115.05
580.418	17407.03
580.62	17331.08
580.822	17297.75
581.024	17319.45
581.226	17411.09
581.428	17426.21
581.63	17728.07
581.832	17548.66
582.034	17585.66
582.236	17608.91
582.438	17864.46
582.64	17879.96
582.841	17846.64
583.043	18190.73
583.245	17823.39
583.447	18055.69
583.649	17959.21
583.85	18013.45
584.052	17876.86
584.254	17978.77
584.456	17981.87
584.657	17960.95
584.859	18041.16
585.061	17921.23
585.262	17842.96
585.464	17773.79
585.666	17799.56
585.867	17582.17
586.069	17603.1
586.27	17466.89
586.472	17474.45
586.674	17488.79
586.875	17507.58
587.077	17512.04
587.278	17618.99
587.48	17538.97
587.681	17685.83
587.883	17592.64
588.084	17361.69
588.285	17290
588.487	17020.31
588.688	16978.46
588.89	16410
589.091	16106.79
589.292	15765.02
589.494	15290.92
589.695	15154.91
589.896	14941.59
590.098	15111.32
590.299	15232.99
590.5	15302.54
590.702	15702.05
590.903	15834.38
591.104	16114.93
591.305	16338.9
591.507	16363.31
591.708	16457.86
591.909	16442.36
592.11	16292.2
592.311	16549.31
592.512	16252.68
592.714	16182.16
592.915	16477.23
593.116	16322.24
593.317	16592.32
593.518	16567.33
593.719	16707.21
593.92	16696.55
594.121	16623.9
594.322	16605.11
594.523	16400.32
594.724	16290.65
594.925	16356.53
595.126	16129.46
595.327	16119.96
595.528	16358.85
595.729	16322.04
595.929	16332.7
596.13	16486.92
596.331	16744.6
596.532	16478.59
596.733	16804.28
596.934	16798.27
597.135	16837.22
597.335	16754.68
597.536	16616.92
597.737	16592.51
597.938	16550.28
598.138	16558.41
598.339	16683.77
598.54	16709.34
598.74	16360.02
598.941	16601.43
599.142	16691.13
599.342	16697.91
599.543	16567.91
