Data from calibration3_FLMT105791__8__17-25-36-069.txt Node

Date: Mon Mar 20 17:25:36 GMT 2023
User: antho
Spectrometer: FLMT10579
Trigger mode: 0
Integration Time (sec): 1.000000E-1
Scans to average: 10
Electric dark correction enabled: true
Nonlinearity correction enabled: false
Boxcar width: 0
XAxis mode: Wavelengths
Number of Pixels in Spectrum: 3648
>>>>>Begin Spectral Data<<<<<
345.248	-174.58
345.464	-174.58
345.681	-174.58
345.898	-170.9
346.114	-140.1
346.331	-37.22
346.548	28.08
346.764	5.6
346.981	6.96
347.197	-49.23
347.414	0.18
347.631	-20.36
347.847	52.88
348.064	10.25
348.28	42.8
348.497	-32.95
348.713	-6.99
348.93	39.31
349.146	81.94
349.363	116.04
349.579	132.7
349.796	121.46
350.012	94.73
350.229	157.11
350.445	166.99
350.661	94.73
350.878	136.77
351.094	137.54
351.311	149.56
351.527	144.71
351.743	121.85
351.96	165.06
352.176	175.33
352.392	161.57
352.609	175.13
352.825	127.66
353.041	166.41
353.257	113.52
353.474	148.78
353.69	188.89
353.906	191.41
354.122	114.29
354.339	224.15
354.555	200.9
354.771	149.75
354.987	255.15
355.203	264.64
355.42	195.86
355.636	203.03
355.852	173.78
356.068	203.03
356.284	151.88
356.5	243.72
356.716	210.2
356.932	182.3
357.148	213.11
357.364	181.91
357.58	217.56
357.796	227.44
358.012	231.12
358.228	219.69
358.444	123.79
358.66	214.07
358.876	204.39
359.092	165.25
359.308	204.19
359.524	230.16
359.74	224.92
359.956	250.31
360.172	228.8
360.388	303.78
360.604	262.71
360.819	309.98
361.035	244.3
361.251	263.87
361.467	212.33
361.683	266.58
361.898	263.29
362.114	290.41
362.33	259.8
362.546	304.75
362.762	270.65
362.977	309.59
363.193	274.33
363.409	371.01
363.624	257.67
363.84	295.06
364.056	313.08
364.271	316.95
364.487	332.65
364.703	324.9
364.918	318.12
365.134	319.67
365.35	321.02
365.565	443.67
365.781	392.9
365.996	389.22
366.212	481.83
366.427	432.43
366.643	382.44
366.858	441.34
367.074	408.4
367.289	465.95
367.505	520.58
367.72	381.28
367.936	400.27
368.151	483
368.367	426.81
368.582	440.18
368.798	405.69
369.013	459.36
369.228	475.63
369.444	434.37
369.659	474.86
369.874	457.61
370.09	531.05
370.305	427.97
370.52	461.3
370.736	507.8
370.951	440.57
371.166	526.4
371.381	518.84
371.597	477.38
371.812	452
372.027	456.84
372.242	472.34
372.458	507.8
372.673	400.65
372.888	434.56
373.103	462.26
373.318	496.17
373.533	461.49
373.749	448.51
373.964	352.99
374.179	433.78
374.394	391.93
374.609	448.31
374.824	389.42
375.039	474.47
375.254	373.92
375.469	508.57
375.684	477.76
375.899	531.43
376.114	546.35
376.329	539.57
376.544	555.84
376.759	529.11
376.974	495.78
377.189	508.18
377.404	536.86
377.619	597.11
377.834	538.21
378.049	595.18
378.264	628.5
378.478	692.44
378.693	646.32
378.908	671.12
379.123	624.43
379.338	675.97
379.553	607.19
379.767	620.94
379.982	584.13
380.197	585.49
380.412	598.28
380.626	662.21
380.841	710.26
381.056	729.25
381.271	746.1
381.485	663.37
381.7	627.53
381.915	640.32
382.129	584.91
382.344	568.83
382.559	564.56
382.773	571.54
382.988	457.81
383.202	496.56
383.417	450.06
383.632	540.34
383.846	495.59
384.061	518.84
384.275	479.9
384.49	582.58
384.704	643.03
384.919	691.08
385.133	742.42
385.348	771.49
385.562	702.32
385.777	737.19
385.991	687.79
386.206	701.54
386.42	688.56
386.634	761.22
386.849	754.82
387.063	749.01
387.277	732.35
387.492	739.71
387.706	708.71
387.92	727.7
388.135	796.67
388.349	813.14
388.563	799.38
388.778	776.14
388.992	775.94
389.206	829.22
389.42	910.98
389.635	832.13
389.849	972.21
390.063	1001.27
390.277	1020.84
390.491	1076.83
390.706	1031.69
390.92	1050.29
391.134	1036.92
391.348	1122.94
391.562	1069.86
391.776	1196.37
391.99	1145.03
392.205	1167.31
392.419	1066.95
392.633	1039.44
392.847	1012.7
393.061	859.06
393.275	882.11
393.489	672.87
393.703	588.01
393.917	609.32
394.131	619.01
394.345	739.52
394.559	882.5
394.773	977.44
394.986	1095.62
395.2	1158.01
395.414	1264.77
395.628	1233.57
395.842	1324.25
396.056	1270.58
396.27	1171.38
396.484	1193.47
396.697	1039.83
396.911	909.43
397.125	761.99
397.339	792.8
397.553	810.04
397.766	986.54
397.98	1146
398.194	1350.21
398.408	1415.11
398.621	1556.36
398.835	1643.15
399.049	1681.13
399.262	1760.56
399.476	1794.28
399.69	1833.8
399.903	1880.69
400.117	1817.72
400.331	1891.93
400.544	1874.1
400.758	2020.96
400.971	1913.04
401.185	1971.94
401.398	1952.18
401.612	2079.86
401.826	2056.03
402.039	2097.49
402.253	2102.92
402.466	2172.67
402.68	2183.13
402.893	2263.15
403.106	2150
403.32	2122.48
403.533	2119
403.747	2112.22
403.96	2174.41
404.174	2194.56
404.387	2189.52
404.6	2176.73
404.814	2231.18
405.027	2153.48
405.24	2146.12
405.454	2179.64
405.667	2280.78
405.88	2209.48
406.094	2253.26
406.307	2278.84
406.52	2177.51
406.733	2120.55
406.947	2157.94
407.16	2243
407.373	2318.17
407.586	2287.75
407.799	2273.8
408.012	2299.76
408.226	2308.09
408.439	2476.46
408.652	2442.17
408.865	2574.69
409.078	2603.95
409.291	2626.62
409.504	2567.91
409.717	2643.28
409.93	2579.73
410.143	2451.86
410.357	2310.61
410.57	2217.23
410.783	2292.59
410.996	2350.33
411.209	2493.12
411.421	2672.92
411.634	2736.28
411.847	2757.59
412.06	2805.64
412.273	2825.79
412.486	2837.22
412.699	2870.16
412.912	2865.89
413.125	2844.39
413.338	2812.81
413.55	2758.75
413.763	2721.94
413.976	2818.04
414.189	2779.87
414.402	2836.06
414.615	2976.14
414.827	2848.07
415.04	2881.78
415.253	2943
415.466	2966.06
415.678	3004.62
415.891	2949.4
416.104	2891.08
416.316	2923.82
416.529	3014.3
416.742	3148.76
416.954	3152.06
417.167	3096.06
417.38	3045.69
417.592	2992.22
417.805	2905.8
418.017	2914.14
418.23	2976.72
418.442	2974.97
418.655	2991.83
418.868	2966.25
419.08	3015.08
419.293	3114.86
419.505	3102.46
419.718	3091.22
419.93	3107.69
420.142	3060.42
420.355	3054.8
420.567	3013.53
420.78	3137.53
420.992	3126.29
421.205	3296.01
421.417	3381.07
421.629	3422.53
421.842	3345.42
422.054	3354.33
422.266	3383.2
422.479	3384.55
422.691	3186.74
422.903	3203.21
423.115	3111.18
423.328	3093.35
423.54	3152.06
423.752	3218.9
423.964	3307.64
424.177	3331.27
424.389	3272.76
424.601	3461.86
424.813	3448.68
425.025	3443.45
425.238	3466.7
425.45	3399.28
425.662	3361.89
425.874	3687.19
426.086	3417.3
426.298	3483.56
426.51	3434.73
426.722	3479.88
426.934	3492.86
427.146	3443.45
427.358	3464.96
427.57	3373.51
427.782	3316.16
427.994	3360.14
428.206	3335.34
428.418	3583.34
428.63	3638.75
428.842	3642.04
429.054	3534.51
429.266	3472.13
429.478	3411.29
429.69	3301.05
429.902	3278.96
430.114	3307.64
430.325	3081.34
430.537	2903.29
430.749	2788.01
430.961	2678.54
431.173	2728.33
431.384	2791.49
431.596	2940.49
431.808	3354.91
432.02	3761.01
432.231	4021.98
432.443	4236.07
432.655	4028.38
432.867	3962.11
433.078	4002.03
433.29	4091.73
433.502	4207.79
433.713	4221.15
433.925	4336.24
434.136	4170.2
434.348	3902.83
434.56	3816.8
434.771	4030.31
434.983	3941.38
435.194	4159.74
435.406	4370.34
435.617	4416.26
435.829	4500.73
436.04	4549.75
436.252	4494.34
436.463	4719.86
436.675	4853.16
436.886	4913.61
437.098	4966.31
437.309	4975.99
437.521	4826.61
437.732	4673.75
437.943	4697.97
438.155	4597.8
438.366	4568.16
438.578	4659.02
438.789	4422.26
439	4371.7
439.211	4446.87
439.423	4454.43
439.634	4690.99
439.845	4827.58
440.057	4832.43
440.268	5040.12
440.479	4955.46
440.69	4992.66
440.902	4828.55
441.113	4870.79
441.324	4979.87
441.535	5165.48
441.746	5318.15
441.957	5217.02
442.168	5364.46
442.38	5419.68
442.591	5486.13
442.802	5374.92
443.013	5522.55
443.224	5617.49
443.435	5533.99
443.646	5471.99
443.857	5441.18
444.068	5506.86
444.279	5515.39
444.49	5791.86
444.701	5565.95
444.912	5839.33
445.123	5841.27
445.334	5660.12
445.545	5723.47
445.756	5582.23
445.967	5513.84
446.178	5414.44
446.388	5370.66
446.599	5398.36
446.81	5531.08
447.021	5512.29
447.232	5648.88
447.443	5812.59
447.653	5964.3
447.864	6048.58
448.075	6084.03
448.286	6046.06
448.496	5997.43
448.707	6027.65
448.918	5917.99
449.129	6033.85
449.339	5994.14
449.55	6125.3
449.761	6048.38
449.971	6015.25
450.182	6236.9
450.393	6253.76
450.603	6166.96
450.814	6494.39
451.024	6454.67
451.235	6723.98
451.446	6663.53
451.656	6596.69
451.867	6504.08
452.077	6347.53
452.288	6483.93
452.498	6402.55
452.709	6382.79
452.919	6221.01
453.13	6117.17
453.34	6034.82
453.55	5816.28
453.761	6192.34
453.971	6116.58
454.182	6233.41
454.392	6316.53
454.602	6587.78
454.813	6582.16
455.023	6457.77
455.233	6337.07
455.444	6461.45
455.654	6205.32
455.864	6449.05
456.075	6564.14
456.285	6452.15
456.495	6595.91
456.705	6605.6
456.916	6856.89
457.126	6878.98
457.336	6718.17
457.546	6631.95
457.756	6761.37
457.967	6934
458.177	6684.26
458.387	6711.97
458.597	6606.18
458.807	6741.61
459.017	6566.08
459.227	6581
459.437	6616.65
459.647	6748.59
459.857	6794.89
460.068	6867.16
460.278	6869.87
460.488	6866.19
460.698	6908.82
460.908	6970.04
461.117	7080.86
461.327	7152.16
461.537	7258.14
461.747	7242.64
461.957	7205.44
462.167	7386.79
462.377	7275.97
462.587	7289.72
462.797	7436.58
463.007	7356.95
463.216	7524.93
463.426	7743.48
463.636	7496.84
463.846	7342.81
464.056	7339.13
464.265	7278.87
464.475	7357.15
464.685	7480.56
464.895	7427.67
465.104	7323.44
465.314	7556.9
465.524	7396.09
465.733	7392.02
465.943	7638.86
466.153	7785.91
466.362	7812.26
466.572	7839
466.782	7640.79
466.991	7756.27
467.201	7711.51
467.41	7487.15
467.62	7769.83
467.829	7788.43
468.039	7979.85
468.249	7901.96
468.458	8065.49
468.668	7952.15
468.877	8141.63
469.086	8241.41
469.296	8437.48
469.505	8525.44
469.715	8399.89
469.924	8277.06
470.134	8444.26
470.343	8198.79
470.552	8242.38
470.762	8186
470.971	8362.89
471.18	8416.75
471.39	8513.62
471.599	8435.74
471.808	8592.87
472.018	8819.36
472.227	9022.21
472.436	9259.55
472.645	9277.76
472.855	9233.01
473.064	9496.5
473.273	9492.44
473.482	9247.93
473.691	9420.56
473.901	9323.49
474.11	9196.78
474.319	9554.24
474.528	9497.28
474.737	10000.44
474.946	9798.36
475.155	9987.65
475.364	10119.79
475.573	9872.18
475.783	10249.41
475.992	10044.62
476.201	10055.66
476.41	10167.84
476.619	10033.18
476.828	10020.2
477.037	10006.25
477.245	10097.51
477.454	10283.51
477.663	10518.13
477.872	10825.22
478.081	10979.25
478.29	10860.48
478.499	11113.13
478.708	11310.75
478.917	11278.59
479.125	11012.19
479.334	11097.63
479.543	11375.08
479.752	11497.33
479.961	11457.61
480.169	11720.53
480.378	11904.59
480.587	12135.73
480.796	11993.32
481.004	11949.15
481.213	12121.59
481.422	12180.48
481.63	12488.74
481.839	12519.74
482.048	12700.11
482.256	12598.4
482.465	12949.85
482.674	12863.64
482.882	12933
483.091	12940.94
483.299	12751.26
483.508	13121.9
483.716	13341.03
483.925	13307.51
484.134	12931.26
484.342	13177.7
484.551	13209.48
484.759	13093.03
484.967	13583.41
485.176	13476.07
485.384	13503.2
485.593	13336.96
485.801	13221.29
486.01	12691.01
486.218	12046.8
486.426	11612.03
486.635	11355.7
486.843	11462.26
487.051	11909.04
487.26	12063.27
487.468	12382.76
487.676	12796.41
487.885	13205.6
488.093	13536.33
488.301	13906.77
488.509	13884.3
488.717	14163.49
488.926	14157.48
489.134	13991.83
489.342	14015.27
489.55	13968.19
489.758	14276.64
489.967	14708.5
490.175	14645.53
490.383	15213.02
490.591	15519.72
490.799	15356.78
491.007	15209.34
491.215	15276.76
491.423	15139.78
491.631	15177.75
491.839	15044.26
492.047	14962.31
492.255	14628.09
492.463	14681.96
492.671	14445.2
492.879	14943.32
493.087	15052.98
493.295	15206.82
493.503	15443.77
493.711	15876.79
493.919	15690.41
494.127	15721.8
494.334	15766.16
494.542	15735.55
494.75	16099.8
494.958	15987.62
495.166	16445.25
495.374	16523.52
495.581	16545.22
495.789	16514.42
495.997	16585.72
496.205	15922.91
496.412	16242.4
496.62	16622.14
496.828	16369.3
497.035	16584.17
497.243	16699.44
497.451	16725.02
497.658	16676.58
497.866	16685.5
498.074	16806.01
498.281	16495.04
498.489	16550.07
498.696	16241.43
498.904	16138.35
499.112	16158.12
499.319	16481.67
499.527	16655.66
499.734	16772.29
499.942	16692.86
500.149	16690.73
500.357	16675.42
500.564	16426.26
500.771	16277.27
500.979	16142.42
501.186	16008.35
501.394	16403.59
501.601	15847.15
501.808	15944.61
502.016	16044
502.223	15932.21
502.43	16081.97
502.638	16091.66
502.845	16420.45
503.052	16570.8
503.26	16550.45
503.467	16775.01
503.674	16813.37
503.881	16708.55
504.089	16513.25
504.296	16473.73
504.503	16346.24
504.71	16179.81
504.917	16456.68
505.125	16645.78
505.332	16846.5
505.539	16896.68
505.746	17314.79
505.953	17478.12
506.16	17487.03
506.367	17560.85
506.574	17848.56
506.781	17789.08
506.988	17626.72
507.195	17472.3
507.402	17470.75
507.609	17493.03
507.816	17238.26
508.023	17225.47
508.23	17047.22
508.437	16822.09
508.644	17058.65
508.851	17201.64
509.058	17615.29
509.265	17588.74
509.472	17762.15
509.679	17890.8
509.885	17844.88
510.092	17778.23
510.299	17765.05
510.506	17439.37
510.713	17523.65
510.92	17517.64
511.126	17719.14
511.333	17819.3
511.54	17972.17
511.746	17995.03
511.953	18100.62
512.16	18308.13
512.367	18128.72
512.573	18000.46
512.78	17992.51
512.987	17836.93
513.193	17617.81
513.4	17378.72
513.606	17480.05
513.813	17588.16
514.02	17383.37
514.226	17471.53
514.433	17528.88
514.639	17298.12
514.846	17385.7
515.052	17328.74
515.259	17515.7
515.465	17613.93
515.672	17638.93
515.878	17715.26
516.085	17852.82
516.291	17829.57
516.497	17743.55
516.704	17128.21
516.91	16720.56
517.117	16021.72
517.323	15672.2
517.529	15544.13
517.736	15488.91
517.942	15657.67
518.148	16125.37
518.354	16213.91
518.561	16200.93
518.767	16042.84
518.973	16168
519.179	16631.44
519.386	16789.34
519.592	16666.51
519.798	16848.63
520.004	17520.35
520.21	17505.05
520.417	17659.46
520.623	17733.28
520.829	17799.35
521.035	17778.81
521.241	17731.15
521.447	17837.32
521.653	18165.34
521.859	17965.78
522.065	18237.6
522.271	18295.73
522.477	18205.25
522.683	18445.69
522.889	18001.23
523.095	17770.67
523.301	17856.7
523.507	17758.08
523.713	17804
523.919	17842.17
524.125	18340.48
524.331	18420.31
524.537	18707.05
524.742	18810.71
524.948	18816.71
525.154	18856.63
525.36	18793.08
525.566	18518.54
525.772	18721
525.977	18594.49
526.183	18409.07
526.389	18506.72
526.595	17859.41
526.8	17696.08
527.006	17084.03
527.212	16702.35
527.417	16662.05
527.623	16695.18
527.829	17042.57
528.034	17397.32
528.24	17504.46
528.446	17908.43
528.651	18306.58
528.857	18407.52
529.062	18531.71
529.268	18751.23
529.473	18840.16
529.679	19135.82
529.884	19074.79
530.09	18826.4
530.295	18564.65
530.501	18810.51
530.706	18829.89
530.912	18919.59
531.117	19065.68
531.323	19012.98
531.528	19321.62
531.733	19321.04
531.939	19121.67
532.144	19086.41
532.35	19027.71
532.555	19010.46
532.76	18488.89
532.966	18305.61
533.171	18268.41
533.376	18020.8
533.581	18065.36
533.787	18340.1
533.992	18674.12
534.197	18374
534.402	18741.73
534.607	18711.32
534.813	18744.06
535.018	18749.87
535.223	19085.44
535.428	18998.64
535.633	19147.25
535.838	19457.24
536.043	19548.3
536.249	19738.76
536.454	19409.58
536.659	19449.3
536.864	19321.43
537.069	19010.27
537.274	19022.28
537.479	18930.64
537.684	18964.16
537.889	18877.75
538.094	19301.66
538.299	19084.67
538.504	19324.53
538.708	19274.35
538.913	19568.45
539.118	19462.86
539.323	19344.29
539.528	19181.54
539.733	18993.8
539.938	19040.11
540.142	18962.41
540.347	18826.01
540.552	18738.05
540.757	18394.35
540.962	18619.67
541.166	18421.08
541.371	18438.71
541.576	18482.69
541.781	18636.72
541.985	19094.55
542.19	18721.2
542.395	19292.75
542.599	19226.3
542.804	18952.53
543.008	19277.64
543.213	19157.32
543.418	18960.86
543.622	19200.92
543.827	18886.46
544.031	19192.97
544.236	19289.07
544.44	19531.06
544.645	19527.77
544.849	19493.86
545.054	19494.05
545.258	19626
545.463	19625.03
545.667	19263.69
545.872	19613.4
546.076	19509.94
546.281	19516.14
546.485	19387.49
546.689	19396.79
546.894	19433.8
547.098	19603.13
547.302	19521.37
547.507	19490.76
547.711	19500.45
547.915	19396.41
548.119	19230.37
548.324	19157.9
548.528	19261.75
548.732	19283.65
548.936	19509.55
549.141	19391.95
549.345	19572.72
549.549	19522.34
549.753	19763.75
549.957	19657.58
550.161	19790.88
550.366	19743.6
550.57	19588.41
550.774	19540.55
550.978	19669.01
551.182	19580.66
551.386	19322.01
551.59	19461.89
551.794	19442.91
551.998	19658.16
552.202	19574.46
552.406	19558.38
552.61	19834.08
552.814	19734.5
553.018	19561.09
553.222	19318.91
553.426	19398.34
553.63	19595.38
553.833	19584.92
554.037	19360.95
554.241	19433.22
554.445	19631.03
554.649	19567.49
554.853	19448.14
555.056	19696.33
555.26	19816.26
555.464	19640.53
555.668	19657.77
555.871	19601.97
556.075	19747.48
556.279	19518.85
556.483	19379.36
556.686	19241.41
556.89	19384.98
557.094	19281.9
557.297	18953.31
557.501	19114.89
557.704	18867.48
557.908	19034.87
558.112	19101.91
558.315	19152.28
558.519	19059.67
558.722	18810.9
558.926	18891.31
559.129	18393.38
559.333	18664.82
559.536	18572.98
559.74	18317.04
559.943	18256.79
560.147	18467.58
560.35	18350.37
560.553	18713.83
560.757	18610.57
560.96	18742.32
561.164	18754.13
561.367	18939.16
561.57	18943.43
561.774	18798.89
561.977	18665.4
562.18	18592.36
562.384	18725.27
562.587	18553.61
562.79	18872.32
562.993	18510.01
563.197	18558.45
563.4	18870.19
563.603	18773.32
563.806	18892.86
564.009	18786.88
564.212	18704.92
564.416	18576.27
564.619	18520.48
564.822	18382.14
565.025	18664.43
565.228	18542.17
565.431	18733.02
565.634	18375.55
565.837	18299.99
566.04	18206.22
566.243	17994.45
566.446	17918.89
566.649	18165.53
566.852	18017.51
567.055	18136.66
567.258	18133.95
567.461	18357.15
567.664	18403.26
567.867	18393.18
568.07	18175.02
568.273	18382.14
568.475	18453.44
568.678	17944.08
568.881	17956.67
569.084	17687.17
569.287	17467.65
569.489	17784.82
569.692	17871.03
569.895	17880.14
570.098	17646.09
570.3	17795.09
570.503	17588.36
570.706	17527.13
570.909	17459.32
571.111	17295.61
571.314	17137.31
571.516	17208.81
571.719	17365.94
571.922	17317.5
572.124	17356.05
572.327	17485.86
572.529	17536.63
572.732	17638.34
572.935	17735.61
573.137	17918.7
573.34	17690.07
573.542	17930.51
573.745	17827.44
573.947	17839.07
574.15	17726.69
574.352	17675.16
574.554	17907.85
574.757	17612.96
574.959	17388.99
575.162	17698.21
575.364	17298.12
575.566	17496.91
575.769	17180.91
575.971	17322.92
576.173	16881.18
576.376	17200.67
576.578	17351.02
576.78	17281.46
576.982	17227.21
577.185	17339.2
577.387	17349.27
577.589	17376.98
577.791	17365.94
577.993	17322.34
578.196	17368.65
578.398	17135.76
578.6	17113.48
578.802	17022.03
579.004	16977.28
579.206	17012.54
579.408	17286.5
579.61	17058.07
579.812	17395.39
580.014	17174.9
580.216	17236.71
580.418	17475.4
580.62	17406.43
580.822	17486.64
581.024	17589.91
581.226	17631.18
581.428	17589.91
581.63	17992.9
581.832	17636.99
582.034	17836.74
582.236	17870.26
582.438	18105.27
582.64	18059.55
582.841	18131.04
583.043	18303.87
583.245	18026.23
583.447	18223.65
583.649	18224.62
583.85	18176.96
584.052	18144.8
584.254	18052.38
584.456	18167.86
584.657	18024.09
584.859	18367.61
585.061	18057.23
585.262	18141.51
585.464	17919.28
585.666	17960.55
585.867	17690.27
586.069	17779.97
586.27	17628.85
586.472	17674.96
586.674	17658.88
586.875	17586.03
587.077	17738.12
587.278	17739.67
587.48	17691.82
587.681	17959
587.883	17800.12
588.084	17566.27
588.285	17589.71
588.487	17206.68
588.688	17178.39
588.89	16494.85
589.091	16173.61
589.292	15852.77
589.494	15487.36
589.695	15303.5
589.896	15086.11
590.098	15214.57
590.299	15274.63
590.5	15609.42
590.702	15786.31
590.903	16073.25
591.104	16288.7
591.305	16464.24
591.507	16452.8
591.708	16473.92
591.909	16495.82
592.11	16452.8
592.311	16609.35
592.512	16419.87
592.714	16383.44
592.915	16639
593.116	16485.74
593.317	16834.68
593.518	16692.66
593.719	16773.65
593.92	16813.56
594.121	16738.97
594.322	16714.94
594.523	16597.73
594.724	16397.59
594.925	16525.07
595.126	16206.55
595.327	16276.88
595.528	16473.73
595.729	16514.22
595.929	16558.4
596.13	16627.95
596.331	16830.42
596.532	16672.9
596.733	16945.89
596.934	16908.89
597.135	16944.54
597.335	16864.13
597.536	16800
597.737	16790.12
597.938	16688.98
598.138	16746.53
598.339	16842.04
598.54	16834.68
598.74	16599.08
598.941	16628.73
599.142	16853.86
599.342	16830.22
599.543	16779.27
599.744	16795.93
599.944	16914.89
600.145	16925.55
