Data from calibration3_FLMT105791__1__17-25-29-069.txt Node

Date: Mon Mar 20 17:25:29 GMT 2023
User: antho
Spectrometer: FLMT10579
Trigger mode: 0
Integration Time (sec): 1.000000E-1
Scans to average: 10
Electric dark correction enabled: true
Nonlinearity correction enabled: false
Boxcar width: 0
XAxis mode: Wavelengths
Number of Pixels in Spectrum: 3648
>>>>>Begin Spectral Data<<<<<
345.248	-170.17
345.464	-170.17
345.681	-170.17
345.898	-162.81
346.114	-159.52
346.331	-12.85
346.548	14.27
346.764	-27
346.981	-7.04
347.197	-5.49
347.414	19.12
347.631	-27.19
347.847	66.39
348.064	5.94
348.28	2.84
348.497	-26.41
348.713	-2.58
348.93	29.19
349.146	73.75
349.363	102.23
349.579	116.38
349.796	104.56
350.012	107.08
350.229	153.96
350.445	113.28
350.661	122.58
350.878	120.45
351.094	147.76
351.311	141.18
351.527	130.71
351.743	128
351.96	152.8
352.176	206.66
352.392	172.56
352.609	160.36
352.825	129.16
353.041	152.22
353.257	131.3
353.474	160.55
353.69	174.5
353.906	159.2
354.122	163.07
354.339	237.28
354.555	187.48
354.771	170.82
354.987	252.78
355.203	240.96
355.42	165.59
355.636	176.25
355.852	186.13
356.068	181.48
356.284	156.87
356.5	225.65
356.716	203.95
356.932	167.53
357.148	221.78
357.364	176.25
357.58	195.43
357.796	255.68
358.012	227.98
358.228	170.63
358.444	142.92
358.66	202.4
358.876	184.38
359.092	139.63
359.308	200.85
359.524	224.1
359.74	220.23
359.956	240.38
360.172	247.93
360.388	300.24
360.604	237.86
360.819	341.51
361.035	236.11
361.251	272.54
361.467	195.04
361.683	259.94
361.898	254.33
362.114	257.23
362.33	300.44
362.546	263.04
362.762	288.23
362.977	302.76
363.193	261.69
363.409	353.52
363.624	271.57
363.84	269.24
364.056	277.96
364.271	338.61
364.487	326.79
364.703	308.57
364.918	303.34
365.134	290.56
365.35	329.31
365.565	444.39
365.781	364.96
365.996	421.53
366.212	455.82
366.427	435.48
366.643	396.92
366.858	403.7
367.074	390.53
367.289	449.04
367.505	528.28
367.72	372.12
367.936	424.24
368.151	451.37
368.367	456.02
368.582	421.92
368.798	374.06
369.013	454.27
369.228	453.3
369.444	435.67
369.659	457.76
369.874	467.64
370.09	511.43
370.305	424.44
370.52	445.36
370.736	501.55
370.951	435.87
371.166	480.62
371.381	502.13
371.597	495.54
371.812	427.54
372.027	438.19
372.242	442.45
372.458	520.73
372.673	408.94
372.888	404.09
373.103	474.62
373.318	514.72
373.533	464.54
373.749	402.93
373.964	357.01
374.179	456.99
374.394	350.04
374.609	462.02
374.824	390.53
375.039	437.22
375.254	380.84
375.469	463.38
375.684	454.47
375.899	537.97
376.114	540.1
376.329	508.52
376.544	534.1
376.759	556.57
376.974	467.06
377.189	511.04
377.404	519.18
377.619	580.21
377.834	554.25
378.049	576.72
378.264	598.03
378.478	664.68
378.693	653.44
378.908	692.78
379.123	622.25
379.338	645.69
379.553	614.5
379.767	582.53
379.982	573.81
380.197	586.02
380.412	578.08
380.626	631.94
380.841	725.13
381.056	719.51
381.271	749.54
381.485	633.1
381.7	629.42
381.915	651.31
382.129	542.82
382.344	549.98
382.559	542.82
382.773	571.1
382.988	444.97
383.202	509.3
383.417	445.75
383.632	563.35
383.846	494.38
384.061	478.68
384.275	482.95
384.49	574.2
384.704	643.56
384.919	673.4
385.133	684.64
385.348	769.31
385.562	675.14
385.777	739.86
385.991	669.91
386.206	680.38
386.42	652.48
386.634	767.95
386.849	721.26
387.063	764.66
387.277	739.08
387.492	725.91
387.706	711.57
387.92	716.8
388.135	776.09
388.349	821.81
388.563	794.3
388.778	750.32
388.992	798.56
389.206	818.13
389.42	872.19
389.635	845.45
389.849	953.37
390.063	1017.5
390.277	1005.1
390.491	1082.98
390.706	1022.92
390.92	1040.36
391.134	1038.03
391.348	1088.21
391.562	1058.57
391.776	1135.29
391.99	1167.07
392.205	1142.08
392.419	1047.91
392.633	1015.17
392.847	980.68
393.061	862.89
393.275	816.58
393.489	651.7
393.703	622.06
393.917	618.76
394.131	581.18
394.345	735.21
394.559	887.49
394.773	918.88
394.986	1107.59
395.2	1125.22
395.414	1237.4
395.628	1235.85
395.842	1317.61
396.056	1244.57
396.27	1176.95
396.484	1170.75
396.697	1017.5
396.911	918.68
397.125	781.12
397.339	771.63
397.553	789.26
397.766	968.28
397.98	1147.69
398.194	1313.35
398.408	1443.74
398.621	1546.43
398.835	1617.53
399.049	1650.86
399.262	1755.29
399.476	1783.96
399.69	1804.3
399.903	1852.55
400.117	1829.88
400.331	1874.44
400.544	1880.83
400.758	1992.82
400.971	1921.71
401.185	1960.85
401.398	1873.66
401.612	2025.37
401.826	2059.47
402.039	2056.37
402.253	2066.25
402.466	2128.64
402.68	2135.8
402.893	2208.65
403.106	2141.42
403.32	2070.9
403.533	2134.84
403.747	2083.49
403.96	2115.46
404.174	2199.35
404.387	2205.75
404.6	2184.44
404.814	2216.4
405.027	2111.2
405.24	2120.89
405.454	2142
405.667	2201.87
405.88	2198.19
406.094	2235.39
406.307	2220.67
406.52	2139.68
406.733	2093.18
406.947	2138.9
407.16	2222.22
407.373	2274.33
407.586	2289.64
407.799	2266.58
408.012	2297.39
408.226	2314.83
408.439	2427.98
408.652	2383.61
408.865	2546.94
409.078	2607.39
409.291	2629.67
409.504	2549.84
409.717	2581.23
409.93	2569.22
410.143	2418.09
410.357	2273.95
410.57	2176.88
410.783	2294.1
410.996	2364.43
411.209	2407.63
411.421	2667.25
411.634	2683.92
411.847	2689.34
412.06	2750.37
412.273	2793.19
412.486	2778.66
412.699	2815.47
412.912	2877.66
413.125	2749.98
413.338	2796.48
413.55	2735.84
413.763	2713.37
413.976	2785.44
414.189	2761.61
414.402	2839.49
414.615	2935.01
414.827	2809.85
415.04	2856.35
415.253	2878.24
415.466	2926.49
415.678	2993.33
415.891	2890.26
416.104	2840.08
416.316	2920.48
416.529	3000.5
416.742	3113.45
416.954	3063.27
417.167	3065.02
417.38	2958.26
417.592	2980.35
417.805	2880.76
418.017	2899.36
418.23	2896.65
418.442	2903.82
418.655	2953.42
418.868	2896.07
419.08	3014.64
419.293	3064.05
419.505	3089.43
419.718	3049.9
419.93	3111.13
420.142	3042.74
420.355	3022.39
420.567	3006.7
420.78	3083.42
420.992	3119.85
421.205	3282.4
421.417	3302.16
421.629	3339.36
421.842	3307.2
422.054	3311.46
422.266	3367.07
422.479	3319.21
422.691	3108.61
422.903	3184.56
423.115	3067.34
423.328	3092.92
423.54	3100.28
423.752	3162.86
423.964	3252.95
424.177	3287.24
424.389	3294.99
424.601	3449.02
424.813	3384.31
425.025	3426.74
425.238	3434.3
425.45	3348.86
425.662	3322.7
425.874	3683.85
426.086	3318.44
426.298	3451.74
426.51	3413.57
426.722	3394.97
426.934	3431.59
427.146	3443.02
427.358	3397.87
427.57	3402.72
427.782	3260.9
427.994	3328.13
428.206	3291.7
428.418	3508.31
428.63	3611.96
428.842	3623.01
429.054	3472.47
429.266	3458.13
429.478	3342.08
429.69	3346.92
429.902	3233.38
430.114	3189.79
430.325	3036.34
430.537	2853.25
430.749	2791.83
430.961	2631.6
431.173	2722.47
431.384	2786.41
431.596	2851.7
431.808	3305.07
432.02	3698.96
432.231	3945.02
432.443	4150.97
432.655	4025.81
432.867	3895.03
433.078	3934.94
433.29	4042.28
433.502	4161.04
433.713	4246.87
433.925	4264.89
434.136	4134.7
434.348	3854.92
434.56	3724.73
434.771	3988.22
434.983	3869.46
435.194	4158.33
435.406	4331.54
435.617	4331.74
435.829	4496.42
436.04	4497
436.252	4421.05
436.463	4674.28
436.675	4810.1
436.886	4879.65
437.098	4897.67
437.309	4933.13
437.521	4773.67
437.732	4656.07
437.943	4623.13
438.155	4589.81
438.366	4469.49
438.578	4606.08
438.789	4362.54
439	4313.14
439.211	4323.02
439.423	4425.32
439.634	4601.04
439.845	4751.97
440.057	4814.75
440.268	4975.17
440.479	4904.07
440.69	4834.9
440.902	4811.07
441.113	4798.86
441.324	4948.82
441.535	5154.39
441.746	5257.46
441.957	5230.72
442.168	5321.4
442.38	5349.68
442.591	5373.13
442.802	5286.91
443.013	5489.57
443.224	5525.8
443.435	5455.08
443.646	5400.83
443.857	5376.03
444.068	5413.43
444.279	5378.94
444.49	5721.87
444.701	5577.72
444.912	5846.84
445.123	5755.39
445.334	5535.87
445.545	5676.34
445.756	5539.94
445.967	5442.88
446.178	5352.59
446.388	5295.43
446.599	5383.78
446.81	5447.91
447.021	5475.43
447.232	5622.87
447.443	5727.68
447.653	5874.55
447.864	5981.11
448.075	6020.63
448.286	5985.37
448.496	5934.41
448.707	5963.86
448.918	5886.36
449.129	5953.4
449.339	5968.71
449.55	6074.3
449.761	6006.49
449.971	5991.57
450.182	6141.53
450.393	6177.57
450.603	6155.87
450.814	6467.61
451.024	6394.95
451.235	6564.48
451.446	6576.69
451.656	6565.25
451.867	6465.47
452.077	6303.5
452.288	6472.84
452.498	6331.98
452.709	6313.58
452.919	6145.79
453.13	6009.97
453.34	5965.8
453.55	5765.08
453.761	6082.24
453.971	5971.22
454.182	6157.03
454.392	6203.53
454.602	6447.26
454.813	6502.87
455.023	6329.66
455.233	6273.28
455.444	6375.38
455.654	6153.15
455.864	6274.63
456.075	6425.76
456.285	6394.37
456.495	6437.38
456.705	6525.54
456.916	6732.65
457.126	6752.41
457.336	6687.51
457.546	6554.21
457.756	6710.76
457.967	6772.95
458.177	6608.27
458.387	6685.38
458.597	6498.8
458.807	6632.29
459.017	6470.12
459.227	6503.64
459.437	6541.62
459.647	6721.41
459.857	6649.92
460.068	6812.67
460.278	6843.09
460.488	6809.38
460.698	6842.51
460.908	6912.84
461.117	7061.05
461.327	7032.57
461.537	7164.13
461.747	7127.7
461.957	7123.83
462.167	7293.74
462.377	7286.77
462.587	7144.56
462.797	7355.36
463.007	7210.43
463.216	7429.75
463.426	7577.58
463.636	7458.43
463.846	7218.57
464.056	7247.83
464.265	7216.63
464.475	7284.83
464.685	7482.07
464.895	7367.95
465.104	7210.43
465.314	7410.57
465.524	7308.66
465.733	7339.47
465.943	7544.45
466.153	7715.73
466.362	7775.21
466.572	7608.78
466.782	7515.39
466.991	7656.44
467.201	7568.09
467.41	7401.66
467.62	7698.48
467.829	7679.49
468.039	7895.52
468.249	7797.29
468.458	7945.32
468.668	7911.22
468.877	8047.61
469.086	8173.94
469.296	8347.34
469.505	8379.5
469.715	8301.04
469.924	8219.47
470.134	8359.16
470.343	8148.36
470.552	8164.83
470.762	8110.58
470.971	8190.79
471.18	8301.42
471.39	8433.56
471.599	8358.58
471.808	8470.76
472.018	8753.44
472.227	8934.4
472.436	9215.72
472.645	9175.8
472.855	9092.69
473.064	9398.03
473.273	9391.25
473.482	9110.12
473.691	9254.27
473.901	9166.5
474.11	9048.32
474.319	9448.41
474.528	9387.18
474.737	9858.96
474.946	9697.18
475.155	9783.98
475.364	9994.19
475.573	9798.12
475.783	10099.59
475.992	9915.53
476.201	9961.84
476.41	10076.15
476.619	9852.37
476.828	9875.04
477.037	9872.13
477.245	9957.19
477.454	10148.8
477.663	10434.77
477.872	10678.31
478.081	10824.4
478.29	10751.16
478.499	10916.24
478.708	11095.84
478.917	11117.73
479.125	10769.96
479.334	10896.86
479.543	11197.17
479.752	11302.18
479.961	11304.5
480.169	11573.23
480.378	11625.16
480.587	11976.42
480.796	11761.17
481.004	11872.38
481.213	11927.21
481.422	12031.44
481.63	12257.94
481.839	12376.51
482.048	12491.21
482.256	12475.13
482.465	12814.57
482.674	12686.5
482.882	12708.2
483.091	12812.25
483.299	12610.94
483.508	12951.74
483.716	13130.57
483.925	13152.66
484.134	12783.57
484.342	13067.8
484.551	13099.77
484.759	12957.36
484.967	13470.41
485.176	13319.48
485.384	13315.21
485.593	13142.39
485.801	13106.74
486.01	12513.68
486.218	11909.77
486.426	11478.3
486.635	11264.79
486.843	11325.24
487.051	11662.36
487.26	11976.03
487.468	12309.47
487.676	12663.06
487.885	12973.06
488.093	13290.22
488.301	13814.11
488.509	13769.36
488.717	14044.09
488.926	14096.02
489.134	13823.41
489.342	13858.67
489.55	13711.62
489.758	14135.54
489.967	14531.75
490.175	14449.99
490.383	14959.35
490.591	15275.35
490.799	15118.23
491.007	15037.05
491.215	15046.54
491.423	14922.73
491.631	14887.28
491.839	14816.95
492.047	14742.74
492.255	14450.77
492.463	14461.42
492.671	14261.09
492.879	14643.74
493.087	14885.34
493.295	15060.29
493.503	15216.07
493.711	15649.29
493.919	15525.29
494.127	15528.19
494.334	15436.94
494.542	15523.54
494.75	16006.17
494.958	15664.21
495.166	16180.35
495.374	16222.78
495.581	16401.41
495.789	16320.81
495.997	16346.78
496.205	15723.3
496.412	16014.69
496.62	16401.03
496.828	16159.62
497.035	16368.86
497.243	16461.28
497.451	16556.99
497.658	16521.73
497.866	16504.1
498.074	16606.59
498.281	16275.09
498.489	16335.35
498.696	16099.17
498.904	15969.94
499.112	15961.99
499.319	16295.63
499.527	16393.28
499.734	16597.29
499.942	16468.26
500.149	16549.05
500.357	16514.95
500.564	16215.22
500.771	16207.86
500.979	15965.68
501.186	15811.45
501.394	16135.01
501.601	15658.39
501.808	15752.36
502.016	15799.25
502.223	15756.24
502.43	15943.39
502.638	15870.35
502.845	16204.57
503.052	16398.31
503.26	16382.81
503.467	16587.02
503.674	16617.25
503.881	16528.32
504.089	16393.66
504.296	16252.23
504.503	16139.85
504.71	16049.37
504.917	16277.42
505.125	16417.88
505.332	16636.62
505.539	16652.9
505.746	17114.98
505.953	17165.36
506.16	17254.09
506.367	17267.08
506.574	17596.06
506.781	17510.81
506.988	17413.74
507.195	17276.38
507.402	17304.47
507.609	17227.36
507.816	16961.34
508.023	17004.94
508.23	16773.6
508.437	16562.61
508.644	16759.26
508.851	16888.69
509.058	17312.8
509.265	17344.57
509.472	17564.09
509.679	17640.23
509.885	17563.12
510.092	17564.48
510.299	17538.13
510.506	17174.46
510.713	17331.79
510.92	17305.83
511.126	17386.81
511.333	17613.88
511.54	17745.63
511.746	17789.22
511.953	17797.56
512.16	18080.62
512.367	17924.07
512.573	17708.63
512.78	17717.54
512.987	17596.25
513.193	17368.02
513.4	17245.18
513.606	17333.92
513.813	17398.05
514.02	17233.95
514.226	17261.07
514.433	17257.58
514.639	17137.46
514.846	17179.89
515.052	17128.93
515.259	17312.8
515.465	17347.67
515.672	17389.72
515.878	17516.82
516.085	17713.66
516.291	17651.86
516.497	17501.7
516.704	16938.48
516.91	16565.9
517.117	15785.68
517.323	15339.48
517.529	15363.9
517.736	15332.9
517.942	15447.21
518.148	15845.55
518.354	16023.99
518.561	16022.25
518.767	15857.56
518.973	15982.14
519.179	16364.41
519.386	16545.17
519.592	16537.23
519.798	16569.97
520.004	17256.81
520.21	17314.93
520.417	17410.84
520.623	17577.07
520.829	17500.35
521.035	17623.38
521.241	17464.7
521.447	17636.75
521.653	17923.49
521.859	17785.54
522.065	17943.83
522.271	17973.09
522.477	17945
522.683	18151.92
522.889	17766.17
523.095	17505.19
523.301	17643.14
523.507	17427.69
523.713	17603.23
523.919	17501.9
524.125	18046.33
524.331	18220.7
524.537	18487.68
524.742	18561.11
524.948	18486.33
525.154	18657.79
525.36	18476.83
525.566	18286.57
525.772	18477.41
525.977	18335.98
526.183	18234.26
526.389	18269.72
526.595	17661.16
526.8	17424.59
527.006	16893.53
527.212	16430.28
527.417	16469.81
527.623	16522.12
527.829	16816.61
528.034	17244.21
528.24	17254.87
528.446	17665.81
528.651	18041.68
528.857	18107.16
529.062	18272.04
529.268	18579.13
529.473	18666.32
529.679	18916.06
529.884	18876.34
530.09	18713.59
530.295	18248.99
530.501	18578.74
530.706	18573.9
530.912	18764.94
531.117	18825.97
531.323	18666.71
531.528	19153.79
531.733	19124.72
531.939	18930.01
532.144	18952.29
532.35	18732.39
532.555	18688.02
532.76	18232.91
532.966	18053.3
533.171	17917.87
533.376	17822.36
533.581	17809.96
533.787	18005.06
533.992	18283.28
534.197	17977.55
534.402	18528.56
534.607	18566.54
534.813	18462.88
535.018	18469.28
535.223	18684.53
535.428	18750.4
535.633	18937.37
535.838	19194.86
536.043	19204.55
536.249	19434.53
536.454	19191.37
536.659	19243.49
536.864	19090.24
537.069	18863.55
537.274	18702.36
537.479	18810.08
537.684	18613.23
537.889	18574.48
538.094	19029.21
538.299	18828.1
538.504	19189.44
538.708	19001.11
538.913	19294.64
539.118	19169.87
539.323	19058.08
539.528	18851.35
539.733	18768.23
539.938	18812.21
540.142	18656.05
540.347	18617.3
540.552	18499.89
540.757	18126.34
540.962	18359.23
541.166	18151.34
541.371	18193.58
541.576	18227.48
541.781	18427.23
541.985	18742.07
542.19	18537.48
542.395	19057.11
542.599	18964.3
542.804	18693.83
543.008	18919.55
543.213	18862
543.418	18678.91
543.622	18942.6
543.827	18567.31
544.031	18909.86
544.236	19022.43
544.44	19249.11
544.645	19186.14
544.849	19172.77
545.054	19245.82
545.258	19300.84
545.463	19389.96
545.667	19006.54
545.872	19376.21
546.076	19224.12
546.281	19248.92
546.485	19123.56
546.689	19151.66
546.894	19200.29
547.098	19354.9
547.302	19230.9
547.507	19171.8
547.711	19252.4
547.915	19156.89
548.119	18857.74
548.324	18934.08
548.528	18921.48
548.732	19013.71
548.936	19275.46
549.141	19155.14
549.345	19215.2
549.549	19301.81
549.753	19412.44
549.957	19354.12
550.161	19476.18
550.366	19498.27
550.57	19303.17
550.774	19221.6
550.978	19397.71
551.182	19276.04
551.386	19077.06
551.59	19207.45
551.794	19204.55
551.998	19321.18
552.202	19414.57
552.406	19346.18
552.61	19617.62
552.814	19444.41
553.018	19347.15
553.222	19070.86
553.426	19183.82
553.63	19339.98
553.833	19269.45
554.037	18992.78
554.241	19103.99
554.445	19376.21
554.649	19281.08
554.853	19188.66
555.056	19413.41
555.26	19553.49
555.464	19352.96
555.668	19447.7
555.871	19515.9
556.075	19458.16
556.279	19261.12
556.483	19162.89
556.686	19054.2
556.89	19135.57
557.094	19066.02
557.297	18706.81
557.501	18731.03
557.704	18527.01
557.908	18839.14
558.112	18816.28
558.315	18895.72
558.519	18733.94
558.722	18462.69
558.926	18684.53
559.129	18136.03
559.333	18266.42
559.536	18238.33
559.74	18126.73
559.943	18099.61
560.147	18269.91
560.35	18148.43
560.553	18432.27
560.757	18452.03
560.96	18464.63
561.164	18549.3
561.367	18797.1
561.57	18670
561.774	18553.94
561.977	18360.39
562.18	18425.88
562.384	18559.76
562.587	18340.63
562.79	18540
562.993	18486.91
563.197	18385.38
563.4	18632.41
563.603	18543.29
563.806	18560.14
564.009	18541.93
564.212	18520.81
564.416	18254.8
564.619	18233.87
564.822	18174.78
565.025	18443.9
565.228	18401.08
565.431	18433.24
565.634	18156.57
565.837	18059.5
566.04	17943.45
566.243	17777.6
566.446	17709.79
566.649	17913.22
566.852	17606.71
567.055	17943.06
567.258	17858.78
567.461	18063.57
567.664	18076.16
567.867	18130.41
568.07	17916.13
568.273	18086.82
568.475	18200.55
568.678	17717.93
568.881	17803.17
569.084	17466.05
569.287	17381.58
569.489	17495.89
569.692	17568.93
569.895	17609.04
570.098	17452.3
570.3	17475.94
570.503	17355.23
570.706	17243.63
570.909	17142.69
571.111	17020.05
571.314	16941
571.516	16903.41
571.719	17005.52
571.922	17017.34
572.124	17116.34
572.327	17270.37
572.529	17227.55
572.732	17372.86
572.935	17440.87
573.137	17718.12
573.34	17399.02
573.542	17699.91
573.745	17521.47
573.947	17591.6
574.15	17362.79
574.352	17455.59
574.554	17624.73
574.757	17360.66
574.959	17045.24
575.162	17470.51
575.364	17187.06
575.566	17229.3
575.769	16960.76
575.971	17091.54
576.173	16709.08
576.376	16857.69
576.578	17100.07
576.78	17085.34
576.982	16982.65
577.185	17103.75
577.387	17042.14
577.589	17213.02
577.791	17065.58
577.993	17088.83
578.196	17120.99
578.398	16945.65
578.6	16844.51
578.802	16769.34
579.004	16748.61
579.206	16753.65
579.408	16972
579.61	16898.37
579.812	17156.83
580.014	16930.92
580.216	17010.94
580.418	17247.31
580.62	17274.83
580.822	17280.44
581.024	17262.62
581.226	17320.74
581.428	17324.04
581.63	17661.93
581.832	17472.45
582.034	17527.86
582.236	17548.4
582.438	17756.48
582.64	17811.51
582.841	17802.59
583.043	18059.5
583.245	17858
583.447	17930.47
583.649	17890.55
583.85	17933.37
584.052	17996.34
584.254	17811.12
584.456	17901.6
584.657	17820.03
584.859	18013.39
585.061	17737.88
585.262	17892.49
585.464	17641.78
585.666	17766.17
585.867	17452.3
586.069	17493.37
586.27	17445.32
586.472	17422.65
586.674	17488.92
586.875	17371.51
587.077	17454.43
587.278	17517.98
587.48	17524.95
587.681	17624.93
587.883	17552.08
588.084	17321.13
588.285	17309.7
588.487	16940.22
588.688	16861.18
588.89	16386.88
589.091	16062.16
589.292	15652.19
589.494	15234.28
589.695	15089.55
589.896	14827.6
590.098	15028.71
590.299	15047.31
590.5	15278.26
590.702	15582.06
590.903	15841.87
591.104	16023.99
591.305	16298.34
591.507	16268.7
591.708	16298.53
591.909	16297.76
592.11	16302.41
592.311	16362.47
592.512	16154
592.714	16137.53
592.915	16415.94
593.116	16322.17
593.317	16577.72
593.518	16539.94
593.719	16602.72
593.92	16622.67
594.121	16517.08
594.322	16517.08
594.523	16351.04
594.724	16210.57
594.925	16285.36
595.126	16030.39
595.327	16175.89
595.528	16336.31
595.729	16275.09
595.929	16291.36
596.13	16473.49
596.331	16628.49
596.532	16453.53
596.733	16722.45
596.934	16658.13
597.135	16703.27
597.335	16708.12
597.536	16645.34
597.737	16678.67
597.938	16556.99
598.138	16531.03
598.339	16658.9
598.54	16660.84
598.74	16345.03
598.941	16453.92
599.142	16629.45
599.342	16553.89
599.543	16559.9
599.744	16591.67
599.944	16688.16
