Data from calibration3_FLMT105791__5__17-25-33-069.txt Node

Date: Mon Mar 20 17:25:33 GMT 2023
User: antho
Spectrometer: FLMT10579
Trigger mode: 0
Integration Time (sec): 1.000000E-1
Scans to average: 10
Electric dark correction enabled: true
Nonlinearity correction enabled: false
Boxcar width: 0
XAxis mode: Wavelengths
Number of Pixels in Spectrum: 3648
>>>>>Begin Spectral Data<<<<<
345.248	-182.67
345.464	-182.67
345.681	-182.67
345.898	-175.5
346.114	-187.71
346.331	-27.29
346.548	21.54
346.764	-17.99
346.981	-2.68
347.197	-27.29
347.414	28.51
347.631	-12.56
347.847	66.68
348.064	-0.94
348.28	18.63
348.497	-33.1
348.713	-13.53
348.93	23.48
349.146	63.58
349.363	99.81
349.579	113.57
349.796	105.24
350.012	88.96
350.229	155.03
350.445	122.87
350.661	114.15
350.878	141.27
351.094	127.32
351.311	154.26
351.527	155.61
351.743	124.42
351.96	176.54
352.176	160.26
352.392	177.12
352.609	164.33
352.825	148.25
353.041	143.79
353.257	135.27
353.474	166.65
353.69	165.49
353.906	171.3
354.122	143.41
354.339	219.74
354.555	199.2
354.771	166.46
354.987	226.91
355.203	251.9
355.42	188.94
355.636	172.47
355.852	161.23
356.068	203.47
356.284	145.15
356.5	252.68
356.716	195.33
356.932	174.6
357.148	225.75
357.364	174.79
357.58	230.01
357.796	257.91
358.012	227.3
358.228	202.3
358.444	104.46
358.66	186.22
358.876	190.1
359.092	156.77
359.308	197.46
359.524	217.03
359.74	241.05
359.956	245.51
360.172	256.75
360.388	296.85
360.604	235.44
360.819	292.98
361.035	229.43
361.251	248.22
361.467	201.34
361.683	262.95
361.898	266.63
362.114	273.02
362.33	257.52
362.546	286.97
362.762	279.8
362.977	266.24
363.193	266.05
363.409	300.15
363.624	282.9
363.84	283.87
364.056	275.35
364.271	336.38
364.487	337.54
364.703	336.57
364.918	301.5
365.134	296.66
365.35	325.33
365.565	432.86
365.781	376.48
365.996	391.21
366.212	479.75
366.427	437.9
366.643	435.19
366.858	396.25
367.074	387.33
367.289	471.23
367.505	520.44
367.72	379.39
367.936	445.84
368.151	457.66
368.367	445.07
368.582	408.65
368.798	394.31
369.013	453.98
369.228	423.56
369.444	417.56
369.659	478.39
369.874	448.75
370.09	511.72
370.305	402.83
370.52	448.56
370.736	527.22
370.951	440.81
371.166	496.8
371.381	494.09
371.597	481.3
371.812	456.11
372.027	470.26
372.242	474.33
372.458	504.94
372.673	418.91
372.888	443.13
373.103	464.25
373.318	524.89
373.533	431.7
373.749	422.59
373.964	335.21
374.179	449.33
374.394	349.36
374.609	448.17
374.824	397.02
375.039	449.72
375.254	374.35
375.469	476.84
375.684	483.82
375.899	544.07
376.114	509.2
376.329	519.66
376.544	533.42
376.759	538.65
376.974	518.31
377.189	509.39
377.404	550.27
377.619	591.74
377.834	540.39
378.049	578.17
378.264	623.12
378.478	697.13
378.693	653.74
378.908	671.17
379.123	612.47
379.338	651.8
379.553	585.34
379.767	589.61
379.982	574.69
380.197	578.37
380.412	566.36
380.626	638.43
380.841	711.47
381.056	697.52
381.271	738.98
381.485	653.15
381.7	630.49
381.915	627.58
382.129	592.71
382.344	559.57
382.559	537.68
382.773	544.27
382.988	463.67
383.202	498.74
383.417	452.82
383.632	550.47
383.846	469.29
384.061	493.51
384.275	487.11
384.49	571.39
384.704	624.48
384.919	676.79
385.133	680.67
385.348	752.93
385.562	702.95
385.777	732.4
385.991	675.05
386.206	663.81
386.42	653.15
386.634	761.46
386.849	738.4
387.063	764.37
387.277	743.05
387.492	717.48
387.706	695.97
387.92	707.98
388.135	792.26
388.349	796.14
388.563	776.38
388.778	753.13
388.992	803.7
389.206	806.41
389.42	895.73
389.635	859.88
389.849	960.44
390.063	1012.17
390.277	1007.52
390.491	1067.58
390.706	1011.2
390.92	1013.52
391.134	1036.19
391.348	1122.02
391.562	1058.67
391.776	1148.37
391.99	1134.62
392.205	1122.8
392.419	1061.77
392.633	1003.26
392.847	981.36
393.061	843.61
393.275	849.42
393.489	672.53
393.703	583.99
393.917	612.27
394.131	605.1
394.345	756.23
394.559	871.51
394.773	936.99
394.986	1091.41
395.2	1143.92
395.414	1240.79
395.628	1257.45
395.842	1287.48
396.056	1279.35
396.27	1171.43
396.484	1176.85
396.697	1041.62
396.911	926.14
397.125	813.38
397.339	808.93
397.553	831.01
397.766	965.09
397.98	1141.78
398.194	1312.67
398.408	1451.39
398.621	1521.14
398.835	1648.24
399.049	1674.78
399.262	1768.75
399.476	1794.91
399.69	1836.17
399.903	1883.06
400.117	1809.05
400.331	1882.09
400.544	1864.66
400.758	2009.97
400.971	1928.79
401.185	1946.42
401.398	1940.6
401.612	2065.57
401.826	2045.03
402.039	2082.81
402.253	2095.6
402.466	2178.91
402.68	2128.73
402.893	2210.11
403.106	2157.8
403.32	2113.23
403.533	2159.73
403.747	2054.92
403.96	2151.21
404.174	2207.59
404.387	2168.84
404.6	2213.21
404.814	2226.96
405.027	2127.38
405.24	2113.81
405.454	2135.51
405.667	2225.03
405.88	2191.12
406.094	2223.28
406.307	2218.24
406.52	2170
406.733	2112.46
406.947	2145.59
407.16	2257.96
407.373	2287.02
407.586	2303.69
407.799	2335.07
408.012	2297.68
408.226	2322.87
408.439	2461.78
408.652	2429.04
408.865	2546.65
409.078	2632.09
409.291	2616.59
409.504	2620.08
409.717	2636.74
409.93	2585.4
410.143	2416.64
410.357	2276.37
410.57	2203.33
410.783	2280.82
410.996	2359.1
411.209	2473.41
411.421	2672.78
411.634	2738.07
411.847	2723.54
412.06	2782.24
412.273	2798.32
412.486	2818.47
412.699	2871.37
412.912	2877.95
413.125	2844.82
413.338	2790.96
413.55	2741.17
413.763	2748.92
413.976	2851.02
414.189	2780.31
414.402	2842.5
414.615	2963.2
414.827	2834.36
415.04	2873.88
415.253	2864.2
415.466	2946.93
415.678	2975.99
415.891	2933.17
416.104	2865.55
416.316	2927.75
416.529	3017.45
416.742	3129.05
416.954	3078.29
417.167	3014.16
417.38	3032.37
417.592	2958.16
417.805	2887.45
418.017	2893.07
418.23	2945.96
418.442	2934.53
418.655	2950.61
418.868	2913.8
419.08	3011.64
419.293	3036.83
419.505	3106.19
419.718	3070.73
419.93	3106.19
420.142	3020.16
420.355	3042.64
420.567	3016.1
420.78	3121.49
420.992	3120.53
421.205	3317.76
421.417	3324.54
421.629	3384.41
421.842	3335.58
422.054	3340.62
422.266	3357.48
422.479	3360.97
422.691	3184.46
422.903	3258.86
423.115	3095.73
423.328	3086.43
423.54	3163.34
423.752	3182.72
423.964	3248.79
424.177	3315.82
424.389	3311.95
424.601	3430.33
424.813	3423.74
425.025	3421.22
425.238	3422.77
425.45	3405.33
425.662	3359.03
425.874	3647.13
426.086	3360.97
426.298	3507.05
426.51	3444.66
426.722	3430.52
426.934	3473.15
427.146	3511.89
427.358	3411.34
427.57	3438.27
427.782	3294.9
427.994	3305.55
428.206	3350.31
428.418	3595.59
428.63	3646.94
428.842	3638.61
429.054	3483.61
429.266	3455.71
429.478	3413.47
429.69	3332.29
429.902	3235.22
430.114	3259.25
430.325	3086.81
430.537	2891.71
430.749	2803.94
430.961	2670.06
431.173	2729.93
431.384	2791.54
431.596	2891.9
431.808	3307.3
432.02	3706.42
432.231	3987.16
432.443	4216.94
432.655	4057.68
432.867	3971.27
433.078	3977.47
433.29	4066.59
433.502	4165.79
433.713	4272.35
433.925	4326.8
434.136	4122.39
434.348	3861.41
434.56	3802.71
434.771	4023.97
434.983	3921.86
435.194	4199.7
435.406	4394.03
435.617	4375.23
435.829	4479.08
436.04	4540.89
436.252	4482.57
436.463	4717.2
436.675	4818.33
436.886	4880.91
437.098	4974.69
437.309	4935.16
437.521	4814.07
437.732	4659.85
437.943	4658.3
438.155	4593.97
438.366	4547.09
438.578	4624
438.789	4405.65
439	4370.58
439.211	4331.45
439.423	4475.4
439.634	4668.37
439.845	4798.38
440.057	4840.03
440.268	5031.07
440.479	4963.26
440.69	4962.48
440.902	4826.47
441.113	4829.38
441.324	4956.67
441.535	5171.34
441.746	5277.32
441.957	5278.87
442.168	5395.51
442.38	5382.72
442.591	5479.98
442.802	5379.04
443.013	5529.38
443.224	5568.33
443.435	5475.14
443.646	5453.63
443.857	5418.56
444.068	5460.8
444.279	5430.38
444.49	5760.72
444.701	5591
444.912	5881.62
445.123	5776.41
445.334	5582.47
445.545	5746.38
445.756	5605.91
445.967	5472.42
446.178	5376.32
446.388	5318.97
446.599	5458.67
446.81	5535.78
447.021	5519.31
447.232	5646.8
447.443	5737.28
447.653	5947.68
447.864	6076.53
448.075	6033.13
448.286	5985.27
448.496	5940.32
448.707	6074.59
448.918	5880.45
449.129	5971.9
449.339	5967.64
449.55	6116.24
449.761	6137.94
449.971	6050.95
450.182	6181.15
450.393	6292.36
450.603	6205.56
450.814	6434.57
451.024	6482.43
451.235	6691.29
451.446	6600.23
451.656	6608.56
451.867	6545.59
452.077	6348.16
452.288	6505.68
452.498	6395.82
452.709	6335.57
452.919	6168.36
453.13	6061.22
453.34	6044.75
453.55	5865.92
453.761	6126.32
453.971	6096.29
454.182	6162.74
454.392	6275.89
454.602	6533
454.813	6565.35
455.023	6411.9
455.233	6324.52
455.444	6363.27
455.654	6177.47
455.864	6367.34
456.075	6487.46
456.285	6470.8
456.495	6505.87
456.705	6605.65
456.916	6766.07
457.126	6828.85
457.336	6742.05
457.546	6617.28
457.756	6710.27
457.967	6873.8
458.177	6654.86
458.387	6742.63
458.597	6579.11
458.807	6698.07
459.017	6567.48
459.227	6562.06
459.437	6605.84
459.647	6791.45
459.857	6733.72
460.068	6851.71
460.278	6824
460.488	6911.77
460.698	6851.32
460.908	6948.39
461.117	7102.42
461.327	7098.35
461.537	7290.55
461.747	7238.43
461.957	7163.45
462.167	7321.93
462.377	7316.51
462.587	7280.08
462.797	7423.84
463.007	7334.91
463.216	7549.2
463.426	7703.03
463.636	7511.03
463.846	7295.58
464.056	7302.56
464.265	7270.01
464.475	7314.96
464.685	7538.74
464.895	7368.05
465.104	7258.58
465.314	7581.17
465.524	7394.01
465.733	7376.57
465.943	7654.6
466.153	7778.4
466.362	7840.79
466.572	7782.66
466.782	7580.78
466.991	7757.28
467.201	7666.8
467.41	7481.19
467.62	7749.53
467.829	7796.42
468.039	7923.52
468.249	7872.37
468.458	8085.49
468.668	7995.98
468.877	8194.96
469.086	8260.83
469.296	8459.04
469.505	8484.8
469.715	8352.86
469.924	8289.31
470.134	8398.78
470.343	8186.63
470.552	8222.66
470.762	8173.26
470.971	8308.88
471.18	8401.3
471.39	8507.67
471.599	8398.59
471.808	8528.59
472.018	8804.88
472.227	8968.01
472.436	9305.71
472.645	9263.47
472.855	9200.51
473.064	9484.93
473.273	9555.06
473.482	9145.29
473.691	9445.21
473.901	9307.46
474.11	9242.36
474.319	9526.2
474.528	9474.47
474.737	9992.55
474.946	9775.16
475.155	9930.16
475.364	10060.74
475.573	9897.03
475.783	10173.89
475.992	10013.08
476.201	10056.68
476.41	10181.06
476.619	9954.18
476.828	10056.29
477.037	10026.84
477.245	10011.73
477.454	10166.92
477.663	10529.42
477.872	10744.48
478.081	10923.5
478.29	10813.45
478.499	11031.81
478.708	11231.17
478.917	11216.64
479.125	10944.23
479.334	11000.03
479.543	11321.07
479.752	11485.95
479.961	11408.45
480.169	11696.94
480.378	11797.11
480.587	12129.97
480.796	11814.54
481.004	11931.76
481.213	12118.34
481.422	12200.49
481.63	12392.69
481.839	12483.94
482.048	12718.38
482.256	12573.65
482.465	12961.14
482.674	12803.62
482.882	12828.23
483.091	12983.03
483.299	12725.93
483.508	13076.03
483.716	13212.24
483.925	13317.44
484.134	12890.42
484.342	13238.59
484.551	13151.01
484.759	13028.95
484.967	13567.96
485.176	13390.87
485.384	13496.46
485.593	13285.67
485.801	13115.36
486.01	12733.68
486.218	12027.86
486.426	11605.49
486.635	11339.67
486.843	11412.33
487.051	11822.49
487.26	12002.09
487.468	12358.59
487.676	12731.94
487.885	13101.61
488.093	13406.57
488.301	13835.13
488.509	13873.11
488.717	14136.41
488.926	14150.75
489.134	13991.29
489.342	14041.67
489.55	13865.17
489.758	14228.63
489.967	14766.28
490.175	14724.43
490.383	15135.37
490.591	15402.94
490.799	15237.28
491.007	15209.19
491.215	15218.1
491.423	15086.74
491.631	15091.97
491.839	14954.99
492.047	14920.7
492.255	14608.77
492.463	14678.32
492.671	14404.75
492.879	14909.85
493.087	14983.47
493.295	15201.44
493.503	15361.86
493.711	15791.4
493.919	15673.02
494.127	15594.94
494.334	15559.1
494.542	15741.41
494.75	16115.93
494.958	15917.72
495.166	16380.78
495.374	16466.61
495.581	16533.26
495.789	16523.76
495.997	16539.46
496.205	15964.03
496.412	16183.16
496.62	16497.61
496.828	16306.38
497.035	16536.94
497.243	16600.29
497.451	16719.06
497.658	16664.23
497.866	16624.13
498.074	16823.1
498.281	16466.03
498.489	16557.48
498.696	16198.46
498.904	16083.76
499.112	16128.71
499.319	16404.61
499.527	16607.27
499.734	16774.09
499.942	16632.65
500.149	16667.72
500.357	16732.24
500.564	16393.57
500.771	16341.25
500.979	16058.38
501.186	15894.09
501.394	16291.07
501.601	15917.72
501.808	15932.84
502.016	16051.41
502.223	15896.99
502.43	16035.72
502.638	16063.61
502.845	16391.05
503.052	16483.47
503.26	16600.1
503.467	16758.78
503.674	16742.51
503.881	16679.54
504.089	16483.85
504.296	16446.46
504.503	16281
504.71	16177.34
504.917	16443.94
505.125	16587.31
505.332	16873.87
505.539	16814
505.746	17283.64
505.953	17345.06
506.16	17477
506.367	17501.41
506.574	17823.61
506.781	17620.18
506.988	17584.92
507.195	17418.68
507.402	17482.43
507.609	17401.25
507.816	17163.32
508.023	17091.83
508.23	17001.74
508.437	16833.37
508.644	16999.41
508.851	17089.12
509.058	17403.57
509.265	17530.48
509.472	17747.28
509.679	17857.71
509.885	17697.68
510.092	17771.88
510.299	17751.73
510.506	17344.48
510.713	17568.06
510.92	17507.23
511.126	17658.35
511.333	17820.13
511.54	17911.19
511.746	17942.38
511.953	18106.1
512.16	18270.59
512.367	18182.24
512.573	17968.73
512.78	17823.42
512.987	17879.41
513.193	17607.39
513.4	17398.92
513.606	17514.01
513.813	17611.66
514.02	17397.76
514.226	17377.41
514.433	17407.83
514.639	17233.07
514.846	17279.96
515.052	17288.87
515.259	17425.85
515.465	17533.96
515.672	17493.28
515.878	17642.27
516.085	17885.23
516.291	17860.23
516.497	17646.72
516.704	17057.54
516.91	16748.51
517.117	15984.57
517.323	15547.28
517.529	15513.37
517.736	15403.32
517.942	15695.5
518.148	16071.95
518.354	16147.9
518.561	16108.76
518.767	16122.9
518.973	16197.88
519.179	16617.15
519.386	16670.82
519.592	16709.37
519.798	16765.75
520.004	17503.54
520.21	17412.48
520.417	17594.99
520.623	17775.18
520.829	17719.57
521.035	17757.74
521.241	17627.74
521.447	17816.45
521.653	18206.85
521.859	17931.73
522.065	18082.46
522.271	18303.14
522.477	18179.72
522.683	18327.36
522.889	17835.24
523.095	17668.23
523.301	17845.31
523.507	17645.56
523.713	17783.12
523.919	17818.38
524.125	18196.58
524.331	18388.97
524.537	18646.07
524.742	18728.8
524.948	18743.72
525.154	18843.31
525.36	18680.75
525.566	18486.81
525.772	18749.34
525.977	18508.12
526.183	18396.14
526.389	18518.39
526.595	17856.16
526.8	17756.97
527.006	17125.93
527.212	16665.2
527.417	16606.88
527.623	16761.69
527.829	16970.93
528.034	17352.03
528.24	17422.17
528.446	17843.76
528.651	18214.02
528.857	18393.62
529.062	18459.3
529.268	18693.15
529.473	18908.21
529.679	19093.63
529.884	18978.54
530.09	18859.58
530.295	18425.01
530.501	18731.51
530.706	18744.11
530.912	18921.58
531.117	19062.05
531.323	18994.24
531.528	19313.53
531.733	19318.96
531.939	19195.54
532.144	19052.55
532.35	18964.98
532.555	18912.67
532.76	18365.33
532.966	18274.66
533.171	18070.06
533.376	17966.02
533.581	18016.2
533.787	18279.31
533.992	18657.31
534.197	18255.86
534.402	18745.08
534.607	18696.25
534.813	18559.08
535.018	18697.8
535.223	18989.39
535.428	18880.7
535.633	19029.3
535.838	19293.38
536.043	19479.38
536.249	19697.73
536.454	19367.01
536.659	19530.92
536.864	19359.26
537.069	19067.67
537.274	18954.71
537.479	18942.31
537.684	18895.04
537.889	18765.61
538.094	19255.21
538.299	19146.33
538.504	19407.89
538.708	19163.96
538.913	19471.05
539.118	19358.48
539.323	19338.33
539.528	19100.6
539.733	19019.42
539.938	18976.22
540.142	18867.52
540.347	18704
540.552	18705.36
540.757	18397.69
540.962	18555.4
541.166	18343.05
541.371	18320
541.576	18423.84
541.781	18600.73
541.985	18953.35
542.19	18735.39
542.395	19369.91
542.599	19240.68
542.804	18918.29
543.008	19143.03
543.213	19150.01
543.418	18894.46
543.622	19130.25
543.827	18763.48
544.031	19065.73
544.236	19231.96
544.44	19471.24
544.645	19456.13
544.849	19331.94
545.054	19467.95
545.258	19637.09
545.463	19637.86
545.667	19249.01
545.872	19603.76
546.076	19490.23
546.281	19397.81
546.485	19330.58
546.689	19437.34
546.894	19391.61
547.098	19485.97
547.302	19497.4
547.507	19396.07
547.711	19398.59
547.915	19340.66
548.119	19070.38
548.324	19105.45
548.528	19193.21
548.732	19253.47
548.936	19418.54
549.141	19436.37
549.345	19445.09
549.549	19460
549.753	19673.71
549.957	19577.41
550.161	19735.71
550.366	19722.14
550.57	19624.88
550.774	19572.57
550.978	19608.22
551.182	19496.04
551.386	19342.79
551.59	19419.51
551.794	19382.7
551.998	19499.92
552.202	19541.38
552.406	19471.63
552.61	19783.17
552.814	19690.95
553.018	19571.21
553.222	19312.76
553.426	19379.21
553.63	19644.45
553.833	19467.75
554.037	19255.99
554.241	19303.46
554.445	19596.01
554.649	19594.46
554.853	19449.74
555.056	19632.83
555.26	19733.77
555.464	19493.13
555.668	19668.09
555.871	19554.36
556.075	19726.02
556.279	19504.57
556.483	19485.58
556.686	19272.46
556.89	19284.86
557.094	19142.84
557.297	18855.32
557.501	19005.67
557.704	18770.07
557.908	19044.22
558.112	19035.89
558.315	19071.54
558.519	18967.3
558.722	18714.66
558.926	18720.47
559.129	18238.23
559.333	18573.8
559.536	18516.65
559.74	18271.17
559.943	18164.03
560.147	18484.87
560.35	18238.82
560.553	18611.97
560.757	18615.85
560.96	18648.59
561.164	18831.1
561.367	18958
561.57	18894.65
561.774	18692.76
561.977	18607.52
562.18	18579.81
562.384	18710.59
562.587	18536.41
562.79	18806.88
562.993	18591.63
563.197	18601.51
563.4	18785.57
563.603	18759.8
563.806	18850.09
564.009	18706.91
564.212	18731.71
564.416	18511.03
564.619	18437.21
564.822	18274.66
565.025	18544.94
565.228	18522.07
565.431	18647.04
565.634	18386.64
565.837	18262.45
566.04	18096.22
566.243	17948.19
566.446	17798.82
566.649	18109.2
566.852	17909.44
567.055	18162.67
567.258	18089.24
567.461	18315.93
567.664	18339.56
567.867	18369.01
568.07	18137.29
568.273	18295.97
568.475	18414.35
568.678	17879.03
568.881	17831.56
569.084	17625.02
569.287	17473.71
569.489	17713.57
569.692	17691.67
569.895	17837.76
570.098	17601.58
570.3	17649.82
570.503	17509.36
570.706	17434.96
570.909	17363.27
571.111	17115.27
571.314	17132.13
571.516	17145.69
571.719	17295.46
571.922	17229
572.124	17346.22
572.327	17479.71
572.529	17476.61
572.732	17588.02
572.935	17574.65
573.137	17996.05
573.34	17613.21
573.542	17841.25
573.745	17814.51
573.947	17815.48
574.15	17583.17
574.352	17616.69
574.554	17735.85
574.757	17587.05
574.959	17229.59
575.162	17576.2
575.364	17226.49
575.566	17411.51
575.769	17103.26
575.971	17283.45
576.173	16885.68
576.376	17108.11
576.578	17371.8
576.78	17228.42
576.982	17095.32
577.185	17289.07
577.387	17248.77
577.589	17436.9
577.791	17265.43
577.993	17288.68
578.196	17234.24
578.398	17054.24
578.6	16940.32
578.802	16894.79
579.004	16890.14
579.206	16956.98
579.408	17168.56
579.61	16963.57
579.812	17337.31
580.014	17101.71
580.216	17165.26
580.418	17427.01
580.62	17372.38
580.822	17485.72
581.024	17525.05
581.226	17510.52
581.428	17521.95
581.63	17893.36
581.832	17658.15
582.034	17832.14
582.236	17777.7
582.438	17998.96
582.64	17917.19
582.841	18022.98
583.043	18280.28
583.245	17978.42
583.447	18091.37
583.649	18093.89
583.85	18098.35
584.052	18113.07
584.254	18038.67
584.456	18065.41
584.657	18013.1
584.859	18251.41
585.061	17996.44
585.262	17995.86
585.464	17786.61
585.666	17891.43
585.867	17605.07
586.069	17651.95
586.27	17596.35
586.472	17616.69
586.674	17671.72
586.875	17642.65
587.077	17686.05
587.278	17663
587.48	17703.3
587.681	17826.52
587.883	17732.55
588.084	17435.15
588.285	17461.69
588.487	17048.04
588.688	17086.6
588.89	16585.76
589.091	16166.11
589.292	15828.99
589.494	15484.5
589.695	15233.99
589.896	15024.35
590.098	15117.16
590.299	15256.08
590.5	15432.77
590.702	15771.83
590.903	15937.1
591.104	16189.36
591.305	16431.35
591.507	16455.18
591.708	16476.3
591.909	16509.62
592.11	16386.01
592.311	16567.75
592.512	16371.09
592.714	16296.5
592.915	16558.45
593.116	16491.02
593.317	16726.62
593.518	16669.85
593.719	16765.75
593.92	16743.86
594.121	16790.55
594.322	16674.31
594.523	16535
594.724	16382.72
594.925	16428.05
595.126	16294.56
595.327	16325.95
595.528	16412.75
595.729	16434.25
595.929	16441.62
596.13	16498.77
596.331	16746.57
596.532	16665.01
596.733	16913.97
596.934	16932.77
597.135	16909.32
597.335	16782.61
597.536	16853.33
597.737	16778.74
597.938	16634.78
598.138	16758.59
598.339	16752.58
598.54	16786.29
598.74	16610.95
598.941	16583.44
599.142	16883.55
599.342	16837.44
599.543	16698.72
599.744	16729.72
