Data from calibration3_FLMT105791__7__17-25-35-058.txt Node

Date: Mon Mar 20 17:25:35 GMT 2023
User: antho
Spectrometer: FLMT10579
Trigger mode: 0
Integration Time (sec): 1.000000E-1
Scans to average: 10
Electric dark correction enabled: true
Nonlinearity correction enabled: false
Boxcar width: 0
XAxis mode: Wavelengths
Number of Pixels in Spectrum: 3648
>>>>>Begin Spectral Data<<<<<
345.248	-167.28
345.464	-167.28
345.681	-167.28
345.898	-156.43
346.114	-165.15
346.331	-30.69
346.548	17.55
346.764	-1.05
346.981	-14.03
347.197	18.52
347.414	6.7
347.631	-22.56
347.847	70.64
348.064	-8.8
348.28	17.74
348.497	-45.61
348.713	-8.41
348.93	17.74
349.146	77.03
349.363	113.07
349.579	136.51
349.796	101.83
350.012	118.11
350.229	166.54
350.445	111.13
350.661	140.19
350.878	158.4
351.094	156.27
351.311	163.05
351.527	165.96
351.743	160.34
351.96	140
352.176	184.75
352.392	164.6
352.609	192.31
352.825	128.57
353.041	157.24
353.257	116.17
353.474	180.49
353.69	156.85
353.906	164.02
354.122	138.84
354.339	214.78
354.555	204.9
354.771	182.04
354.987	243.46
355.203	249.47
355.42	151.82
355.636	161.12
355.852	173.32
356.068	170.8
356.284	138.84
356.5	259.73
356.716	171.77
356.932	158.6
357.148	209.17
357.364	152.59
357.58	215.75
357.796	250.63
358.012	232.61
358.228	181.65
358.444	109.97
358.66	214.78
358.876	187.27
359.092	147.75
359.308	208.2
359.524	247.72
359.74	220.02
359.956	235.9
360.172	255.28
360.388	322.12
360.604	260.51
360.819	320.38
361.035	253.15
361.251	263.42
361.467	207.81
361.683	287.44
361.898	230.28
362.114	279.5
362.33	279.11
362.546	321.54
362.762	271.36
362.977	306.81
363.193	275.43
363.409	332.78
363.624	246.95
363.84	276.4
364.056	273.1
364.271	337.04
364.487	345.76
364.703	299.65
364.918	307.01
365.134	324.06
365.35	324.83
365.565	461.43
365.781	363.78
365.996	392.64
366.212	476.34
366.427	425.19
366.643	410.47
366.858	430.04
367.074	401.17
367.289	462.01
367.505	547.06
367.72	384.9
367.936	431.59
368.151	446.89
368.367	429.07
368.582	436.82
368.798	381.99
369.013	460.07
369.228	423.84
369.444	434.49
369.659	503.08
369.874	446.7
370.09	488.55
370.305	450.77
370.52	482.16
370.736	530.01
370.951	444.96
371.166	522.46
371.381	522.26
371.597	506.57
371.812	438.56
372.027	464.91
372.242	471.11
372.458	545.12
372.673	427.52
372.888	431.39
373.103	461.43
373.318	501.53
373.533	447.67
373.749	425.39
373.964	351.96
374.179	462.01
374.394	364.55
374.609	443.99
374.824	392.26
375.039	465.3
375.254	382.96
375.469	480.41
375.684	487.77
375.899	552.49
376.114	518.39
376.329	512.19
376.544	494.17
376.759	517.61
376.974	503.08
377.189	522.65
377.404	532.92
377.619	579.03
377.834	548.22
378.049	586.2
378.264	607.12
378.478	711.36
378.693	645.1
378.908	674.55
379.123	630.76
379.338	682.88
379.553	565.66
379.767	605.57
379.982	581.74
380.197	603.83
380.412	586.59
380.626	639.48
380.841	701.28
381.056	723.37
381.271	755.34
381.485	654.78
381.7	639.48
381.915	668.54
382.129	579.8
382.344	571.09
382.559	575.74
382.773	537.57
382.988	460.07
383.202	505.21
383.417	459.49
383.632	554.81
383.846	483.12
384.061	499.98
384.275	499.4
384.49	591.62
384.704	669.9
384.919	685.2
385.133	729.57
385.348	734.61
385.562	689.85
385.777	750.5
385.991	658.66
386.206	663.7
386.42	678.62
386.634	706.32
386.849	741
387.063	789.83
387.277	720.08
387.492	726.08
387.706	712.33
387.92	697.41
388.135	784.4
388.349	800.68
388.563	778.4
388.778	818.89
388.992	820.63
389.206	810.56
389.42	930.1
389.635	872.36
389.849	948.51
390.063	1024.07
390.277	1002.37
390.491	1073.28
390.706	1039.18
390.92	1030.46
391.134	1051.39
391.348	1115.52
391.562	1078.9
391.776	1113.97
391.99	1105.25
392.205	1173.83
392.419	1048.09
392.633	1032.01
392.847	970.79
393.061	848.53
393.275	863.26
393.489	699.35
393.703	593.75
393.917	615.26
394.131	628.82
394.345	744.1
394.559	893.87
394.773	989
394.986	1080.45
395.2	1165.12
395.414	1267.41
395.628	1238.55
395.842	1300.54
396.056	1302.29
396.27	1159.69
396.484	1175.77
396.697	1023.1
396.911	932.23
397.125	792.35
397.339	795.83
397.553	801.26
397.766	974.47
397.98	1134.7
398.194	1319.53
398.408	1419.89
398.621	1533.23
398.835	1673.51
399.049	1659.17
399.262	1786.27
399.476	1807.77
399.69	1834.32
399.903	1887.02
400.117	1837.22
400.331	1851.76
400.544	1866.67
400.758	2041.24
400.971	1936.42
401.185	1983.5
401.398	1940.69
401.612	2066.04
401.826	2084.83
402.039	2075.92
402.253	2067.98
402.466	2158.65
402.68	2127.07
402.893	2258.82
403.106	2136.76
403.32	2094.13
403.533	2115.45
403.747	2058.87
403.96	2164.46
404.174	2193.33
404.387	2159.81
404.6	2165.24
404.814	2240.41
405.027	2121.45
405.24	2154.58
405.454	2176.28
405.667	2242.93
405.88	2225.49
406.094	2259.98
406.307	2283.23
406.52	2169.69
406.733	2116.8
406.947	2180.35
407.16	2276.64
407.373	2317.14
407.586	2282.84
407.799	2296.79
408.012	2316.75
408.226	2290.4
408.439	2473.68
408.652	2419.63
408.865	2558.55
409.078	2614.93
409.291	2615.12
409.504	2595.94
409.717	2624.81
409.93	2596.33
410.143	2416.53
410.357	2305.71
410.57	2222.2
410.783	2273.35
410.996	2365.57
411.209	2465.55
411.421	2694.36
411.634	2746.67
411.847	2733.31
412.06	2793.75
412.273	2795.5
412.486	2829.79
412.699	2865.83
412.912	2886.56
413.125	2817.2
413.338	2800.54
413.55	2775.93
413.763	2722.26
413.976	2798.99
414.189	2816.81
414.402	2843.16
414.615	3005.52
414.827	2844.52
415.04	2851.3
415.253	2897.8
415.466	2929.57
415.678	2959.41
415.891	2928.6
416.104	2898.18
416.316	2962.9
416.529	3037.1
416.742	3130.68
416.954	3114.6
417.167	3062.29
417.38	2989.44
417.592	2974.71
417.805	2922.21
418.017	2926.47
418.23	2950.5
418.442	2938.68
418.655	2990.21
418.868	2965.22
419.08	3028.19
419.293	3071.98
419.505	3106.66
419.718	3069.26
419.93	3157.22
420.142	3072.17
420.355	3059.58
420.567	3055.12
420.78	3137.85
420.992	3137.07
421.205	3295.17
421.417	3339.35
421.629	3366.66
421.842	3367.25
422.054	3392.63
422.266	3444.74
422.479	3368.99
422.691	3193.07
422.903	3220.58
423.115	3121.38
423.328	3092.71
423.54	3158.77
423.752	3161.1
423.964	3290.91
424.177	3362.21
424.389	3357.17
424.601	3479.62
424.813	3462.18
425.025	3416.07
425.238	3447.65
425.45	3394.95
425.662	3372.28
425.874	3687.12
426.086	3411.03
426.298	3467.8
426.51	3436.61
426.722	3472.45
426.934	3485.24
427.146	3485.24
427.358	3427.31
427.57	3418.59
427.782	3302.92
427.994	3284.32
428.206	3328.69
428.418	3577.46
428.63	3607.69
428.842	3651.67
429.054	3502.48
429.266	3472.64
429.478	3404.45
429.69	3344
429.902	3265.53
430.114	3226.78
430.325	3058.8
430.537	2884.43
430.749	2827.66
430.961	2673.05
431.173	2699.01
431.384	2822.24
431.596	2905.35
431.808	3339.93
432.02	3728.58
432.231	3983.75
432.443	4226.52
432.655	4062.02
432.867	3996.15
433.078	3986.27
433.29	4036.26
433.502	4176.53
433.713	4247.83
433.925	4340.83
434.136	4143.01
434.348	3930.28
434.56	3843.67
434.771	4040.13
434.983	3936.86
435.194	4236.98
435.406	4368.14
435.617	4381.13
435.829	4576.04
436.04	4531.28
436.252	4481.49
436.463	4706.04
436.675	4819.19
436.886	4910.25
437.098	4988.91
437.309	4951.13
437.521	4840.89
437.732	4707.2
437.943	4671.36
438.155	4638.81
438.366	4565.77
438.578	4642.88
438.789	4416
439	4431.5
439.211	4392.17
439.423	4475.29
439.634	4691.7
439.845	4790.13
440.057	4870.92
440.268	5040.25
440.479	4957.52
440.69	4966.44
440.902	4856
441.113	4843.02
441.324	4989.3
441.535	5165.03
441.746	5350.83
441.957	5294.06
442.168	5350.06
442.38	5439.95
442.591	5473.67
442.802	5347.54
443.013	5530.63
443.224	5593.98
443.435	5553.49
443.646	5438.99
443.857	5469.4
444.068	5474.44
444.279	5430.85
444.49	5734.84
444.701	5606.58
444.912	5862.52
445.123	5869.69
445.334	5694.34
445.545	5692.41
445.756	5560.66
445.967	5497.3
446.178	5369.24
446.388	5335.91
446.599	5461.46
446.81	5514.55
447.021	5563.56
447.232	5669.93
447.443	5795.48
447.653	5989.81
447.864	6067.89
448.075	6077.96
448.286	6021.39
448.496	5926.84
448.707	6040.57
448.918	5889.84
449.129	6004.53
449.339	6000.27
449.55	6123.11
449.761	6076.22
449.971	6088.43
450.182	6240.9
450.393	6248.46
450.603	6213.2
450.814	6533.85
451.024	6523
451.235	6677.03
451.446	6670.64
451.656	6642.93
451.867	6496.65
452.077	6389.32
452.288	6549.74
452.498	6417.21
452.709	6369.55
452.919	6232.19
453.13	6075.83
453.34	6041.54
453.55	5863.29
453.761	6178.71
453.971	6095.98
454.182	6263.77
454.392	6308.72
454.602	6568.14
454.813	6601.27
455.023	6430.97
455.233	6288.95
455.444	6405.98
455.654	6196.54
455.864	6385.05
456.075	6517.58
456.285	6483.67
456.495	6549.54
456.705	6588.1
456.916	6811.49
457.126	6868.65
457.336	6772.55
457.546	6680.13
457.756	6767.51
457.967	6950.21
458.177	6701.25
458.387	6694.47
458.597	6553.81
458.807	6720.82
459.017	6569.69
459.227	6614.26
459.437	6610.19
459.647	6755.69
459.857	6729.34
460.068	6838.81
460.278	6944.98
460.488	6836.87
460.698	6947.69
460.908	6982.96
461.117	7059.1
461.327	7148.42
461.537	7284.04
461.747	7241.22
461.957	7201.5
462.167	7376.26
462.377	7358.44
462.587	7296.63
462.797	7495.42
463.007	7397.38
463.216	7537.46
463.426	7734.11
463.636	7522.74
463.846	7280.55
464.056	7354.76
464.265	7290.63
464.475	7356.11
464.685	7560.32
464.895	7391.57
465.104	7269.51
465.314	7591.32
465.524	7435.94
465.733	7417.14
465.943	7649.06
466.153	7804.06
466.362	7847.07
466.572	7790.11
466.782	7623.49
466.991	7804.25
467.201	7607.4
467.41	7481.08
467.62	7798.83
467.829	7751.16
468.039	8019.89
468.249	7890.28
468.458	8046.24
468.668	7986.57
468.877	8167.53
469.086	8254.33
469.296	8452.92
469.505	8524.6
469.715	8403.71
469.924	8273.7
470.134	8399.06
470.343	8210.93
470.552	8281.84
470.762	8198.53
470.971	8383.94
471.18	8405.06
471.39	8540.68
471.599	8450.2
471.808	8594.35
472.018	8858.62
472.227	9031.25
472.436	9326.52
472.645	9285.26
472.855	9176.95
473.064	9559.21
473.273	9541.58
473.482	9249.99
473.691	9468.35
473.901	9333.3
474.11	9178.31
474.319	9502.64
474.528	9459.63
474.737	9987.98
474.946	9793.65
475.155	9936.44
475.364	10138.13
475.573	9903.7
475.783	10187.15
475.992	10010.84
476.201	10110.81
476.41	10150.92
476.619	10053.66
476.828	10094.73
477.037	9993.98
477.245	10094.54
477.454	10220.86
477.663	10517.49
477.872	10815.86
478.081	11001.86
478.29	10822.06
478.499	11027.04
478.708	11255.08
478.917	11228.93
479.125	10922.61
479.334	11069.28
479.543	11384.12
479.752	11500.17
479.961	11437.4
480.169	11789.44
480.378	11836.32
480.587	12148.84
480.796	11948.5
481.004	11935.33
481.213	12087.23
481.422	12243.39
481.63	12386.57
481.839	12465.42
482.048	12716.13
482.256	12629.53
482.465	12960.25
482.674	12856.02
482.882	12946.11
483.091	13005.78
483.299	12742.87
483.508	13085.61
483.716	13332.25
483.925	13267.92
484.134	12917.63
484.342	13339.61
484.551	13260.75
484.759	13122.81
484.967	13587.22
485.176	13529.29
485.384	13530.26
485.593	13301.64
485.801	13219.29
486.01	12678.35
486.218	12079.48
486.426	11679.78
486.635	11399.62
486.843	11487.19
487.051	11820.44
487.26	12102.53
487.468	12396.25
487.676	12769.99
487.885	13163.88
488.093	13464.58
488.301	13985.18
488.509	13914.07
488.717	14207.98
488.926	14191.52
489.134	13981.69
489.342	14109.17
489.55	13917.17
489.758	14274.44
489.967	14726.06
490.175	14684.8
490.383	15232.71
490.591	15518.49
490.799	15325.33
491.007	15274.56
491.215	15317.58
491.423	15072.1
491.631	15136.23
491.839	15045.17
492.047	14984.72
492.255	14601.68
492.463	14672.78
492.671	14453.85
492.879	14931.63
493.087	15118.4
493.295	15255.38
493.503	15419.29
493.711	15857.55
493.919	15718.24
494.127	15707.78
494.334	15662.64
494.542	15672.52
494.75	16164.25
494.958	15947.25
495.166	16407.21
495.374	16495.56
495.581	16583.13
495.789	16443.44
495.997	16590.69
496.205	15930.59
496.412	16215.4
496.62	16505.83
496.828	16299.68
497.035	16619.94
497.243	16662.57
497.451	16706.16
497.658	16733.09
497.866	16636.8
498.074	16887.9
498.281	16465.91
498.489	16513.96
498.696	16257.06
498.904	16089.08
499.112	16139.06
499.319	16575.38
499.527	16655.4
499.734	16830.74
499.942	16655.59
500.149	16750.53
500.357	16753.44
500.564	16396.94
500.771	16344.44
500.979	16036.57
501.186	15985.62
501.394	16331.07
501.601	15944.54
501.808	15967.98
502.016	16049.94
502.223	15929.04
502.43	16098.96
502.638	16025.92
502.845	16418.64
503.052	16616.84
503.26	16554.84
503.467	16753.82
503.674	16766.61
503.881	16709.65
504.089	16547.68
504.296	16430.07
504.503	16281.27
504.71	16214.43
504.917	16462.82
505.125	16632.15
505.332	16839.65
505.539	16853.22
505.746	17250.2
505.953	17407.91
506.16	17547.02
506.367	17497.81
506.574	17838.03
506.781	17708.8
506.988	17688.27
507.195	17479.02
507.402	17438.14
507.609	17478.44
507.816	17196.92
508.023	17220.95
508.23	17054.52
508.437	16862.71
508.644	17019.45
508.851	17140.16
509.058	17555.16
509.265	17491.42
509.472	17776.42
509.679	17944.21
509.885	17863.22
510.092	17769.83
510.299	17765.38
510.506	17439.69
510.713	17612.9
510.92	17545.67
511.126	17729.34
511.333	17920.18
511.54	17961.64
511.746	17963.97
511.953	18175.15
512.16	18320.85
512.367	18173.02
512.573	17943.04
512.78	17894.8
512.987	17835.71
513.193	17542.96
513.4	17372.85
513.606	17545.67
513.813	17640.22
514.02	17460.03
514.226	17463.13
514.433	17506.73
514.639	17389.9
514.846	17406.75
515.052	17348.82
515.259	17440.27
515.465	17598.37
515.672	17584.22
515.878	17683.23
516.085	17996.91
516.291	17848.11
516.497	17751.43
516.704	17213.97
516.91	16763.51
517.117	16011.97
517.323	15608.39
517.529	15573.9
517.736	15463.85
517.942	15658.57
518.148	16004.8
518.354	16242.14
518.561	16228.96
518.767	16132.86
518.973	16226.44
519.179	16562.21
519.386	16777.07
519.592	16757.7
519.798	16816.02
520.004	17579.19
520.21	17473.4
520.417	17532.49
520.623	17683.81
520.829	17765.38
521.035	17814.2
521.241	17674.51
521.447	17908.75
521.653	18137.37
521.859	17974.43
522.065	18160.23
522.271	18279.78
522.477	18102.69
522.683	18286.56
522.889	17976.76
523.095	17809.94
523.301	17772.16
523.507	17776.03
523.713	17720.82
523.919	17814.4
524.125	18234.25
524.331	18462.87
524.537	18702.73
524.742	18750
524.948	18765.5
525.154	18884.46
525.36	18780.03
525.566	18557.8
525.772	18769.38
525.977	18549.67
526.183	18410.17
526.389	18527.97
526.595	17907.98
526.8	17682.65
527.006	17158.17
527.212	16766.42
527.417	16677.68
527.623	16768.16
527.829	16992.52
528.034	17440.27
528.24	17462.74
528.446	17933.94
528.651	18260.4
528.857	18423.34
529.062	18518.86
529.268	18784.88
529.473	18959.64
529.679	19120.83
529.884	19034.23
530.09	18898.8
530.295	18514.4
530.501	18874.97
530.706	18805.41
530.912	18961.96
531.117	19037.13
531.323	18986.18
531.528	19287.84
531.733	19344.81
531.939	19141.56
532.144	19070.65
532.35	19014.08
532.555	19025.51
532.76	18489.02
532.966	18346.43
533.171	18161.98
533.376	18062.97
533.581	18143.77
533.787	18354.56
533.992	18699.24
534.197	18264.66
534.402	18711.83
534.607	18799.21
534.813	18650.8
535.018	18719.78
535.223	19075.11
535.428	18907.71
535.633	19151.64
535.838	19348.49
536.043	19535.84
536.249	19746.64
536.454	19496.7
536.659	19493.8
536.864	19431.02
537.069	19088.86
537.274	18972.04
537.479	18936.77
537.684	18898.61
537.889	18913.72
538.094	19345.19
538.299	19098.75
538.504	19484.69
538.708	19178.96
538.913	19580.4
539.118	19533.51
539.323	19382.2
539.528	19125.29
539.733	19010.78
539.938	19079.37
540.142	18944.33
540.347	18933.48
540.552	18689.55
540.757	18363.48
540.962	18638.6
541.166	18420.82
541.371	18421.21
541.576	18536.3
541.781	18665.33
541.985	19078.02
542.19	18724.43
542.395	19339.19
542.599	19252.19
542.804	19009.82
543.008	19346.16
543.213	19202.59
543.418	18947.24
543.622	19153.38
543.827	18805.99
544.031	19168.69
544.236	19234.37
544.44	19475.2
544.645	19471.9
544.849	19402.35
545.054	19498.64
545.258	19620.7
545.463	19648.99
545.667	19329.11
545.872	19647.83
546.076	19450.59
546.281	19425.02
546.485	19435.09
546.689	19485.66
546.894	19474.23
547.098	19650.73
547.302	19492.63
547.507	19400.6
547.711	19524.99
547.915	19476.75
548.119	19168.69
548.324	19122.58
548.528	19235.34
548.732	19280.09
548.936	19407.19
549.141	19401.96
549.345	19469.38
549.549	19574.01
549.753	19687.74
549.957	19652.67
550.161	19708.08
550.366	19814.06
550.57	19653.25
550.774	19507.75
550.978	19598.23
551.182	19539.13
551.386	19428.5
551.59	19479.07
551.794	19410.68
551.998	19543.2
552.202	19616.63
552.406	19605.98
552.61	19890.98
552.814	19682.89
553.018	19550.56
553.222	19355.46
553.426	19467.83
553.63	19570.33
553.833	19563.16
554.037	19381.81
554.241	19328.34
554.445	19688.51
554.649	19585.83
554.853	19379.68
555.056	19671.27
555.26	19804.37
555.464	19611.4
555.668	19663.52
555.871	19685.22
556.075	19774.73
556.279	19519.76
556.483	19408.35
556.686	19318.84
556.89	19269.63
557.094	19236.5
557.297	18970.87
557.501	19044.88
557.704	18878.26
557.908	18998.38
558.112	19092.93
558.315	19176.63
558.519	18994.9
558.722	18723.46
558.926	18774.99
559.129	18333.64
559.333	18556.84
559.536	18460.35
559.74	18365.61
559.943	18155.58
560.147	18533.78
560.35	18259.63
560.553	18730.05
560.757	18643.83
560.96	18698.27
561.164	18809.48
561.367	18938.52
561.57	19027.64
561.774	18743.03
561.977	18662.81
562.18	18597.52
562.384	18730.24
562.587	18519.83
562.79	18808.13
562.993	18629.88
563.197	18625.81
563.4	18801.73
563.603	18806.38
563.806	18800.76
564.009	18772.09
564.212	18851.72
564.416	18571.56
564.619	18555.29
564.822	18392.15
565.025	18631.23
565.228	18523.7
565.431	18724.04
565.634	18407.84
565.837	18367.74
566.04	18061.04
566.243	17942.27
566.446	17815.56
566.649	18267.18
566.852	17924.64
567.055	18179.22
567.258	18175.54
567.461	18321.43
567.664	18351.46
567.867	18435.94
568.07	18233.66
568.273	18351.85
568.475	18473.52
568.678	17867.29
568.881	18074.02
569.084	17724.5
569.287	17601.08
569.489	17841.71
569.692	17857.8
569.895	17841.13
570.098	17642.35
570.3	17677.22
570.503	17586.36
570.706	17478.83
570.909	17334.87
571.111	17174.06
571.314	17044.06
571.516	17147.13
571.719	17382.34
571.922	17193.05
572.124	17407.53
572.327	17479.79
572.529	17517.19
572.732	17620.07
572.935	17685.55
573.137	18012.41
573.34	17643.7
573.542	17911.85
573.745	17746.78
573.947	17858.18
574.15	17674.32
574.352	17644.67
574.554	17843.07
574.757	17513.51
574.959	17267.25
575.162	17594.88
575.364	17329.25
575.566	17495.68
575.769	17184.91
575.971	17356.76
576.173	16823.18
576.376	17200.22
576.578	17318.98
576.78	17357.15
576.982	17252.14
577.185	17311.82
577.387	17265.12
577.589	17460.81
577.791	17359.67
577.993	17267.06
578.196	17315.69
578.398	17116.52
578.6	16965.59
578.802	17070.02
579.004	16882.67
579.206	17013.64
579.408	17286.82
579.61	17105.28
579.812	17409.85
580.014	17156.43
580.216	17207
580.418	17549.16
580.62	17485.03
580.822	17408.3
581.024	17572.6
581.226	17601.47
581.428	17622.39
581.63	17851.6
581.832	17729.15
582.034	17814.01
582.236	17839.58
582.438	18024.22
582.64	18006.59
582.841	18133.3
583.043	18342.36
583.245	18011.44
583.447	18176.7
583.649	18120.32
583.85	18155.78
584.052	18240.25
584.254	18072.47
584.456	18058.52
584.657	18137.18
584.859	18243.35
585.061	18036.24
585.262	18115.09
585.464	17852.37
585.666	17962.81
585.867	17690.78
586.069	17650.68
586.27	17612.9
586.472	17667.15
586.674	17637.5
586.875	17671.41
587.077	17726.63
587.278	17771.58
587.48	17661.14
587.681	17876.39
587.883	17752.59
588.084	17460.03
588.285	17535.4
588.487	17115.94
588.688	17179.29
588.89	16550.2
589.091	16273.52
589.292	15822.87
589.494	15517.72
589.695	15266.43
589.896	15021.14
590.098	15267.01
590.299	15240.85
590.5	15566.15
590.702	15845.73
590.903	15993.37
591.104	16277.01
591.305	16474.25
591.507	16448.48
591.708	16411.47
591.909	16528.69
592.11	16477.15
592.311	16679.62
592.512	16332.04
592.714	16377.76
592.915	16590.88
593.116	16492.65
593.317	16816.21
593.518	16767.97
593.719	16899.13
593.92	16818.15
594.121	16695.89
594.322	16751.3
594.523	16630.79
594.724	16382.02
594.925	16491.88
595.126	16199.71
595.327	16315.37
595.528	16510.48
595.729	16478.9
595.929	16473.28
596.13	16612.97
596.331	16827.45
596.532	16696.28
596.733	16899.33
596.934	16890.22
597.135	16865.42
597.335	16869.49
597.536	16828.22
597.737	16750.34
597.938	16702.48
598.138	16783.08
598.339	16792.38
598.54	16860.97
598.74	16629.83
598.941	16642.61
599.142	16884.99
599.342	16774.36
599.543	16725.54
599.744	16836.55
599.944	16786.57
