Data from calibration3_FLMT105791__6__17-25-34-069.txt Node

Date: Mon Mar 20 17:25:34 GMT 2023
User: antho
Spectrometer: FLMT10579
Trigger mode: 0
Integration Time (sec): 1.000000E-1
Scans to average: 10
Electric dark correction enabled: true
Nonlinearity correction enabled: false
Boxcar width: 0
XAxis mode: Wavelengths
Number of Pixels in Spectrum: 3648
>>>>>Begin Spectral Data<<<<<
345.248	-164.1
345.464	-164.1
345.681	-164.1
345.898	-158.87
346.114	-146.67
346.331	-36.81
346.548	36.81
346.764	19.76
346.981	-21.12
347.197	-9.88
347.414	18.02
347.631	-15.69
347.847	54.44
348.064	2.71
348.28	-1.74
348.497	-40.11
348.713	-6.39
348.93	6.97
349.146	125.16
349.363	97.65
349.579	102.69
349.796	106.56
350.012	106.75
350.229	126.71
350.445	136.98
350.661	121.67
350.878	141.44
351.094	184.64
351.311	153.06
351.527	177.28
351.743	136.2
351.96	174.18
352.176	142.02
352.392	179.41
352.609	180.57
352.825	145.12
353.041	161.59
353.257	148.41
353.474	156.35
353.69	187.74
353.906	182.32
354.122	171.47
354.339	233.27
354.555	166.24
354.771	180.38
354.987	256.52
355.203	257.88
355.42	178.05
355.636	192.97
355.852	198.4
356.068	188.71
356.284	165.65
356.5	258.46
356.716	194.33
356.932	199.56
357.148	222.62
357.364	188.52
357.58	212.73
357.796	227.07
358.012	228.23
358.228	190.26
358.444	130.39
358.66	236.57
358.876	189.48
359.092	159.45
359.308	204.79
359.524	243.35
359.74	235.6
359.956	234.24
360.172	258.46
360.388	278.22
360.604	265.24
360.819	357.85
361.035	252.84
361.251	261.56
361.467	209.44
361.683	293.53
361.898	247.03
362.114	253.81
362.33	242.96
362.546	288.49
362.762	278.8
362.977	312.32
363.193	278.41
363.409	321.43
363.624	282.1
363.84	282.1
364.056	305.73
364.271	324.72
364.487	334.99
364.703	297.21
364.918	307.67
365.134	292.17
365.35	318.13
365.565	460.15
365.781	378.78
365.996	432.25
366.212	473.13
366.427	421.59
366.643	426.44
366.858	431.09
367.074	384.98
367.289	492.12
367.505	513.24
367.72	372.38
367.936	399.51
368.151	463.83
368.367	435.93
368.582	441.55
368.798	396.99
369.013	461.51
369.228	407.45
369.444	440.58
369.659	471.58
369.874	487.27
370.09	499.48
370.305	420.63
370.52	449.69
370.736	504.32
370.951	470.61
371.166	484.17
371.381	535.52
371.597	484.95
371.812	445.04
372.027	452.4
372.242	461.12
372.458	493.86
372.673	416.56
372.888	444.26
373.103	454.53
373.318	529.12
373.533	464.8
373.749	449.49
373.964	384.39
374.179	445.42
374.394	369.67
374.609	473.52
374.824	406.48
375.039	470.61
375.254	404.16
375.469	503.55
375.684	475.07
375.899	528.15
376.114	497.74
376.329	524.28
376.544	495.22
376.759	547.72
376.974	481.46
377.189	517.69
377.404	543.46
377.619	590.35
377.834	545.4
378.049	581.05
378.264	596.35
378.478	691.68
378.693	657.77
378.908	694
379.123	639.75
379.338	656.03
379.553	604.3
379.767	568.65
379.982	559.15
380.197	589.96
380.412	563.22
380.626	619.6
380.841	731.59
381.056	723.45
381.271	766.08
381.485	679.67
381.7	622.51
381.915	644.02
382.129	586.28
382.344	596.35
382.559	546.17
382.773	573.1
382.988	455.89
383.202	511.69
383.417	451.82
383.632	544.82
383.846	486.69
384.061	482.62
384.275	493.86
384.49	594.61
384.704	609.53
384.919	675.02
385.133	728.88
385.348	742.05
385.562	697.68
385.777	746.9
385.991	696.72
386.206	676.95
386.42	653.51
386.634	760.65
386.849	738.56
387.063	770.92
387.277	747.67
387.492	729.65
387.706	719.77
387.92	728.1
388.135	791.26
388.349	803.08
388.563	760.46
388.778	803.86
388.992	782.16
389.206	830.21
389.42	895.31
389.635	887.94
389.849	978.23
390.063	1039.26
390.277	985.59
390.491	1059.22
390.706	982.69
390.92	1058.05
391.134	1031.51
391.348	1135.36
391.562	1079.95
391.776	1166.36
391.99	1113.47
392.205	1168.68
392.419	1055.53
392.633	1018.92
392.847	995.09
393.061	870.7
393.275	823.23
393.489	660.48
393.703	588.6
393.917	613.02
394.131	611.85
394.345	749.41
394.559	882.32
394.773	947.23
394.986	1118.31
395.2	1132.65
395.414	1296.94
395.628	1228.36
395.842	1315.74
396.056	1281.83
396.27	1225.45
396.484	1151.25
396.697	1048.37
396.911	921.07
397.125	771.89
397.339	767.24
397.553	803.28
397.766	989.27
397.98	1148.53
398.194	1361.46
398.408	1445.74
398.621	1566.06
398.835	1665.64
399.049	1657.7
399.262	1750.31
399.476	1792.36
399.69	1818.12
399.903	1842.92
400.117	1855.52
400.331	1885.55
400.544	1875.67
400.758	2004.51
400.971	1926.43
401.185	1974.87
401.398	1962.85
401.612	2065.15
401.826	2046.36
402.039	2100.8
402.253	2121.14
402.466	2164.93
402.68	2147.88
402.893	2211.24
403.106	2140.91
403.32	2091.89
403.533	2151.37
403.747	2072.32
403.96	2172.49
404.174	2218.02
404.387	2169.58
404.6	2167.26
404.814	2168.42
405.027	2159.51
405.24	2153.5
405.454	2181.01
405.667	2260.06
405.88	2261.42
406.094	2239.14
406.307	2274.98
406.52	2157.76
406.733	2120.76
406.947	2124.83
407.16	2259.09
407.373	2279.44
407.586	2296.49
407.799	2274.59
408.012	2356.94
408.226	2336.79
408.439	2444.32
408.652	2407.5
408.865	2549.33
409.078	2620.24
409.291	2585.56
409.504	2552.04
409.717	2613.26
409.93	2598.73
410.143	2412.73
410.357	2306.56
410.57	2252.7
410.783	2274.98
410.996	2346.47
411.209	2499.53
411.421	2683.98
411.634	2723.12
411.847	2718.85
412.06	2783.18
412.273	2820.96
412.486	2843.82
412.699	2869.4
412.912	2870.17
413.125	2819.02
413.338	2814.57
413.55	2751.4
413.763	2723.7
413.976	2797.9
414.189	2778.72
414.402	2876.37
414.615	2934.11
414.827	2837.82
415.04	2875.79
415.253	2872.5
415.466	2953.29
415.678	2977.89
415.891	2900.4
416.104	2879.28
416.316	2904.66
416.529	3019.74
416.742	3094.14
416.954	3099.76
417.167	3078.06
417.38	3013.74
417.592	3011.61
417.805	2908.92
418.017	2912.99
418.23	2969.18
418.442	2903.88
418.655	3008.12
418.868	2950.19
419.08	2989.91
419.293	3071.86
419.505	3124.95
419.718	3067.6
419.93	3115.46
420.142	3037.57
420.355	3064.5
420.567	3038.34
420.78	3105.77
420.992	3156.14
421.205	3273.55
421.417	3297.77
421.629	3375.66
421.842	3311.72
422.054	3374.88
422.266	3423.32
422.479	3392.71
422.691	3206.9
422.903	3217.95
423.115	3115.07
423.328	3124.17
423.54	3172.8
423.752	3212.33
423.964	3312.5
424.177	3349.11
424.389	3288.08
424.601	3451.61
424.813	3419.83
425.025	3432.04
425.238	3454.9
425.45	3389.41
425.662	3408.98
425.874	3681.58
426.086	3392.32
426.298	3479.51
426.51	3454.71
426.722	3452.96
426.934	3495.97
427.146	3494.43
427.358	3433.78
427.57	3414.99
427.782	3321.02
427.994	3292.35
428.206	3346.98
428.418	3583.94
428.63	3656.4
428.842	3606.8
429.054	3539.57
429.266	3526.2
429.478	3431.46
429.69	3357.45
429.902	3277.23
430.114	3252.43
430.325	3048.61
430.537	2875.98
430.749	2804.1
430.961	2646.2
431.173	2716.92
431.384	2817.28
431.596	2918.03
431.808	3335.36
432.02	3718.59
432.231	3986.93
432.443	4184.36
432.655	4067.92
432.867	3948.37
433.078	4015.02
433.29	4049.12
433.502	4174.28
433.713	4276.97
433.925	4306.23
434.136	4127.78
434.348	3874.94
434.56	3846.85
434.771	3981.51
434.983	3881.53
435.194	4168.08
435.406	4356.99
435.617	4391.28
435.829	4475.37
436.04	4527.49
436.252	4460.64
436.463	4692.95
436.675	4833.99
436.886	4880.3
437.098	4930.87
437.309	4945.01
437.521	4823.72
437.732	4663.11
437.943	4660.2
438.155	4645.67
438.366	4571.66
438.578	4610.22
438.789	4460.84
439	4374.62
439.211	4425.38
439.423	4452.51
439.634	4648.77
439.845	4829.73
440.057	4830.89
440.268	5072.88
440.479	4923.89
440.69	4961.87
440.902	4840.58
441.113	4846.97
441.324	4989.38
441.535	5133.53
441.746	5337.35
441.957	5294.53
442.168	5421.05
442.38	5424.53
442.591	5493.12
442.802	5376.29
443.013	5556.28
443.224	5600.84
443.435	5479.56
443.646	5466.97
443.857	5427.25
444.068	5468.52
444.279	5480.92
444.49	5797.89
444.701	5594.84
444.912	5890.88
445.123	5849.23
445.334	5626.03
445.545	5692.87
445.756	5586.7
445.967	5521.41
446.178	5424.53
446.388	5365.05
446.599	5457.67
446.81	5521.41
447.021	5526.83
447.232	5685.9
447.443	5762.62
447.653	5939.52
447.864	6109.63
448.075	6030.38
448.286	6004.03
448.496	5991.83
448.707	6081.53
448.918	5899.6
449.129	5994.35
449.339	6026.7
449.55	6076.3
449.761	6040.84
449.971	6062.16
450.182	6199.91
450.393	6300.85
450.603	6208.44
450.814	6578.3
451.024	6442.87
451.235	6687.57
451.446	6700.55
451.656	6672.46
451.867	6500.61
452.077	6355.88
452.288	6521.14
452.498	6422.14
452.709	6421.95
452.919	6241.18
453.13	6096.06
453.34	6056.15
453.55	5813
453.761	6213.28
453.971	6066.03
454.182	6265.4
454.392	6258.81
454.602	6528.7
454.813	6600.97
455.023	6426.98
455.233	6395.79
455.444	6489.95
455.654	6194.68
455.864	6465.15
456.075	6495.76
456.285	6452.36
456.495	6600
456.705	6595.74
456.916	6806.53
457.126	6829.01
457.336	6822.03
457.546	6612.01
457.756	6763.52
457.967	6874.93
458.177	6693.97
458.387	6696.1
458.597	6552.73
458.807	6720.12
459.017	6584.5
459.227	6573.84
459.437	6615.31
459.647	6774.18
459.857	6774.95
460.068	6873.96
460.278	6894.88
460.488	6779.99
460.698	6929.95
460.908	6953.2
461.117	7135.32
461.327	7129.9
461.537	7305.05
461.747	7226.38
461.957	7186.47
462.167	7366.27
462.377	7302.33
462.587	7267.26
462.797	7505.57
463.007	7388.36
463.216	7525.72
463.426	7710.56
463.636	7587.53
463.846	7290.9
464.056	7335.85
464.265	7287.03
464.475	7306.21
464.685	7571.84
464.895	7397.85
465.104	7238.4
465.314	7598.57
465.524	7366.08
465.733	7400.76
465.943	7638.29
466.153	7797.55
466.362	7827
466.572	7769.65
466.782	7615.04
466.991	7755.31
467.201	7700.87
467.41	7485.42
467.62	7788.64
467.829	7798.71
468.039	7909.15
468.249	7920.77
468.458	8030.44
468.668	8010.67
468.877	8140.29
469.086	8203.45
469.296	8403.59
469.505	8505.89
469.715	8352.44
469.924	8273.78
470.134	8472.95
470.343	8230.77
470.552	8249.95
470.762	8192.21
470.971	8326.09
471.18	8378.79
471.39	8584.94
471.599	8404.75
471.808	8580.1
472.018	8810.27
472.227	9018.55
472.436	9307.04
472.645	9331.84
472.855	9201.83
473.064	9481.21
473.273	9525.78
473.482	9228.76
473.691	9410.5
473.901	9307.62
474.11	9189.24
474.319	9527.91
474.528	9505.63
474.737	10027.58
474.946	9827.25
475.155	9858.83
475.364	10045.99
475.573	9860.96
475.783	10192.46
475.992	10083.57
476.201	10036.49
476.41	10133.56
476.619	10029.33
476.828	10072.53
477.037	9979.53
477.245	10062.84
477.454	10233.34
477.663	10472.62
477.872	10777.96
478.081	10919.01
478.29	10870.96
478.499	11076.53
478.708	11241.6
478.917	11198.98
479.125	10969.58
479.334	11069.36
479.543	11342.54
479.752	11515.75
479.961	11413.84
480.169	11718.99
480.378	11795.72
480.587	12123.93
480.796	11954.2
481.004	11908.48
481.213	12034.8
481.422	12103.39
481.63	12472.09
481.839	12562.38
482.048	12678.43
482.256	12582.91
482.465	12961.5
482.674	12753.8
482.882	12841.95
483.091	12983.58
483.299	12762.71
483.508	13091.31
483.716	13296.87
483.925	13301.72
484.134	12827.04
484.342	13133.54
484.551	13197.67
484.759	13038.22
484.967	13669.45
485.176	13458.26
485.384	13464.66
485.593	13254.64
485.801	13202.32
486.01	12700.52
486.218	12162.09
486.426	11623.09
486.635	11328.01
486.843	11437.29
487.051	11793.39
487.26	12164.81
487.468	12343.83
487.676	12747.41
487.885	13180.24
488.093	13466.4
488.301	13989.91
488.509	13839.75
488.717	14157.5
488.926	14158.85
489.134	13930.23
489.342	13997.46
489.55	13918.03
489.758	14315.4
489.967	14686.23
490.175	14733.51
490.383	15142.31
490.591	15460.25
490.799	15313.97
491.007	15191.91
491.215	15269.22
491.423	15111.7
491.631	15226.4
491.839	15061.33
492.047	14962.9
492.255	14618.23
492.463	14662.6
492.671	14439.98
492.879	14957.48
493.087	15048.35
493.295	15178.35
493.503	15399.42
493.711	15867.7
493.919	15719.49
494.127	15716.19
494.334	15580.76
494.542	15678.61
494.75	16075.01
494.958	15888.44
495.166	16361.37
495.374	16446.81
495.581	16511.91
495.789	16449.14
495.997	16470.84
496.205	15941.91
496.412	16275.74
496.62	16507.26
496.828	16315.26
497.035	16576.63
497.243	16636.11
497.451	16696.55
497.658	16707.02
497.866	16650.06
498.074	16817.45
498.281	16450.88
498.489	16503.2
498.696	16208.31
498.904	16125.39
499.112	16085.09
499.319	16470.06
499.527	16607.62
499.734	16767.66
499.942	16671.76
500.149	16645.6
500.357	16708.95
500.564	16382.1
500.771	16337.15
500.979	16106.79
501.186	15967.87
501.394	16385.78
501.601	15873.9
501.808	15944.43
502.016	16062.42
502.223	15908.39
502.43	16143.02
502.638	16170.53
502.845	16363.5
503.052	16625.45
503.26	16527.03
503.467	16615.37
503.674	16840.9
503.881	16684.93
504.089	16571.39
504.296	16435
504.503	16251.71
504.71	16180.99
504.917	16518.31
505.125	16575.66
505.332	16769.99
505.539	16834.31
505.746	17262.49
505.953	17423.11
506.16	17445.39
506.367	17520.76
506.574	17870.66
506.781	17720.12
506.988	17589.34
507.195	17431.44
507.402	17463.02
507.609	17434.93
507.816	17222.97
508.023	17153.99
508.23	17047.82
508.437	16766.69
508.644	16965.48
508.851	17173.56
509.058	17571.32
509.265	17596.7
509.472	17695.71
509.679	17907.67
509.885	17749.57
510.092	17673.82
510.299	17712.18
510.506	17394.82
510.713	17538.77
510.92	17502.54
511.126	17622.47
511.333	17783.28
511.54	17844.51
511.746	17949.32
511.953	18038.45
512.16	18362.78
512.367	18083.59
512.573	17940.02
512.78	17896.04
512.987	17881.51
513.193	17543.23
513.4	17368.47
513.606	17488.59
513.813	17664.32
514.02	17419.23
514.226	17410.9
514.433	17475.81
514.639	17289.81
514.846	17302.21
515.052	17334.37
515.259	17480.46
515.465	17563.57
515.672	17569.58
515.878	17657.73
516.085	17956.69
516.291	17813.31
516.497	17730.78
516.704	17147.99
516.91	16695.39
517.117	15980.66
517.323	15603.05
517.529	15448.44
517.736	15430.42
517.942	15617.38
518.148	16006.23
518.354	16142.05
518.561	16218.97
518.767	16043.24
518.973	16202.5
519.179	16547.56
519.386	16706.24
519.592	16754.49
519.798	16795.95
520.004	17486.66
520.21	17512.42
520.417	17651.34
520.623	17743.95
520.829	17707.33
521.035	17841.21
521.241	17668.97
521.447	17788.71
521.653	18128.35
521.859	17921.23
522.065	18103.74
522.271	18319.19
522.477	18126.6
522.683	18320.54
522.889	17944.29
523.095	17769.14
523.301	17817.19
523.507	17726.71
523.713	17702.68
523.919	17679.43
524.125	18157.8
524.331	18432.34
524.537	18653.21
524.742	18793.09
524.948	18680.53
525.154	18761.71
525.36	18779.53
525.566	18473.02
525.772	18689.05
525.977	18559.05
526.183	18366.46
526.389	18495.11
526.595	17831.72
526.8	17660.25
527.006	17057.12
527.212	16658.19
527.417	16676.79
527.623	16744.6
527.829	16914.52
528.034	17339.41
528.24	17424.27
528.446	17910.96
528.651	18251.57
528.857	18226.19
529.062	18449
529.268	18744.85
529.473	18878.54
529.679	19032.18
529.884	18999.24
530.09	18881.64
530.295	18451.9
530.501	18796.58
530.706	18822.16
530.912	18880.47
531.117	19041.09
531.323	18893.26
531.528	19306.14
531.733	19339.27
531.939	19142.61
532.144	19092.05
532.35	18931.62
532.555	18950.42
532.76	18359.49
532.966	18316.28
533.171	18175.04
533.376	18011.71
533.581	18067.51
533.787	18299.81
533.992	18688.28
534.197	18258.74
534.402	18697.58
534.607	18735.74
534.813	18736.33
535.018	18706.68
535.223	19064.92
535.428	18870.21
535.633	19130.6
535.838	19412.12
536.043	19531.46
536.249	19777.91
536.454	19445.83
536.659	19496.2
536.864	19361.16
537.069	19100.76
537.274	18962.62
537.479	18923.29
537.684	18895.78
537.889	18854.12
538.094	19287.54
538.299	19162.38
538.504	19330.94
538.708	19169.54
538.913	19598.5
539.118	19450.48
539.323	19323.77
539.528	19066.86
539.733	19008.35
539.938	19014.55
540.142	18802.39
540.347	18774.11
540.552	18804.52
540.757	18317.06
540.962	18573
541.166	18363.75
541.371	18355.03
541.576	18421.68
541.781	18593.92
541.985	19005.44
542.19	18661.35
542.395	19294.12
542.599	19296.45
542.804	18937.63
543.008	19210.23
543.213	19083.91
543.418	18880.47
543.622	19124.21
543.827	18804.72
544.031	19092.24
544.236	19330.94
544.44	19458.42
544.645	19446.22
544.849	19401.27
545.054	19554.91
545.258	19619.04
545.463	19567.31
545.667	19277.27
545.872	19568.86
546.076	19467.53
546.281	19387.12
546.485	19328.42
546.689	19489.23
546.894	19350.7
547.098	19557.62
547.302	19482.83
547.507	19377.63
547.711	19575.64
547.915	19425.68
548.119	19075.58
548.324	19062.98
548.528	19233.09
548.732	19367.55
548.936	19491.75
549.141	19412.12
549.345	19452.8
549.549	19530.88
549.753	19707.58
549.957	19532.24
550.161	19674.45
550.366	19742.65
550.57	19546.19
550.774	19519.45
550.978	19692.27
551.182	19414.25
551.386	19348.76
551.59	19413.28
551.794	19353.22
551.998	19621.36
552.202	19615.94
552.406	19558.59
552.61	19703.9
552.814	19600.24
553.018	19442.53
553.222	19272.62
553.426	19397
553.63	19590.17
553.833	19450.28
554.037	19267.39
554.241	19408.63
554.445	19516.55
554.649	19583
554.853	19469.85
555.056	19711.46
555.26	19745.17
555.464	19560.72
555.668	19631.83
555.871	19624.08
556.075	19728.12
556.279	19540.38
556.483	19460.94
556.686	19279.01
556.89	19357.29
557.094	19203.45
557.297	18990.13
557.501	19028.88
557.704	18788.44
557.908	19040.12
558.112	19068.6
558.315	19140.09
558.519	19097.47
558.722	18716.56
558.926	18752.02
559.129	18330.62
559.333	18586.56
559.536	18469.92
559.74	18344.18
559.943	18182.21
560.147	18393.39
560.35	18287.99
560.553	18653.6
560.757	18550.13
560.96	18685.76
561.164	18769.07
561.367	19021.52
561.57	18939.76
561.774	18680.53
561.977	18583.27
562.18	18610.58
562.384	18677.62
562.587	18598.77
562.79	18811.11
562.993	18527.66
563.197	18535.6
563.4	18815.76
563.603	18805.49
563.806	18910.31
564.009	18742.33
564.212	18755.89
564.416	18376.73
564.619	18531.73
564.822	18431.17
565.025	18622.01
565.228	18511.19
565.431	18637.9
565.634	18450.55
565.837	18229.87
566.04	18167.87
566.243	18035.74
566.446	17862.33
566.649	18176.01
566.852	17884.61
567.055	18116.92
567.258	18078.75
567.461	18355.22
567.664	18394.36
567.867	18399.4
568.07	18067.7
568.273	18247.11
568.475	18439.89
568.678	17891.39
568.881	17954.56
569.084	17673.82
569.287	17560.47
569.489	17721.28
569.692	17800.33
569.895	17783.48
570.098	17614.92
570.3	17637.2
570.503	17519.01
570.706	17460.69
570.909	17489.76
571.111	17184.6
571.314	17136.94
571.516	17269.08
571.719	17333.01
571.922	17190.61
572.124	17396.56
572.327	17518.43
572.529	17496.92
572.732	17589.54
572.935	17617.24
573.137	18018.49
573.34	17633.71
573.542	17821.65
573.745	17823.58
573.947	17885.58
574.15	17693.19
574.352	17631.19
574.554	17800.53
574.757	17614.34
574.959	17334.37
575.162	17511.26
575.364	17292.13
575.566	17457.79
575.769	17162.71
575.971	17252.61
576.173	16872.67
576.376	17145.27
576.578	17283.42
576.78	17297.56
576.982	17165.04
577.185	17226.07
577.387	17211.73
577.589	17426.79
577.791	17291.55
577.993	17356.46
578.196	17281.87
578.398	17097.81
578.6	16989.89
578.802	16970.13
579.004	16923.24
579.206	16985.63
579.408	17223.35
579.61	17051.89
579.812	17453.72
580.014	17173.95
580.216	17243.31
580.418	17504.67
580.62	17471.74
580.822	17481.04
581.024	17506.42
581.226	17548.66
581.428	17524.44
581.63	17889.46
581.832	17686.22
582.034	17819.51
582.236	17753.06
582.438	17948.55
582.64	18059.18
582.841	18047.17
583.043	18271.53
583.245	17983.81
583.447	18157.8
583.649	18160.7
583.85	18115.56
584.052	18174.65
584.254	17944.48
584.456	18141.91
584.657	18028.18
584.859	18215.15
585.061	17950.49
585.262	18007.06
585.464	17907.48
585.666	17981.1
585.867	17651.15
586.069	17761.78
586.27	17538.77
586.472	17583.53
586.674	17606.2
586.875	17663.16
587.077	17672.65
587.278	17649.99
587.48	17723.03
587.681	17847.8
587.883	17778.83
588.084	17520.95
588.285	17523.66
588.487	17195.26
588.688	17171.43
588.89	16502.61
589.091	16197.66
589.292	15801.44
589.494	15504.82
589.695	15248.88
589.896	14986.35
590.098	15143.67
590.299	15226.4
590.5	15462.19
590.702	15782.46
590.903	16034.71
591.104	16183.12
591.305	16495.64
591.507	16377.07
591.708	16442.94
591.909	16516.37
592.11	16398.77
592.311	16621.77
592.512	16341.61
592.714	16399.73
592.915	16568.88
593.116	16447.2
593.317	16672.72
593.518	16692.29
593.719	16894.56
593.92	16766.89
594.121	16774.83
594.322	16729.88
594.523	16618.86
594.724	16377.07
594.925	16406.9
595.126	16194.36
595.327	16310.42
595.528	16428.8
595.729	16406.32
595.929	16430.73
596.13	16529.93
596.331	16793.43
596.532	16670.01
596.733	16893.01
596.934	16865.31
597.135	16931.76
597.335	16852.72
597.536	16822.88
597.737	16745.77
597.938	16711.67
598.138	16706.63
598.339	16847.87
598.54	16943.2
598.74	16606.07
598.941	16559.96
599.142	16866.66
599.342	16834.89
599.543	16791.88
599.744	16848.65
