Data from calibration3_FLMT105791__2__17-25-30-069.txt Node

Date: Mon Mar 20 17:25:30 GMT 2023
User: antho
Spectrometer: FLMT10579
Trigger mode: 0
Integration Time (sec): 1.000000E-1
Scans to average: 10
Electric dark correction enabled: true
Nonlinearity correction enabled: false
Boxcar width: 0
XAxis mode: Wavelengths
Number of Pixels in Spectrum: 3648
>>>>>Begin Spectral Data<<<<<
345.248	-189.84
345.464	-189.84
345.681	-189.84
345.898	-173.95
346.114	-188.68
346.331	-53.83
346.548	34.91
346.764	-15.66
346.981	0.42
347.197	-6.94
347.414	19.79
347.631	-26.32
347.847	42.08
348.064	-0.55
348.28	42.08
348.497	-24.19
348.713	-11.79
348.93	21.93
349.146	109.31
349.363	95.16
349.579	128.87
349.796	98.84
350.012	120.93
350.229	131.2
350.445	131.2
350.661	119.38
350.878	130.42
351.094	163.36
351.311	143.21
351.527	125.58
351.743	129.65
351.96	182.35
352.176	194.55
352.392	163.36
352.609	173.63
352.825	125.58
353.041	144.57
353.257	132.75
353.474	146.7
353.69	176.54
353.906	183.32
354.122	139.34
354.339	238.15
354.555	178.09
354.771	191.84
354.987	242.41
355.203	233.69
355.42	204.44
355.636	183.12
355.852	159.1
356.068	176.73
356.284	155.42
356.5	255.2
356.716	199.79
356.932	178.47
357.148	200.56
357.364	186.03
357.58	239.31
357.796	229.82
358.012	202.3
358.228	179.44
358.444	97.68
358.66	217.8
358.876	196.69
359.092	159.87
359.308	188.35
359.524	218.97
359.74	205.99
359.956	243.77
360.172	264.3
360.388	286.2
360.604	242.99
360.819	327.47
361.035	242.99
361.251	274.57
361.467	222.07
361.683	301.5
361.898	250.55
362.114	303.83
362.33	258.3
362.546	316.23
362.762	264.11
362.977	294.92
363.193	274.96
363.409	334.63
363.624	263.92
363.84	257.33
364.056	296.66
364.271	317
364.487	350.52
364.703	286.58
364.918	284.65
365.134	315.65
365.35	345.48
365.565	464.06
365.781	348.39
365.996	397.99
366.212	472.97
366.427	432.67
366.643	393.15
366.858	404.38
367.074	417.36
367.289	468.51
367.505	532.84
367.72	391.4
367.936	395.28
368.151	455.14
368.367	409.81
368.582	401.48
368.798	387.33
369.013	450.88
369.228	422.01
369.444	406.32
369.659	490.21
369.874	439.64
370.09	498.93
370.305	398.57
370.52	458.44
370.736	525.09
370.951	459.41
371.166	497.58
371.381	503.39
371.597	492.34
371.812	442.94
372.027	457.66
372.242	458.05
372.458	500.48
372.673	410.97
372.888	436.74
373.103	459.21
373.318	549.31
373.533	464.44
373.749	427.63
373.964	359.43
374.179	432.28
374.394	333.28
374.609	442.55
374.824	409.03
375.039	452.63
375.254	395.28
375.469	461.15
375.684	488.47
375.899	538.46
376.114	509.01
376.329	504.36
376.544	540.39
376.759	543.49
376.974	489.83
377.189	528.19
377.404	539.42
377.619	577.98
377.834	525.47
378.049	586.12
378.264	578.56
378.478	674.66
378.693	657.03
378.908	677.57
379.123	670.01
379.338	644.82
379.553	600.84
379.767	572.17
379.982	550.47
380.197	592.12
380.412	594.45
380.626	641.72
380.841	698.3
381.056	701.2
381.271	779.09
381.485	676.02
381.7	644.44
381.915	647.92
382.129	592.51
382.344	540.59
382.559	526.06
382.773	575.85
382.988	434.03
383.202	499.71
383.417	465.61
383.632	528.19
383.846	450.49
384.061	492.15
384.275	480.72
384.49	580.5
384.704	636.3
384.919	697.13
385.133	699.46
385.348	722.71
385.562	698.88
385.777	759.52
385.991	684.73
386.206	663.04
386.42	661.1
386.634	754.87
386.849	726.58
387.063	765.53
387.277	740.53
387.492	728.72
387.706	720.97
387.92	708.57
388.135	803.7
388.349	794.59
388.563	787.61
388.778	783.16
388.992	814.16
389.206	840.51
389.42	907.74
389.635	854.07
389.849	965.47
390.063	986.79
390.277	1035.42
390.491	1043.36
390.706	1032.51
390.92	1011.78
391.134	1049.56
391.348	1091.41
391.562	1088.31
391.776	1129.58
391.99	1126.28
392.205	1147.4
392.419	1069.71
392.633	1021.08
392.847	1016.04
393.061	824.81
393.275	861.24
393.489	679.12
393.703	559.19
393.917	596.39
394.131	623.9
394.345	749.25
394.559	895.14
394.773	943.39
394.986	1086.37
395.2	1135.97
395.414	1244.86
395.628	1218.9
395.842	1316.16
396.056	1270.05
396.27	1206.69
396.484	1191.19
396.697	1027.47
396.911	909.87
397.125	811.83
397.339	802.53
397.553	801.56
397.766	954.24
397.98	1126.48
398.194	1287.68
398.408	1399.27
398.621	1532.96
398.835	1635.65
399.049	1618.98
399.262	1744.73
399.476	1791.03
399.69	1790.06
399.903	1890.62
400.117	1832.69
400.331	1871.44
400.544	1851.29
400.758	1993.11
400.971	1919.29
401.185	1965.79
401.398	1912.9
401.612	2071.38
401.826	2072.16
402.039	2065.77
402.253	2082.43
402.466	2145.98
402.68	2122.92
402.893	2215.34
403.106	2167.29
403.32	2048.52
403.533	2136.1
403.747	2076.81
403.96	2107.61
404.174	2167.1
404.387	2182.4
404.6	2171.55
404.814	2256.41
405.027	2152.37
405.24	2123.89
405.454	2130.67
405.667	2253.31
405.88	2162.64
406.094	2228.71
406.307	2253.7
406.52	2137.06
406.733	2115.36
406.947	2126.6
407.16	2195.96
407.373	2277.34
407.586	2264.74
407.799	2237.23
408.012	2282.57
408.226	2333.14
408.439	2444.73
408.652	2396.69
408.865	2531.34
409.078	2587.33
409.291	2596.83
409.504	2570.67
409.717	2584.62
409.93	2566.99
410.143	2403.66
410.357	2252.15
410.57	2221.73
410.783	2260.09
410.996	2356.19
411.209	2454.62
411.421	2657.08
411.634	2731.29
411.847	2698.74
412.06	2745.24
412.273	2786.12
412.486	2802.39
412.699	2845.79
412.912	2841.92
413.125	2765.97
413.338	2804.72
413.55	2734.58
413.763	2716.95
413.976	2796.19
414.189	2771.78
414.402	2804.14
414.615	2972.31
414.827	2842.11
415.04	2875.43
415.253	2889
415.466	2928.72
415.678	2949.25
415.891	2914.96
416.104	2863.62
416.316	2889
416.529	3002.92
416.742	3095.73
416.954	3110.84
417.167	3019.39
417.38	2995.36
417.592	2969.98
417.805	2874.27
418.017	2896.75
418.23	3000.21
418.442	2903.14
418.655	2979.28
418.868	2913.02
419.08	2988.2
419.293	3077.9
419.505	3084.49
419.718	3075.38
419.93	3086.23
420.142	3057.36
420.355	3058.14
420.567	3032.37
420.78	3102.89
420.992	3122.08
421.205	3251.3
421.417	3304.39
421.629	3338.68
421.842	3318.53
422.054	3334.62
422.266	3375.5
422.479	3351.86
422.691	3141.84
422.903	3186.59
423.115	3060.08
423.328	3109.09
423.54	3126.92
423.752	3191.82
423.964	3303.04
424.177	3323.18
424.389	3273.39
424.601	3424.32
424.813	3422.58
425.025	3425.1
425.238	3406.69
425.45	3350.7
425.662	3378.79
425.874	3606.64
426.086	3359.8
426.298	3424.51
426.51	3436.72
426.722	3391.19
426.934	3436.14
427.146	3464.43
427.358	3437.5
427.57	3423.55
427.782	3276.88
427.994	3277.46
428.206	3281.14
428.418	3529.91
428.63	3617.29
428.842	3632.79
429.054	3467.72
429.266	3424.9
429.478	3343.72
429.69	3268.55
429.902	3250.34
430.114	3202.67
430.325	3023.65
430.537	2878.15
430.749	2816.73
430.961	2649.14
431.173	2725.28
431.384	2778.95
431.596	2864.97
431.808	3302.26
432.02	3684.33
432.231	3956.74
432.443	4169.28
432.655	4036.76
432.867	3938.53
433.078	3972.04
433.29	4036.76
433.502	4150.87
433.713	4252.4
433.925	4264.41
434.136	4102.24
434.348	3830.61
434.56	3777.33
434.771	4015.44
434.983	3848.82
435.194	4152.42
435.406	4350.24
435.617	4383.76
435.829	4468.62
436.04	4464.36
436.252	4438.98
436.463	4673.41
436.675	4819.69
436.886	4836.35
437.098	4897.19
437.309	4892.92
437.521	4784.23
437.732	4644.35
437.943	4610.64
438.155	4598.24
438.366	4524.81
438.578	4621.68
438.789	4361.28
439	4281.07
439.211	4400.23
439.423	4421.15
439.634	4593.97
439.845	4773.77
440.057	4814.84
440.268	4982.05
440.479	4912.49
440.69	4940.97
440.902	4823.56
441.113	4787.53
441.324	4923.34
441.535	5128.91
441.746	5269.18
441.957	5247.29
442.168	5350.94
442.38	5347.07
442.591	5411.78
442.802	5263.95
443.013	5504
443.224	5574.14
443.435	5427.28
443.646	5444.91
443.857	5385.82
444.068	5426.12
444.279	5379.62
444.49	5717.71
444.701	5514.66
444.912	5822.14
445.123	5766.53
445.334	5557.09
445.545	5635.17
445.756	5503.23
445.967	5466.42
446.178	5331.37
446.388	5343
446.599	5367.02
446.81	5480.95
447.021	5423.21
447.232	5643.89
447.443	5754.71
447.653	5883.94
447.864	5992.05
448.075	6012.01
448.286	6005.81
448.496	5949.43
448.707	5998.64
448.918	5825.24
449.129	5951.56
449.339	5941.1
449.55	6059.09
449.761	5989.73
449.971	6008.13
450.182	6095.32
450.393	6198.78
450.603	6158.29
450.814	6461.7
451.024	6394.85
451.235	6611.08
451.446	6593.83
451.656	6598.09
451.867	6493.66
452.077	6306.89
452.288	6471.38
452.498	6357.65
452.709	6333.82
452.919	6117.79
453.13	6011.04
453.34	5989.15
453.55	5783.97
453.761	6086.02
453.971	6024.02
454.182	6136.01
454.392	6270.86
454.602	6475.65
454.813	6547.53
455.023	6374.7
455.233	6223.19
455.444	6311.93
455.654	6136.59
455.864	6311.93
456.075	6477.97
456.285	6429.73
456.495	6448.52
456.705	6511.49
456.916	6756.19
457.126	6787.58
457.336	6646.72
457.546	6599.06
457.756	6716.47
457.967	6805.6
458.177	6667.65
458.387	6699.81
458.597	6545.78
458.807	6622.31
459.017	6496.57
459.227	6554.5
459.437	6541.13
459.647	6698.84
459.857	6679.27
460.068	6829.82
460.278	6896.27
460.488	6827.49
460.698	6809.08
460.908	6899.37
461.117	6997.02
461.327	7079.94
461.537	7150.08
461.747	7156.09
461.957	7126.25
462.167	7334.14
462.377	7214.79
462.587	7179.34
462.797	7335.5
463.007	7320
463.216	7453.49
463.426	7640.07
463.636	7406.99
463.846	7242.3
464.056	7232.23
464.265	7198.32
464.475	7270.4
464.685	7454.46
464.895	7385.68
465.104	7239.59
465.314	7471.31
465.524	7308.76
465.733	7295.39
465.943	7569.16
466.153	7677.65
466.362	7742.95
466.572	7698.77
466.782	7569.93
466.991	7666.22
467.201	7493.59
467.41	7403.89
467.62	7689.47
467.829	7714.66
468.039	7842.34
468.249	7788.28
468.458	7906.66
468.668	7907.24
468.877	8053.33
469.086	8152.92
469.296	8345.11
469.505	8415.64
469.715	8309.46
469.924	8231.19
470.134	8322.64
470.343	8146.91
470.552	8119.98
470.762	8116.3
470.971	8232.16
471.18	8316.83
471.39	8417.77
471.599	8319.73
471.808	8506.31
472.018	8741.13
472.227	8846.72
472.436	9233.25
472.645	9198.38
472.855	9096.27
473.064	9389.8
473.273	9422.73
473.482	9090.85
473.691	9299.9
473.901	9214.07
474.11	9036.6
474.319	9445.4
474.528	9388.05
474.737	9890.25
474.946	9776.9
475.155	9842.59
475.364	9965.23
475.573	9858.86
475.783	10102.98
475.992	10005.33
476.201	10005.33
476.41	10086.32
476.619	9915.24
476.828	9876.3
477.037	9888.31
477.245	9976.66
477.454	10156.46
477.663	10349.82
477.872	10739.25
478.081	10842.71
478.29	10705.15
478.499	10949.85
478.708	11149.6
478.917	11110.66
479.125	10767.53
479.334	10905.87
479.543	11224.58
479.752	11360.4
479.961	11302.08
480.169	11607.04
480.378	11673.88
480.587	12004.22
480.796	11761.07
481.004	11846.71
481.213	11974
481.422	12042.39
481.63	12276.44
481.839	12318.48
482.048	12568.22
482.256	12472.51
482.465	12870.47
482.674	12675.17
482.882	12788.71
483.091	12828.04
483.299	12581.4
483.508	12988.07
483.716	13139.19
483.925	13167.29
484.134	12755.77
484.342	13005.31
484.551	13086.11
484.759	12978.19
484.967	13475.73
485.176	13317.25
485.384	13343.79
485.593	13143.26
485.801	13039.41
486.01	12483.75
486.218	11976.9
486.426	11467.74
486.635	11196.88
486.843	11367.76
487.051	11696.16
487.26	12019.14
487.468	12257.06
487.676	12642.81
487.885	13042.9
488.093	13332.55
488.301	13810.92
488.509	13791.54
488.717	14006.02
488.926	14015.71
489.134	13852.18
489.342	13796.19
489.55	13743.88
489.758	14083.91
489.967	14579.12
490.175	14548.32
490.383	14988.9
490.591	15266.93
490.799	15153.97
491.007	15044.7
491.215	15086.94
491.423	14945.11
491.631	15008.86
491.839	14874.2
492.047	14796.31
492.255	14492.91
492.463	14452.22
492.671	14246.65
492.879	14811.23
493.087	14858.7
493.295	15055.55
493.503	15190.59
493.711	15638.53
493.919	15533.52
494.127	15527.32
494.334	15464.35
494.542	15503.3
494.75	15954.54
494.958	15776.09
495.166	16144.8
495.374	16240.51
495.581	16293.21
495.789	16236.83
495.997	16364.12
496.205	15827.63
496.412	15968.87
496.62	16406.35
496.828	16154.29
497.035	16458.28
497.243	16491.8
497.451	16495.67
497.658	16589.25
497.866	16461.57
498.074	16567.55
498.281	16341.84
498.489	16369.74
498.696	16064.97
498.904	15896.6
499.112	15942.91
499.319	16332.92
499.527	16494.51
499.734	16529.77
499.942	16479.59
500.149	16478.62
500.357	16558.06
500.564	16172.69
500.771	16131.81
500.979	15932.25
501.186	15830.92
501.394	16178.89
501.601	15663.53
501.808	15759.04
502.016	15818.91
502.223	15752.65
502.43	15935.94
502.638	15838.09
502.845	16217.06
503.052	16497.03
503.26	16408.29
503.467	16536.55
503.674	16549.53
503.881	16522.8
504.089	16377.29
504.296	16249.61
504.503	16113.21
504.71	16002.58
504.917	16283.52
505.125	16395.12
505.332	16690.77
505.539	16668.3
505.746	17068.97
505.953	17174.17
506.16	17349.32
506.367	17387.3
506.574	17582.01
506.781	17563.02
506.988	17412.87
507.195	17335.37
507.402	17322.97
507.609	17246.44
507.816	17059.86
508.023	16935.09
508.23	16838.22
508.437	16653.77
508.644	16785.71
508.851	16870.57
509.058	17286.35
509.265	17325.88
509.472	17542.29
509.679	17712.4
509.885	17683.15
510.092	17587.44
510.299	17624.64
510.506	17198.59
510.713	17309.8
510.92	17300.88
511.126	17513.23
511.333	17544.23
511.54	17733.91
511.746	17828.26
511.953	17894.14
512.16	18105.32
512.367	17965.24
512.573	17722.67
512.78	17743.79
512.987	17611.85
513.193	17390.01
513.4	17173.79
513.606	17382.65
513.813	17449.49
514.02	17248.96
514.226	17181.15
514.433	17251.87
514.639	17100.94
514.846	17162.16
515.052	17125.35
515.259	17288.1
515.465	17352.81
515.672	17388.26
515.878	17475.84
516.085	17750.77
516.291	17588.21
516.497	17528.54
516.704	16943.61
516.91	16515.43
517.117	15767.96
517.323	15460.48
517.529	15295.79
517.736	15319.63
517.942	15472.49
518.148	15960.54
518.354	15957.83
518.561	15955.31
518.767	15878.97
518.973	15983.6
519.179	16361.02
519.386	16566
519.592	16518.92
519.798	16641.56
520.004	17408.03
520.21	17285.77
520.417	17462.86
520.623	17471.96
520.829	17685.47
521.035	17635.49
521.241	17456.46
521.447	17673.27
521.653	17898.4
521.859	17787.19
522.065	17920.1
522.271	17979.58
522.477	17993.92
522.683	18178.95
522.889	17728.48
523.095	17455.3
523.301	17638
523.507	17403.18
523.713	17534.74
523.919	17570.77
524.125	17996.05
524.331	18258.58
524.537	18488.36
524.742	18494.17
524.948	18502.89
525.154	18641.03
525.36	18509.48
525.566	18264.97
525.772	18447.67
525.977	18368.82
526.183	18169.65
526.389	18319.22
526.595	17719.19
526.8	17529.51
527.006	16913.78
527.212	16556.31
527.417	16426.12
527.623	16562.51
527.829	16792.69
528.034	17178.82
528.24	17294.1
528.446	17685.67
528.651	18067.16
528.857	18188.05
529.062	18188.83
529.268	18575.74
529.473	18729.96
529.679	18835.94
529.884	18780.73
530.09	18677.85
530.295	18215.18
530.501	18562.37
530.706	18656.92
530.912	18746.63
531.117	18774.14
531.323	18669.32
531.528	19088.2
531.733	19093.63
531.939	18972.15
532.144	18796.61
532.35	18737.91
532.555	18661.38
532.76	18246.57
532.966	18142.52
533.171	17973.96
533.376	17827.3
533.581	17867.4
533.787	18109.59
533.992	18445.16
534.197	18037.32
534.402	18532.92
534.607	18553.27
534.813	18484.49
535.018	18527.3
535.223	18778.98
535.428	18684.63
535.633	18943.47
535.838	19185.46
536.043	19325.16
536.249	19401.1
536.454	19217.82
536.659	19301.13
536.864	19085.88
537.069	18865.39
537.274	18818.7
537.479	18673.39
537.684	18675.13
537.889	18618.56
538.094	19173.84
538.299	18902.98
538.504	19091.5
538.708	19026.79
538.913	19307.33
539.118	19211.81
539.323	19122.69
539.528	18964.4
539.733	18754.38
539.938	18779.95
540.142	18666.61
540.347	18612.36
540.552	18372.89
540.757	18085.75
540.962	18387.03
541.166	18243.47
541.371	18221.18
541.576	18235.13
541.781	18417.45
541.985	18794.68
542.19	18461.24
542.395	19037.63
542.599	19014.77
542.804	18707.68
543.008	18967.89
543.213	18936.89
543.418	18708.26
543.622	18945.02
543.827	18620.69
544.031	18962.65
544.236	19007.02
544.44	19287.18
544.645	19245.33
544.849	19068.63
545.054	19349.57
545.258	19307.52
545.463	19395.68
545.667	18982.03
545.872	19386.38
546.076	19289.7
546.281	19246.3
546.485	19175
546.689	19218.59
546.894	19173.65
547.098	19347.82
547.302	19237
547.507	19188.95
547.711	19277.69
547.915	19123.66
548.119	18918.48
548.324	18835.17
548.528	19014.77
548.732	19026.2
548.936	19201.35
549.141	19204.65
549.345	19162.6
549.549	19348.99
549.753	19451.09
549.957	19326.51
550.161	19436.75
550.366	19512.32
550.57	19377.86
550.774	19330
550.978	19348.41
551.182	19294.54
551.386	19196.12
551.59	19216.85
551.794	19244.94
551.998	19351.89
552.202	19336.2
552.406	19292.99
552.61	19596.6
552.814	19438.89
553.018	19320.31
553.222	19100.22
553.426	19172.68
553.63	19409.05
553.833	19233.9
554.037	19063.79
554.241	19154.46
554.445	19348.6
554.649	19363.13
554.853	19234.29
555.056	19441.02
555.26	19532.85
555.464	19334.65
555.668	19399.36
555.871	19445.67
556.075	19444.89
556.279	19293.19
556.483	19130.44
556.686	19074.25
556.89	19053.72
557.094	18984.94
557.297	18666.22
557.501	18838.46
557.704	18532.15
557.908	18878.96
558.112	18754.57
558.315	18940.96
558.519	18742.56
558.722	18492.62
558.926	18620.5
559.129	18126.25
559.333	18404.66
559.536	18273.5
559.74	18138.84
559.943	17973.38
560.147	18153.37
560.35	18091.95
560.553	18432.76
560.757	18397.69
560.96	18468.41
561.164	18541.64
561.367	18824.32
561.57	18741.98
561.774	18507.74
561.977	18395.94
562.18	18377.73
562.384	18462.4
562.587	18359.52
562.79	18509.29
562.993	18326.39
563.197	18355.06
563.4	18551.52
563.603	18564.89
563.806	18629.8
564.009	18540.09
564.212	18517.62
564.416	18323.29
564.619	18309.73
564.822	18176.82
565.025	18434.31
565.228	18299.46
565.431	18409.51
565.634	18140.39
565.837	18128.38
566.04	17928.04
566.243	17806.57
566.446	17703.49
566.649	17921.46
566.852	17782.73
567.055	17901.69
567.258	17915.84
567.461	18058.24
567.664	18166.93
567.867	18177.2
568.07	17970.48
568.273	18141.55
568.475	18273.88
568.678	17699.42
568.881	17706.01
569.084	17538.03
569.287	17358.23
569.489	17486.11
569.692	17586.86
569.895	17636.45
570.098	17482.62
570.3	17466.34
570.503	17369.08
570.706	17317.16
570.909	17269.11
571.111	16906.22
571.314	16851
571.516	16969.58
571.719	17090.86
571.922	16971.32
572.124	17093.58
572.327	17300.88
572.529	17298.56
572.732	17254.39
572.935	17429.92
573.137	17761.62
573.34	17520.4
573.542	17651.37
573.745	17542.68
573.947	17677.92
574.15	17394.85
574.352	17525.05
574.554	17590.54
574.757	17342.54
574.959	17066.64
575.162	17344.09
575.364	17077.88
575.566	17272.21
575.769	17012.4
575.971	17095.71
576.173	16684.77
576.376	16906.8
576.578	17106.94
576.78	17030.22
576.982	16948.26
577.185	17133.29
577.387	17003.1
577.589	17276.67
577.791	17071.49
577.993	17124.57
578.196	17117.41
578.398	16811.87
578.6	16775.25
578.802	16766.92
579.004	16800.63
579.206	16828.72
579.408	17019.76
579.61	16868.63
579.812	17186.38
580.014	16946.71
580.216	17000.38
580.418	17192.19
580.62	17279.38
580.822	17262.91
581.024	17319.68
581.226	17392.33
581.428	17437.86
581.63	17725.77
581.832	17495.99
582.034	17665.52
582.236	17522.53
582.438	17700.39
582.64	17775.37
582.841	17811.02
583.043	18054.95
583.245	17738.75
583.447	17915.64
583.649	17899.37
583.85	17935.6
584.052	17859.26
584.254	17819.93
584.456	17906.54
584.657	17793.2
584.859	18069.09
585.061	17820.9
585.262	17811.21
585.464	17652.15
585.666	17693.03
585.867	17459.76
586.069	17434.38
586.27	17406.28
586.472	17371.8
586.674	17355.13
586.875	17440.38
587.077	17511.29
587.278	17500.06
587.48	17450.26
587.681	17677.92
587.883	17578.52
588.084	17360.56
588.285	17340.6
588.487	16947.88
588.688	17001.55
588.89	16358.3
589.091	16040.75
589.292	15664.3
589.494	15295.41
589.695	15037.14
589.896	14862.96
590.098	14959.84
590.299	15153.58
590.5	15312.84
590.702	15643.38
590.903	15824.34
591.104	16070.2
591.305	16288.17
591.507	16267.63
591.708	16328.47
591.909	16343.39
592.11	16266.47
592.311	16403.45
592.512	16098.88
592.714	16168.24
592.915	16409.65
593.116	16310.45
593.317	16541.2
593.518	16542.36
593.719	16613.28
593.92	16541.59
594.121	16617.54
594.322	16481.14
594.523	16407.13
594.724	16274.8
594.925	16246.71
595.126	16138.6
595.327	16106.43
595.528	16206.21
595.729	16261.04
595.929	16249.42
596.13	16428.63
596.331	16639.82
596.532	16483.85
596.733	16667.33
596.934	16719.06
597.135	16725.46
597.335	16631.1
597.536	16598.16
597.737	16558.83
597.938	16449.56
598.138	16572.01
598.339	16601.26
598.54	16623.74
598.74	16421.85
598.941	16504.39
599.142	16658.42
599.342	16604.36
599.543	16571.04
599.744	16563.87
599.944	16665.78
