Data from calibration3_FLMT105791__3__17-25-31-069.txt Node

Date: Mon Mar 20 17:25:31 GMT 2023
User: antho
Spectrometer: FLMT10579
Trigger mode: 0
Integration Time (sec): 1.000000E-1
Scans to average: 10
Electric dark correction enabled: true
Nonlinearity correction enabled: false
Boxcar width: 0
XAxis mode: Wavelengths
Number of Pixels in Spectrum: 3648
>>>>>Begin Spectral Data<<<<<
345.248	-161.39
345.464	-161.39
345.681	-161.39
345.898	-178.83
346.114	-159.07
346.331	-36.04
346.548	21.12
346.764	-13.17
346.981	14.92
347.197	-23.25
347.414	25.19
347.631	-28.09
347.847	41.07
348.064	6.59
348.28	39.52
348.497	-36.62
348.713	-11.24
348.93	62.77
349.146	99.78
349.363	111.4
349.579	127.29
349.796	127.29
350.012	138.34
350.229	126.32
350.445	142.79
350.661	116.44
350.878	138.14
351.094	185.03
351.311	148.41
351.527	161
351.743	118.38
351.96	148.99
352.176	194.52
352.392	180.96
352.609	171.27
352.825	124.77
353.041	123.8
353.257	149.38
353.474	178.25
353.69	183.28
353.906	179.02
354.122	143.57
354.339	209.05
354.555	201.88
354.771	169.53
354.987	225.72
355.203	227.85
355.42	178.83
355.636	187.35
355.852	198.78
356.068	182.32
356.284	177.47
356.5	251.87
356.716	214.09
356.932	179.99
357.148	209.83
357.364	172.24
357.58	179.8
357.796	235.02
358.012	249.35
358.228	195.68
358.444	105.2
358.66	235.02
358.876	184.25
359.092	156.35
359.308	183.67
359.524	203.82
359.74	225.91
359.956	239.86
360.172	243.35
360.388	306.12
360.604	232.88
360.819	316.97
361.035	236.95
361.251	266.21
361.467	238.7
361.683	295.85
361.898	240.44
362.114	274.35
362.33	263.69
362.546	280.93
362.762	276.28
362.977	297.21
363.193	262.72
363.409	334.02
363.624	286.55
363.84	275.51
364.056	278.41
364.271	340.03
364.487	343.13
364.703	312.32
364.918	297.98
365.134	327.82
365.35	322.4
365.565	422.76
365.781	341.96
365.996	418.11
366.212	478.94
366.427	442.13
366.643	383.43
366.858	411.52
367.074	388.66
367.289	472.16
367.505	515.76
367.72	376.84
367.936	418.88
368.151	444.07
368.367	449.3
368.582	421.59
368.798	398.93
369.013	466.93
369.228	428.38
369.444	440
369.659	482.24
369.874	478.75
370.09	528.15
370.305	408.42
370.52	468.29
370.736	506.46
370.951	458.02
371.166	503.94
371.381	514.01
371.597	482.43
371.812	446.01
372.027	469.26
372.242	475.46
372.458	516.34
372.673	431.86
372.888	453.37
373.103	486.31
373.318	530.48
373.533	463.25
373.749	406.68
373.964	356.3
374.179	444.46
374.394	380.71
374.609	450.27
374.824	374.13
375.039	449.69
375.254	388.27
375.469	478.56
375.684	473.91
375.899	530.09
376.114	508.59
376.329	542.1
376.544	517.89
376.759	533.77
376.974	499.87
377.189	501.61
377.404	531.84
377.619	598.29
377.834	521.76
378.049	555.86
378.264	598.87
378.478	656.61
378.693	683.35
378.908	667.46
379.123	638.59
379.338	648.86
379.553	599.65
379.767	567.68
379.982	584.34
380.197	577.56
380.412	582.21
380.626	651.77
380.841	725.58
381.056	704.46
381.271	741.47
381.485	669.59
381.7	621.54
381.915	645.57
382.129	581.63
382.344	562.25
382.559	527.77
382.773	575.43
382.988	457.05
383.202	488.63
383.417	441.74
383.632	552.18
383.846	493.09
384.061	499.48
384.275	466.16
384.49	588.99
384.704	629.1
384.919	696.72
385.133	708.92
385.348	773.05
385.562	687.42
385.777	743.41
385.991	704.27
386.206	653.51
386.42	697.88
386.634	755.81
386.849	759.1
387.063	775.38
387.277	755.61
387.492	732.36
387.706	706.21
387.92	738.56
388.135	781.58
388.349	787.58
388.563	751.16
388.778	766.85
388.992	787.78
389.206	795.72
389.42	909.26
389.635	877.29
389.849	956.14
390.063	1015.43
390.277	999.74
390.491	1084.6
390.706	1019.69
390.92	1031.7
391.134	1047.2
391.348	1081.5
391.562	1053.02
391.776	1143.5
391.99	1109.59
392.205	1113.27
392.419	1064.64
392.633	1029.96
392.847	979.59
393.061	858.3
393.275	820.91
393.489	682.77
393.703	576.79
393.917	647.12
394.131	600.42
394.345	761.04
394.559	890.07
394.773	945.49
394.986	1072.58
395.2	1109.2
395.414	1223.32
395.628	1217.31
395.842	1295.98
396.056	1297.91
396.27	1186.51
396.484	1149.11
396.697	1041.39
396.911	918.17
397.125	799.59
397.339	789.52
397.553	793.59
397.766	983.27
397.98	1162.29
398.194	1317.09
398.408	1401.76
398.621	1561.8
398.835	1631.55
399.049	1630.77
399.262	1771.62
399.476	1791.58
399.69	1802.24
399.903	1876.44
400.117	1818.12
400.331	1895.43
400.544	1858.42
400.758	1991.53
400.971	1929.92
401.185	1948.71
401.398	1918.49
401.612	2046.55
401.826	2065.73
402.039	2082.01
402.253	2082.2
402.466	2174.62
402.68	2125.41
402.893	2202.91
403.106	2166.09
403.32	2062.25
403.533	2090.34
403.747	2018.46
403.96	2145.75
404.174	2192.06
404.387	2136.84
404.6	2194.57
404.814	2214.72
405.027	2132.58
405.24	2146.53
405.454	2136.45
405.667	2246.69
405.88	2213.37
406.094	2256.57
406.307	2260.26
406.52	2133.54
406.733	2099.06
406.947	2129.67
407.16	2226.16
407.373	2265.29
407.586	2272.46
407.799	2274.2
408.012	2308.69
408.226	2272.85
408.439	2447.03
408.652	2404.21
408.865	2527.43
409.078	2606.09
409.291	2558.63
409.504	2531.31
409.717	2569.86
409.93	2555.14
410.143	2429.2
410.357	2261.61
410.57	2217.44
410.783	2232.36
410.996	2332.33
411.209	2439.67
411.421	2680.11
411.634	2715.17
411.847	2696.19
412.06	2779.11
412.273	2804.49
412.486	2825.22
412.699	2844.98
412.912	2886.06
413.125	2793.84
413.338	2774.65
413.55	2751.99
413.763	2688.24
413.976	2747.53
414.189	2782.99
414.402	2839.75
414.615	2974.02
414.827	2807.98
415.04	2867.27
415.253	2887.8
415.466	2944.96
415.678	2989.71
415.891	2870.37
416.104	2887.8
416.316	2941.86
416.529	2998.43
416.742	3081.94
416.954	3120.3
417.167	3040.28
417.38	2991.07
417.592	2980.41
417.805	2830.65
418.017	2868.82
418.23	2920.55
418.442	2881.6
418.655	2960.85
418.868	2938.37
419.08	3014.71
419.293	3083.49
419.505	3071.86
419.718	3086.39
419.93	3084.26
420.142	3028.85
420.355	3062.37
420.567	2985.26
420.78	3081.16
420.992	3084.26
421.205	3240.03
421.417	3296.42
421.629	3369.46
421.842	3312.69
422.054	3286.15
422.266	3361.51
422.479	3361.51
422.691	3167.19
422.903	3145.87
423.115	3073.41
423.328	3116.04
423.54	3139.09
423.752	3175.32
423.964	3296.61
424.177	3306.3
424.389	3295.64
424.601	3419.64
424.813	3394.06
425.025	3414.99
425.238	3406.66
425.45	3325.09
425.662	3343.88
425.874	3643.03
426.086	3358.61
426.298	3464.98
426.51	3402.4
426.722	3377.98
426.934	3489.19
427.146	3455.29
427.358	3396.78
427.57	3412.08
427.782	3282.66
427.994	3278.2
428.206	3299.32
428.418	3555.26
428.63	3589.36
428.842	3616.29
429.054	3481.83
429.266	3458.58
429.478	3384.57
429.69	3301.84
429.902	3225.7
430.114	3246.43
430.325	3056.75
430.537	2847.31
430.749	2798.29
430.961	2635.16
431.173	2721.76
431.384	2796.16
431.596	2927.71
431.808	3328.77
432.02	3695.73
432.231	3959.81
432.443	4184.36
432.655	4026.84
432.867	3915.24
433.078	3965.04
433.29	4036.14
433.502	4153.17
433.713	4204.51
433.925	4277.36
434.136	4123.72
434.348	3860.41
434.56	3801.71
434.771	3978.21
434.983	3893.35
435.194	4149.48
435.406	4284.72
435.617	4321.73
435.829	4446.89
436.04	4469.55
436.252	4433.32
436.463	4616.42
436.675	4821.01
436.886	4881.85
437.098	4926.99
437.309	4884.56
437.521	4752.23
437.732	4683.26
437.943	4591.03
438.155	4615.06
438.366	4541.82
438.578	4613.32
438.789	4365.13
439	4346.14
439.211	4387.41
439.423	4395.16
439.634	4591.42
439.845	4751.65
440.057	4791.37
440.268	4986.86
440.479	4921.37
440.69	4921.18
440.902	4806.09
441.113	4767.93
441.324	4928.54
441.535	5091.1
441.746	5265.47
441.957	5245.12
442.168	5348.78
442.38	5339.29
442.591	5460.38
442.802	5276.12
443.013	5475.3
443.224	5574.69
443.435	5458.25
443.646	5420.66
443.857	5410.2
444.068	5417.75
444.279	5416.79
444.49	5683.38
444.701	5556.48
444.912	5809.9
445.123	5815.13
445.334	5549.7
445.545	5675.83
445.756	5487.31
445.967	5425.7
446.178	5324.76
446.388	5334.64
446.599	5353.24
446.81	5483.82
447.021	5464.25
447.232	5610.73
447.443	5779.29
447.653	5920.14
447.864	5977.88
448.075	5965.09
448.286	5996.86
448.496	5944.75
448.707	5969.55
448.918	5838.77
449.129	5964.31
449.339	5956.56
449.55	6060.61
449.761	6040.65
449.971	5985.43
450.182	6132.1
450.393	6216.19
450.603	6122.41
450.814	6421.17
451.024	6407.22
451.235	6650.18
451.446	6606.59
451.656	6590.31
451.867	6496.15
452.077	6280.7
452.288	6451.98
452.498	6306.28
452.709	6341.15
452.919	6133.26
453.13	5996.67
453.34	6020.7
453.55	5768.24
453.761	6105.94
453.971	5994.35
454.182	6197.78
454.392	6246.8
454.602	6501.58
454.813	6493.83
455.023	6342.9
455.233	6264.82
455.444	6339.02
455.654	6132.1
455.864	6364.98
456.075	6458.95
456.285	6409.74
456.495	6542.26
456.705	6498.28
456.916	6733.88
457.126	6779.22
457.336	6667.23
457.546	6550.01
457.756	6659.48
457.967	6802.47
458.177	6598.64
458.387	6639.72
458.597	6503.71
458.807	6655.02
459.017	6504.68
459.227	6537.03
459.437	6474.26
459.647	6748.99
459.857	6717.99
460.068	6810.8
460.278	6825.33
460.488	6807.7
460.698	6811.96
460.908	6894.11
461.117	7002.99
461.327	7008.42
461.537	7195.97
461.747	7206.82
461.957	7097.74
462.167	7278.11
462.377	7316.67
462.587	7174.46
462.797	7368.4
463.007	7304.66
463.216	7450.36
463.426	7655.92
463.636	7405.99
463.846	7222.51
464.056	7301.75
464.265	7204.49
464.475	7243.82
464.685	7466.44
464.895	7379.06
465.104	7169.62
465.314	7428.27
465.524	7318.03
465.733	7331.4
465.943	7608.07
466.153	7732.84
466.362	7779.73
466.572	7686.92
466.782	7544.13
466.991	7667.93
467.201	7540.25
467.41	7412.77
467.62	7682.85
467.829	7699.51
468.039	7856.06
468.249	7810.14
468.458	8006.02
468.668	7933.56
468.877	8128.86
469.086	8090.88
469.296	8298.97
469.505	8407.66
469.715	8314.66
469.924	8229.03
470.134	8330.16
470.343	8157.34
470.552	8204.03
470.762	8062.4
470.971	8240.46
471.18	8303.42
471.39	8462.49
471.599	8343.72
471.808	8480.51
472.018	8704.29
472.227	8890.09
472.436	9208.03
472.645	9248.72
472.855	9121.04
473.064	9406.82
473.273	9410.69
473.482	9132.66
473.691	9286.69
473.901	9223.14
474.11	9094.3
474.319	9418.25
474.528	9363.22
474.737	9863.28
474.946	9720.69
475.155	9858.44
475.364	9966.74
475.573	9783.65
475.783	10104.11
475.992	9978.95
476.201	9963.06
476.41	10051.22
476.619	9965.97
476.828	9949.7
477.037	9947.95
477.245	9909.78
477.454	10150.03
477.663	10439.1
477.872	10671.98
478.081	10848.29
478.29	10673.15
478.499	10993.22
478.708	11174.57
478.917	11028.29
479.125	10853.14
479.334	10885.69
479.543	11239.08
479.752	11328.79
479.961	11286.94
480.169	11618.83
480.378	11672.5
480.587	11921.07
480.796	11769.37
481.004	11764.14
481.213	11935.41
481.422	12003.61
481.63	12313.22
481.839	12383.94
482.048	12542.03
482.256	12461.63
482.465	12796.62
482.674	12720.28
482.882	12740.43
483.091	12853.19
483.299	12636.97
483.508	12960.72
483.716	13057.59
483.925	13159.12
484.134	12715.63
484.342	13016.52
484.551	13023.49
484.759	12973.7
484.967	13449.93
485.176	13324.19
485.384	13324.97
485.593	13172.29
485.801	13056.63
486.01	12532.93
486.218	11898.79
486.426	11441.74
486.635	11200.33
486.843	11283.06
487.051	11726.74
487.26	11975.52
487.468	12221.38
487.676	12594.34
487.885	13007.03
488.093	13335.82
488.301	13855.83
488.509	13719.05
488.717	13942.63
488.926	14048.22
489.134	13836.65
489.342	13883.93
489.55	13800.42
489.758	14094.72
489.967	14526.59
490.175	14437.46
490.383	15022.58
490.591	15268.06
490.799	15100.08
491.007	14943.14
491.215	15131.27
491.423	14997.59
491.631	14921.06
491.839	14910.98
492.047	14813.72
492.255	14488.81
492.463	14515.54
492.671	14298.93
492.879	14765.28
493.087	14963.68
493.295	15015.02
493.503	15212.06
493.711	15620.87
493.919	15446.5
494.127	15558.87
494.334	15407.94
494.542	15542.6
494.75	15868.67
494.958	15672.02
495.166	16176.15
495.374	16260.04
495.581	16368.54
495.789	16270.12
495.997	16331.15
496.205	15714.84
496.412	16077.73
496.62	16349.36
496.828	16175.76
497.035	16376.87
497.243	16434.22
497.451	16500.87
497.658	16527.99
497.866	16489.44
498.074	16649.09
498.281	16236.79
498.489	16361.76
498.696	16098.46
498.904	15912.27
499.112	15898.51
499.319	16327.66
499.527	16478.78
499.734	16478.59
499.942	16396.44
500.149	16485.37
500.357	16497.38
500.564	16204.05
500.771	16155.42
500.979	15952.18
501.186	15802.02
501.394	16166.46
501.601	15743.12
501.808	15771.41
502.016	15843.87
502.223	15812.87
502.43	15846
502.638	15846.39
502.845	16212.57
503.052	16391.6
503.26	16375.9
503.467	16513.66
503.674	16623.32
503.881	16547.37
504.089	16352.27
504.296	16189.52
504.503	16088.96
504.71	16065.52
504.917	16263.34
505.125	16395.86
505.332	16626.03
505.539	16670.4
505.746	17035.23
505.953	17258.42
506.16	17372.73
506.367	17335.34
506.574	17601.74
506.781	17486.46
506.988	17438.99
507.195	17218.12
507.402	17239.05
507.609	17314.8
507.816	17017.79
508.023	16878.48
508.23	16844
508.437	16700.82
508.644	16763.59
508.851	16924.79
509.058	17307.44
509.265	17291.94
509.472	17562.22
509.679	17591.86
509.885	17585.08
510.092	17478.13
510.299	17497.7
510.506	17284.19
510.713	17326.62
510.92	17308.02
511.126	17502.35
511.333	17623.83
511.54	17742.01
511.746	17711.98
511.953	17836.56
512.16	18093.86
512.367	17938.67
512.573	17826.49
512.78	17672.85
512.987	17603.1
513.193	17389.01
513.4	17180.54
513.606	17365.37
513.813	17392.88
514.02	17147.02
514.226	17217.15
514.433	17282.45
514.639	17102.07
514.846	17197.39
515.052	17092.96
515.259	17301.24
515.465	17362.27
515.672	17441.13
515.878	17508.94
516.085	17703.85
516.291	17569.39
516.497	17513.97
516.704	16969.16
516.91	16520.05
517.117	15883.79
517.323	15445.72
517.529	15288.98
517.736	15242.48
517.942	15544.15
518.148	15906.84
518.354	15959.35
518.561	16044.4
518.767	15846
518.973	16000.42
519.179	16384.82
519.386	16570.04
519.592	16556.09
519.798	16592.51
520.004	17302.6
520.21	17248.73
520.417	17353.94
520.623	17514.56
520.829	17429.89
521.035	17612.79
521.241	17434.15
521.447	17593.41
521.653	17938.28
521.859	17700.55
522.065	17961.14
522.271	18021.98
522.477	17934.79
522.683	18113.23
522.889	17801.11
523.095	17558.54
523.301	17549.62
523.507	17469.8
523.713	17535.09
523.919	17530.44
524.125	18014.23
524.331	18277.73
524.537	18454.62
524.742	18525.14
524.948	18529.6
525.154	18560.6
525.36	18571.25
525.566	18177.36
525.772	18482.52
525.977	18374.99
526.183	18191.7
526.389	18270.17
526.595	17630.22
526.8	17476.39
527.006	16919.36
527.212	16493.51
527.417	16485.95
527.623	16506.88
527.829	16815.9
528.034	17176.47
528.24	17207.66
528.446	17679.24
528.651	18130.48
528.857	18190.35
529.062	18236.65
529.268	18474.77
529.473	18689.63
529.679	18790.57
529.884	18805.11
530.09	18602.83
530.295	18376.73
530.501	18620.46
530.706	18583.07
530.912	18714.43
531.117	18767.13
531.323	18795.03
531.528	19053.1
531.733	19082.75
531.939	18991.49
532.144	18821.57
532.35	18863.23
532.555	18610.97
532.76	18197.32
532.966	18100.25
533.171	17976.64
533.376	17829.78
533.581	17835.01
533.787	18133.77
533.992	18342.24
534.197	18083.01
534.402	18530.95
534.607	18581.52
534.813	18448.22
535.018	18494.14
535.223	18726.83
535.428	18635.58
535.633	18907.6
535.838	19195.31
536.043	19302.26
536.249	19526.81
536.454	19287.54
536.659	19314.85
536.864	19107.55
537.069	18855.87
537.274	18764.42
537.479	18687.7
537.684	18643.52
537.889	18652.63
538.094	19037.41
538.299	18896.75
538.504	19147.46
538.708	19014.74
538.913	19317.37
539.118	19198.22
539.323	19116.07
539.528	18901.98
539.733	18820.22
539.938	18881.64
540.142	18617.17
540.347	18541.22
540.552	18475.54
540.757	18154.5
540.962	18399.4
541.166	18138.03
541.371	18268.43
541.576	18263
541.781	18407.73
541.985	18840.56
542.19	18507.51
542.395	18999.82
542.599	19013.38
542.804	18728.96
543.008	18973.28
543.213	18806.46
543.418	18671.61
543.622	18915.15
543.827	18560.79
544.031	18896.94
544.236	19012.61
544.44	19231.35
544.645	19284.05
544.849	19144.16
545.054	19260.41
545.258	19339.46
545.463	19394.49
545.667	19136.03
545.872	19318.54
546.076	19241.81
546.281	19219.34
546.485	19068.02
546.689	19253.05
546.894	19205.39
547.098	19271.26
547.302	19223.02
547.507	19139.71
547.711	19258.86
547.915	19192.99
548.119	18950.42
548.324	18894.23
548.528	18965.33
548.732	18967.66
548.936	19186.59
549.141	19166.25
549.345	19134.67
549.549	19357.29
549.753	19565.37
549.957	19459.97
550.161	19531.66
550.366	19504.92
550.57	19354.57
550.774	19216.24
550.978	19371.82
551.182	19408.82
551.386	19172.84
551.59	19261.77
551.794	19129.63
551.998	19356.32
552.202	19376.27
552.406	19268.74
552.61	19548.51
552.814	19440.6
553.018	19410.57
553.222	19117.23
553.426	19190.86
553.63	19317.57
553.833	19225.92
554.037	19039.35
554.241	19118.59
554.445	19427.62
554.649	19355.35
554.853	19180.59
555.056	19381.7
555.26	19645.97
555.464	19453.58
555.668	19430.52
555.871	19429.36
556.075	19467.72
556.279	19236.19
556.483	19204.42
556.686	19041.28
556.89	19055.81
557.094	18992.65
557.297	18707.07
557.501	18805.11
557.704	18537.35
557.908	18840.17
558.112	18828.74
558.315	18904.11
558.519	18738.07
558.722	18483.68
558.926	18612.33
559.129	18047.36
559.333	18409.09
559.536	18283.34
559.74	18129.32
559.943	17948.55
560.147	18208.36
560.35	18092.89
560.553	18453.07
560.757	18423.62
560.96	18430.59
561.164	18632.86
561.367	18751.83
561.57	18694.86
561.774	18484.07
561.977	18437.76
562.18	18344.38
562.384	18550.72
562.587	18358.32
562.79	18568.93
562.993	18377.12
563.197	18384.48
563.4	18585.4
563.603	18558.85
563.806	18578.62
564.009	18530.37
564.212	18558.47
564.416	18264.36
564.619	18377.51
564.822	18235.49
565.025	18446.29
565.228	18314.34
565.431	18498.02
565.634	18141.72
565.837	18116.14
566.04	17886.74
566.243	17758.87
566.446	17662.97
566.649	17936.92
566.852	17717.8
567.055	17926.27
567.258	17894.3
567.461	18066.54
567.664	18117.11
567.867	18184.92
568.07	17886.36
568.273	18064.22
568.475	18219.21
568.678	17776.7
568.881	17768.56
569.084	17526.57
569.287	17307.63
569.489	17450.62
569.692	17546.91
569.895	17613.37
570.098	17315.96
570.3	17346
570.503	17364.21
570.706	17308.21
570.909	17188.67
571.111	17017.01
571.314	16868.8
571.516	16877.51
571.719	16997.83
571.922	17051.31
572.124	17153.41
572.327	17323.33
572.529	17195.07
572.732	17413.81
572.935	17447.13
573.137	17765.46
573.34	17402.76
573.542	17619.95
573.745	17548.66
573.947	17506.03
574.15	17478.13
574.352	17424.08
574.554	17658.7
574.757	17394.82
574.959	17102.46
575.162	17364.79
575.364	17046.66
575.566	17241.18
575.769	17004.42
575.971	17150.5
576.173	16645.79
576.376	16957.92
576.578	17154.38
576.78	17044.72
576.982	17013.33
577.185	17107.11
577.387	16999.58
577.589	17212.5
577.791	17029.03
577.993	17079.59
578.196	17120.86
578.398	16895.73
578.6	16787.81
578.802	16759.72
579.004	16659.55
579.206	16850.58
579.408	17070.68
579.61	16819
579.812	17207.27
580.014	16926.15
580.216	17047.82
580.418	17306.28
580.62	17239.43
580.822	17257.07
581.024	17321
581.226	17371.96
581.428	17353.94
581.63	17682.15
581.832	17383.58
582.034	17636.42
582.236	17597.48
582.438	17690.48
582.64	17838.11
582.841	17847.99
583.043	18071.19
583.245	17766.23
583.447	17902.83
583.649	17962.69
583.85	17957.07
584.052	17912.51
584.254	17829.59
584.456	17848.77
584.657	17798.2
584.859	18060.54
585.061	17730.39
585.262	17735.62
585.464	17665.1
585.666	17649.21
585.867	17514.75
586.069	17513.2
586.27	17424.46
586.472	17447.33
586.674	17374.67
586.875	17516.69
587.077	17470.77
587.278	17461.08
587.48	17428.53
587.681	17703.65
587.883	17550.21
588.084	17319.06
588.285	17327.78
588.487	16959.08
588.688	17027.09
588.89	16451.27
589.091	16019.02
589.292	15731.89
589.494	15296.92
589.695	15082.64
589.896	14872.62
590.098	15076.05
590.299	15051.83
590.5	15315.72
590.702	15650.9
590.903	15911.68
591.104	16067.65
591.305	16261.59
591.507	16331.15
591.708	16296.47
591.909	16300.15
592.11	16246.48
592.311	16349.94
592.512	16260.62
592.714	16193.39
592.915	16387.33
593.116	16226.52
593.317	16495.25
593.518	16543.3
593.719	16573.33
593.92	16539.43
594.121	16569.07
594.322	16486.15
594.523	16431.7
594.724	16152.51
594.925	16198.24
595.126	16096.33
595.327	16070.95
595.528	16255.2
595.729	16264.3
595.929	16330.76
596.13	16416.4
596.331	16624.48
596.532	16453.6
596.733	16747.12
596.934	16712.64
597.135	16692.87
597.335	16628.36
597.536	16533.23
597.737	16592.13
597.938	16517.53
598.138	16555.31
598.339	16616.15
598.54	16605.11
598.74	16303.05
598.941	16407.29
599.142	16673.5
599.342	16618.86
599.543	16558.22
599.744	16631.46
