Data from gum_old_FLMT105791__98__15-44-26-256.txt Node

Date: Mon Mar 20 15:44:26 GMT 2023
User: antho
Spectrometer: FLMT10579
Trigger mode: 0
Integration Time (sec): 1.000000E-1
Scans to average: 10
Electric dark correction enabled: true
Nonlinearity correction enabled: false
Boxcar width: 0
XAxis mode: Wavelengths
Number of Pixels in Spectrum: 3648
>>>>>Begin Spectral Data<<<<<
345.248	-167.62
345.464	-167.62
345.681	-167.62
345.898	-164.91
346.114	-186.22
346.331	-23.28
346.548	38.91
346.764	8.88
346.981	-2.36
347.197	7.14
347.414	13.72
347.631	-41.49
347.847	42.59
348.064	-5.65
348.28	17.6
348.497	-42.85
348.713	-13.21
348.93	25.35
349.146	36.39
349.363	17.6
349.579	31.16
349.796	17.6
350.012	18.76
350.229	43.95
350.445	41.82
350.661	-5.07
350.878	21.28
351.094	44.92
351.311	34.26
351.527	46.47
351.743	-16.11
351.96	62.55
352.176	51.5
352.392	64.49
352.609	43.37
352.825	10.24
353.041	29.03
353.257	29.42
353.474	29.03
353.69	16.82
353.906	42.2
354.122	17.4
354.339	90.45
354.555	10.04
354.771	38.52
354.987	100.91
355.203	82.12
355.42	28.25
355.636	2.68
355.852	24.57
356.068	21.28
356.284	-0.23
356.5	68.17
356.716	35.04
356.932	27.67
357.148	40.07
357.364	32.52
357.58	66.62
357.796	72.82
358.012	103.62
358.228	34.07
358.444	-28.71
358.66	89.29
358.876	32.32
359.092	4.42
359.308	27.67
359.524	58.87
359.74	7.91
359.956	11.4
360.172	37.94
360.388	50.73
360.604	37.94
360.819	109.82
361.035	50.34
361.251	85.6
361.467	12.37
361.683	80.76
361.898	68.94
362.114	84.44
362.33	73.98
362.546	87.93
362.762	25.93
362.977	54.02
363.193	13.34
363.409	79.99
363.624	-0.81
363.84	23.6
364.056	28.84
364.271	58.09
364.487	72.24
364.703	44.72
364.918	7.14
365.134	38.33
365.35	60.03
365.565	148.38
365.781	85.8
365.996	83.47
366.212	118.15
366.427	70.1
366.643	73.01
366.858	42.01
367.074	27.87
367.289	81.92
367.505	170.27
367.72	13.92
367.936	41.43
368.151	132.88
368.367	101.88
368.582	65.84
368.798	40.85
369.013	131.52
369.228	58.87
369.444	95.1
369.659	108.08
369.874	100.33
370.09	97.62
370.305	31.35
370.52	36.39
370.736	99.55
370.951	80.76
371.166	117.38
371.381	126.87
371.597	103.04
371.812	48.6
372.027	72.24
372.242	74.56
372.458	129.97
372.673	65.45
372.888	56.15
373.103	89.29
373.318	174.15
373.533	89.48
373.749	84.05
373.964	23.8
374.179	110.98
374.394	38.72
374.609	137.72
374.824	24.38
375.039	106.33
375.254	33.87
375.469	121.45
375.684	64.68
375.899	110.6
376.114	60.42
376.329	117.38
376.544	111.95
376.759	119.9
376.974	44.14
377.189	40.85
377.404	92.97
377.619	115.05
377.834	47.05
378.049	64.68
378.264	53.64
378.478	95.29
378.693	85.8
378.908	103.43
379.123	89.29
379.338	156.32
379.553	103.82
379.767	95.68
379.982	108.27
380.197	104.98
380.412	58.87
380.626	103.62
380.841	163.1
381.056	127.26
381.271	161.94
381.485	55.77
381.7	51.7
381.915	112.34
382.129	87.93
382.344	88.12
382.559	78.44
382.773	114.47
382.988	26.32
383.202	99.17
383.417	49.57
383.632	175.12
383.846	84.83
384.061	85.8
384.275	57.9
384.49	100.72
384.704	122.61
384.919	108.66
385.133	112.15
385.348	124.93
385.562	53.25
385.777	153.03
385.991	122.03
386.206	106.33
386.42	73.4
386.634	152.83
386.849	115.25
387.063	132.3
387.277	79.4
387.492	103.82
387.706	82.5
387.92	98
388.135	130.94
388.349	131.91
388.563	116.41
388.778	138.3
388.992	126.68
389.206	135.4
389.42	183.06
389.635	128.42
389.849	159.62
390.063	183.06
390.277	135.01
390.491	215.8
390.706	157.29
390.92	168.72
391.134	153.42
391.348	168.92
391.562	114.86
391.776	171.05
391.99	130.17
392.205	162.33
392.419	126.68
392.633	163.68
392.847	183.83
393.061	108.08
393.275	202.63
393.489	130.36
393.703	101.88
393.917	123.77
394.131	58.09
394.345	133.65
394.559	138.3
394.773	145.47
394.986	164.85
395.2	168.72
395.414	199.14
395.628	142.76
395.842	177.25
396.056	149.35
396.27	116.02
396.484	211.15
396.697	154.77
396.911	191.78
397.125	127.84
397.339	141.79
397.553	135.59
397.766	188.87
397.98	205.34
398.194	186.55
398.408	151.67
398.621	218.13
398.835	220.84
399.049	237.31
399.262	271.6
399.476	262.3
399.69	281.68
399.903	316.16
400.117	253
400.331	262.88
400.544	213.28
400.758	383.97
400.971	290.78
401.185	325.46
401.398	236.53
401.612	306.48
401.826	277.99
402.039	306.09
402.253	247
402.466	313.06
402.68	277.61
402.893	314.23
403.106	304.73
403.32	286.91
403.533	291.36
403.747	291.17
403.96	301.24
404.174	289.23
404.387	239.83
404.6	296.59
404.814	326.43
405.027	278.19
405.24	298.34
405.454	283.03
405.667	332.63
405.88	243.7
406.094	315.78
406.307	340.58
406.52	289.04
406.733	262.69
406.947	230.53
407.16	361.5
407.373	350.26
407.586	259.2
407.799	281.29
408.012	346.97
408.226	294.27
408.439	343.87
408.652	291.17
408.865	318.88
409.078	368.09
409.291	355.11
409.504	293.88
409.717	352.01
409.93	375.06
410.143	335.34
410.357	273.93
410.57	262.11
410.783	293.3
410.996	313.84
411.209	330.31
411.421	401.22
411.634	349.68
411.847	306.28
412.06	367.12
412.273	357.82
412.486	358.98
412.699	467.67
412.912	374.29
413.125	408.77
413.338	374.87
413.55	399.86
413.763	359.56
413.976	366.73
414.189	339.8
414.402	362.28
414.615	428.92
414.827	343.09
415.04	398.31
415.253	394.44
415.466	417.3
415.678	473.68
415.891	404.32
416.104	370.8
416.316	399.09
416.529	398.12
416.742	424.86
416.954	453.53
417.167	410.91
417.38	382.81
417.592	431.64
417.805	364.6
418.017	349.49
418.23	411.68
418.442	359.76
418.655	406.26
418.868	374.48
419.08	425.24
419.293	417.69
419.505	418.46
419.718	416.33
419.93	407.42
420.142	398.31
420.355	437.06
420.567	438.22
420.78	418.66
420.992	412.65
421.205	462.44
421.417	392.5
421.629	428.54
421.842	406.26
422.054	379.32
422.266	434.35
422.479	447.14
422.691	394.24
422.903	418.07
423.115	406.06
423.328	384.36
423.54	397.34
423.752	438.81
423.964	416.14
424.177	427.37
424.389	434.54
424.601	522.31
424.813	432.61
425.025	436.29
425.238	452.56
425.45	416.91
425.662	420.21
425.874	749.38
426.086	428.15
426.298	434.93
426.51	437.26
426.722	419.43
426.934	431.83
427.146	476.59
427.358	399.86
427.57	468.64
427.782	426.02
427.994	409.94
428.206	400.64
428.418	404.51
428.63	463.6
428.842	506.04
429.054	427.18
429.266	500.03
429.478	410.71
429.69	443.26
429.902	384.17
430.114	479.3
430.325	426.21
430.537	387.27
430.749	354.33
430.961	284.97
431.173	363.05
431.384	379.32
431.596	312.48
431.808	363.05
432.02	429.7
432.231	513.98
432.443	536.26
432.655	527.15
432.867	489.37
433.078	524.64
433.29	561.06
433.502	531.8
433.713	556.8
433.925	560.48
434.136	553.89
434.348	443.26
434.56	434.93
434.771	544.2
434.983	440.74
435.194	501.58
435.406	503.71
435.617	580.82
435.829	626.16
436.04	573.85
436.252	608.14
436.463	610.47
436.675	620.93
436.886	562.8
437.098	631.39
437.309	643.6
437.521	590.9
437.732	551.18
437.943	579.27
438.155	578.88
438.366	529.48
438.578	621.12
438.789	550.4
439	550.79
439.211	538.78
439.423	542.65
439.634	571.91
439.845	607.37
440.057	589.73
440.268	629.65
440.479	554.86
440.69	640.3
440.902	565.32
441.113	592.83
441.324	551.76
441.535	622.48
441.746	664.33
441.957	565.32
442.168	630.03
442.38	651.54
442.591	664.71
442.802	616.28
443.013	660.84
443.224	667.81
443.435	646.31
443.646	649.99
443.857	674.21
444.068	649.6
444.279	627.71
444.49	724.39
444.701	664.91
444.912	786.39
445.123	697.85
445.334	702.88
445.545	675.95
445.756	687.58
445.967	640.88
446.178	664.13
446.388	699.01
446.599	682.54
446.81	702.5
447.021	644.95
447.232	713.35
447.443	746.67
447.653	678.66
447.864	736.4
448.075	724.58
448.286	744.15
448.496	728.84
448.707	779.99
448.918	692.81
449.129	775.73
449.339	690.87
449.55	749.38
449.761	697.85
449.971	773.6
450.182	720.13
450.393	751.32
450.603	732.91
450.814	819.13
451.024	798.59
451.235	795.11
451.446	811.57
451.656	810.61
451.867	738.53
452.077	773.6
452.288	828.24
452.498	798.21
452.709	734.46
452.919	770.5
453.13	696.68
453.34	756.16
453.55	693.97
453.761	724
453.971	759.26
454.182	782.13
454.392	727.49
454.602	833.08
454.813	804.79
455.023	786.39
455.233	708.11
455.444	751.71
455.654	712.38
455.864	740.08
456.075	748.99
456.285	748.41
456.495	759.65
456.705	802.66
456.916	834.24
457.126	853.81
457.336	822.04
457.546	708.5
457.756	775.54
457.967	813.12
458.177	773.79
458.387	800.53
458.597	766.63
458.807	778.44
459.017	749.19
459.227	767.98
459.437	757.91
459.647	859.24
459.857	831.14
460.068	789.88
460.278	841.02
460.488	824.17
460.698	873.19
460.908	800.73
461.117	764.88
461.327	795.11
461.537	833.47
461.747	866.6
461.957	829.4
462.167	964.44
462.377	889.07
462.587	854.59
462.797	877.26
463.007	855.17
463.216	877.06
463.426	944.49
463.636	898.18
463.846	791.23
464.056	845.29
464.265	889.85
464.475	819.71
464.685	861.76
464.895	880.94
465.104	826.3
465.314	881.71
465.524	871.25
465.733	797.24
465.943	911.35
466.153	948.55
466.362	923.75
466.572	900.12
466.782	870.47
466.991	897.6
467.201	917.75
467.41	781.74
467.62	886.56
467.829	898.37
468.039	880.74
468.249	875.51
468.458	955.14
468.668	906.12
468.877	960.18
469.086	960.95
469.296	957.47
469.505	874.35
469.715	983.62
469.924	943.52
470.134	988.66
470.343	973.16
470.552	912.13
470.762	910.19
470.971	897.4
471.18	951.85
471.39	909.42
471.599	876.87
471.808	977.62
472.018	927.05
472.227	1036.9
472.436	1024.31
472.645	1004.35
472.855	977.62
473.064	1079.14
473.273	1077.2
473.482	1037.29
473.691	1038.26
473.901	1058.99
474.11	1026.44
474.319	1168.65
474.528	1044.07
474.737	1157.99
474.946	1106.07
475.155	1118.47
475.364	1133.78
475.573	1123.7
475.783	1107.43
475.992	1147.53
476.201	1169.62
476.41	1127.58
476.619	1097.74
476.828	1124.28
477.037	1099.29
477.245	1123.31
477.454	1162.26
477.663	1144.24
477.872	1179.69
478.081	1273.86
478.29	1143.46
478.499	1304.08
478.708	1283.16
478.917	1330.24
479.125	1225.23
479.334	1258.16
479.543	1234.53
479.752	1254.87
479.961	1274.05
480.169	1317.84
480.378	1243.05
480.587	1417.81
480.796	1312.8
481.004	1318.03
481.213	1337.6
481.422	1326.94
481.63	1341.67
481.839	1347.87
482.048	1388.94
482.256	1383.13
482.465	1406.57
482.674	1395.14
482.882	1418.78
483.091	1488.92
483.299	1395.92
483.508	1430.4
483.716	1416.65
483.925	1428.66
484.134	1397.85
484.342	1412.77
484.551	1490.85
484.759	1420.72
484.967	1457.33
485.176	1466.05
485.384	1471.09
485.593	1477.1
485.801	1424.2
486.01	1373.64
486.218	1319.58
486.426	1290.71
486.635	1235.88
486.843	1257.19
487.051	1290.71
487.26	1247.12
487.468	1340.12
487.676	1413.93
487.885	1369.18
488.093	1424.98
488.301	1484.07
488.509	1476.71
488.717	1543.94
488.926	1480
489.134	1498.02
489.342	1509.84
489.55	1443.19
489.758	1507.13
489.967	1535.03
490.175	1631.51
490.383	1605.94
490.591	1689.83
490.799	1578.62
491.007	1655.73
491.215	1612.33
491.423	1620.66
491.631	1604.39
491.839	1597.03
492.047	1616.01
492.255	1557.11
492.463	1523.4
492.671	1536.19
492.879	1624.15
493.087	1589.47
493.295	1599.74
493.503	1642.17
493.711	1679.95
493.919	1707.46
494.127	1679.17
494.334	1675.11
494.542	1619.89
494.75	1655.93
494.958	1661.74
495.166	1733.23
495.374	1727.42
495.581	1755.71
495.789	1705.91
495.997	1764.62
496.205	1674.33
496.412	1656.89
496.62	1698.16
496.828	1695.06
497.035	1702.81
497.243	1732.65
497.451	1734.2
497.658	1767.72
497.866	1701.26
498.074	1776.63
498.281	1714.24
498.489	1783.41
498.696	1708.43
498.904	1718.51
499.112	1678.4
499.319	1794.26
499.527	1732.07
499.734	1771.2
499.942	1693.71
500.149	1713.47
500.357	1757.64
500.564	1717.15
500.771	1745.82
500.979	1705.72
501.186	1674.72
501.394	1705.33
501.601	1688.28
501.808	1731.1
502.016	1678.4
502.223	1662.32
502.43	1731.1
502.638	1729.74
502.845	1711.34
503.052	1808.6
503.26	1730.32
503.467	1869.82
503.674	1769.07
503.881	1814.99
504.089	1891.13
504.296	1824.68
504.503	1731.68
504.71	1756.67
504.917	1697
505.125	1791.35
505.332	1801.43
505.539	1791.55
505.746	1888.23
505.953	1904.5
506.16	1852.77
506.367	1932.02
506.574	1941.7
506.781	1927.17
506.988	1851.22
507.195	1899.85
507.402	1852.19
507.609	1891.91
507.816	1860.72
508.023	1848.51
508.23	1829.52
508.437	1787.87
508.644	1861.68
508.851	1876.22
509.058	1846.19
509.265	1885.32
509.472	1873.89
509.679	1960.88
509.885	1920
510.092	1917.87
510.299	1911.67
510.506	1882.22
510.713	1916.71
510.92	1876.02
511.126	1933.76
511.333	1986.46
511.54	1966.11
511.746	1963.98
511.953	2033.54
512.16	1992.66
512.367	1991.88
512.573	1940.15
512.78	1965.53
512.987	1915.16
513.193	1975.61
513.4	1838.24
513.606	1925.04
513.813	1959.33
514.02	1924.85
514.226	1970.57
514.433	1961.85
514.639	1879.32
514.846	1920.97
515.052	1885.9
515.259	1941.12
515.465	1945.38
515.672	1921.36
515.878	2055.04
516.085	1977.74
516.291	2011.26
516.497	1958.36
516.704	1918.84
516.91	1857.03
517.117	1803.17
517.323	1719.47
517.529	1732.65
517.736	1734.01
517.942	1726.26
518.148	1791.35
518.354	1848.51
518.561	1857.23
518.767	1835.14
518.973	1889.39
519.179	1878.15
519.386	1853.55
519.592	1838.82
519.798	1857.23
520.004	2026.76
520.21	1991.69
520.417	2020.56
520.623	2038.58
520.829	2059.31
521.035	2053.69
521.241	2075.58
521.447	2081.01
521.653	2157.92
521.859	2037.8
522.065	2104.64
522.271	2214.11
522.477	2123.82
522.683	2188.54
522.889	2146.69
523.095	2101.16
523.301	2149.98
523.507	2102.13
523.713	2100.38
523.919	2075
524.125	2155.21
524.331	2210.04
524.537	2279.02
524.742	2281.54
524.948	2265.26
525.154	2271.07
525.36	2352.45
525.566	2219.15
525.772	2297.81
525.977	2232.13
526.183	2278.24
526.389	2264.49
526.595	2199.19
526.8	2187.57
527.006	2125.96
527.212	2065.7
527.417	2043.42
527.623	2044
527.829	2125.37
528.034	2139.52
528.24	2147.66
528.446	2133.51
528.651	2266.23
528.857	2283.67
529.062	2333.07
529.268	2329.78
529.473	2313.31
529.679	2336.17
529.884	2428.59
530.09	2408.05
530.295	2435.56
530.501	2419.87
530.706	2378.8
530.912	2335.59
531.117	2368.53
531.323	2388.68
531.528	2474.89
531.733	2477.99
531.939	2397.98
532.144	2476.83
532.35	2467.73
532.555	2501.44
532.76	2402.82
532.966	2407.28
533.171	2377.44
533.376	2320.48
533.581	2334.43
533.787	2358.07
533.992	2430.33
534.197	2420.84
534.402	2412.7
534.607	2440.02
534.813	2507.83
535.018	2443.51
535.223	2435.37
535.428	2513.45
535.633	2507.06
535.838	2509.77
536.043	2498.14
536.249	2643.45
536.454	2503.76
536.659	2593.66
536.864	2514.81
537.069	2517.33
537.274	2495.63
537.479	2518.49
537.684	2493.3
537.889	2429.95
538.094	2590.95
538.299	2497.95
538.504	2559.76
538.708	2535.15
538.913	2586.69
539.118	2554.91
539.323	2505.12
539.528	2483.42
539.733	2504.54
539.938	2520.23
540.142	2494.46
540.347	2497.95
540.552	2492.33
540.757	2464.24
540.962	2478.38
541.166	2412.9
541.371	2387.9
541.576	2480.9
541.781	2315.44
541.985	2491.56
542.19	2485.55
542.395	2602.77
542.599	2633.57
542.804	2564.6
543.008	2601.8
543.213	2527.01
543.418	2501.05
543.622	2576.42
543.827	2466.37
544.031	2627.57
544.236	2606.06
544.44	2586.3
544.645	2638.03
544.849	2584.36
545.054	2608.77
545.258	2671.16
545.463	2628.73
545.667	2540.96
545.872	2635.51
546.076	2616.33
546.281	2550.46
546.485	2581.84
546.689	2593.27
546.894	2674.07
547.098	2619.43
547.302	2585.14
547.507	2592.69
547.711	2614.59
547.915	2676.97
548.119	2584.56
548.324	2571.77
548.528	2630.67
548.732	2565.96
548.936	2651.2
549.141	2631.25
549.345	2586.69
549.549	2642.1
549.753	2665.15
549.957	2713.2
550.161	2713.4
550.366	2626.6
550.57	2591.34
550.774	2665.15
550.978	2629.12
551.182	2672.52
551.386	2590.95
551.59	2594.82
551.794	2608.39
551.998	2627.76
552.202	2638.42
552.406	2595.99
552.61	2676.2
552.814	2634.93
553.018	2671.74
553.222	2604.9
553.426	2626.21
553.63	2679.1
553.833	2599.28
554.037	2570.61
554.241	2588.82
554.445	2657.4
554.649	2610.71
554.853	2602.77
555.056	2675.62
555.26	2668.25
555.464	2633.38
555.668	2636.87
555.871	2659.73
556.075	2675.23
556.279	2629.12
556.483	2561.11
556.686	2602.77
556.89	2604.51
557.094	2589.4
557.297	2525.85
557.501	2639.97
557.704	2524.69
557.908	2616.33
558.112	2542.13
558.315	2589.98
558.519	2535.34
558.722	2540.19
558.926	2522.36
559.129	2476.06
559.333	2413.86
559.536	2442.54
559.74	2407.47
559.943	2413.48
560.147	2454.94
560.35	2445.64
560.553	2478.58
560.757	2425.1
560.96	2527.21
561.164	2459.59
561.367	2557.04
561.57	2516.16
561.774	2509.77
561.977	2490.01
562.18	2431.3
562.384	2546.97
562.587	2451.65
562.79	2472.96
562.993	2445.25
563.197	2470.05
563.4	2526.04
563.603	2574.67
563.806	2581.65
564.009	2461.91
564.212	2513.84
564.416	2407.28
564.619	2450.29
564.822	2383.06
565.025	2469.66
565.228	2422.78
565.431	2478.38
565.634	2372.4
565.837	2375.31
566.04	2381.51
566.243	2343.15
566.446	2259.25
566.649	2403.79
566.852	2284.83
567.055	2344.89
567.258	2357.1
567.461	2426.85
567.664	2409.41
567.867	2339.47
568.07	2373.18
568.273	2401.46
568.475	2400.11
568.678	2339.47
568.881	2341.79
569.084	2326.68
569.287	2184.66
569.489	2270.1
569.692	2333.65
569.895	2360.78
570.098	2220.5
570.3	2216.05
570.503	2187.96
570.706	2199.39
570.909	2224.96
571.111	2170.32
571.314	2128.86
571.516	2153.08
571.719	2182.34
571.922	2148.62
572.124	2184.66
572.327	2210.62
572.529	2152.11
572.732	2151.34
572.935	2205.97
573.137	2298.78
573.34	2199.97
573.542	2250.92
573.745	2210.62
573.947	2208.49
574.15	2187.96
574.352	2141.26
574.554	2249.95
574.757	2135.06
574.959	2144.94
575.162	2166.84
575.364	2130.99
575.566	2195.9
575.769	2120.53
575.971	2175.36
576.173	2031.79
576.376	2119.37
576.578	2182.72
576.78	2194.54
576.982	2087.98
577.185	2082.56
577.387	2107.36
577.589	2117.62
577.791	2157.92
577.993	2160.44
578.196	2082.36
578.398	2113.56
578.6	2111.81
578.802	1995.76
579.004	2003.9
579.206	2061.44
579.408	2082.75
579.61	2041.68
579.812	2073.06
580.014	2024.63
580.216	2038.96
580.418	2025.4
580.62	2038.96
580.822	2006.22
581.024	2082.94
581.226	2097.67
581.428	2037.61
581.63	2128.09
581.832	2030.63
582.034	2137
582.236	2039.74
582.438	2098.44
582.64	2122.47
582.841	2139.32
583.043	2188.15
583.245	2063.38
583.447	2094.96
583.649	2081.78
583.85	2109.88
584.052	2085.46
584.254	2010.48
584.456	2108.91
584.657	2021.33
584.859	2067.06
585.061	2038.77
585.262	2026.18
585.464	1955.65
585.666	2068.41
585.867	1978.32
586.069	2069.96
586.27	2011.65
586.472	1991.3
586.674	1955.07
586.875	1946.16
587.077	1967.28
587.278	1981.03
587.48	1938.99
587.681	2063.76
587.883	1996.34
588.084	1905.67
588.285	1972.12
588.487	1915.35
588.688	1957.78
588.89	1832.04
589.091	1819.64
589.292	1883.77
589.494	1778.37
589.695	1779.34
589.896	1686.34
590.098	1679.37
590.299	1752.61
590.5	1734.2
590.702	1773.53
590.903	1811.89
591.104	1888.62
591.305	1875.25
591.507	1917.87
591.708	1889.97
591.909	1834.75
592.11	1924.46
592.311	1892.88
592.512	1846.19
592.714	1794.45
592.915	1839.6
593.116	1846.38
593.317	1874.67
593.518	1812.47
593.719	1885.32
593.92	1885.52
594.121	1893.07
594.322	1908.38
594.523	1879.32
594.724	1839.6
594.925	1845.6
595.126	1885.71
595.327	1856.65
595.528	1860.33
595.729	1843.67
595.929	1801.43
596.13	1796
596.331	1856.84
596.532	1855.87
596.733	1949.06
596.934	1918.45
597.135	1915.74
597.335	1850.25
597.536	1834.37
597.737	1861.68
597.938	1808.99
598.138	1897.14
598.339	1823.71
598.54	1849.29
598.74	1812.28
598.941	1804.34
599.142	1870.6
599.342	1830.69
599.543	1776.24
599.744	1821
599.944	1795.81
600.145	1815.38
600.345	1809.18
600.546	1873.31
600.746	1860.91
600.947	1878.54
601.147	1812.09
601.348	1900.43
601.548	1802.59
601.749	1822.16
601.949	1740.01
602.15	1778.95
602.35	1783.6
602.551	1817.9
602.751	1727.61
602.951	1772.95
603.152	1703.97
603.352	1824.49
603.552	1784.19
603.753	1818.09
603.953	1826.62
604.153	1792.71
604.354	1794.65
604.554	1802.01
604.754	1804.53
604.954	1740.79
605.155	1791.35
605.355	1808.99
605.555	1823.71
605.755	1812.86
605.955	1809.37
606.155	1812.86
606.356	1828.75
606.556	1836.11
606.756	1804.92
606.956	1748.15
607.156	1828.17
607.356	1721.61
607.556	1807.82
607.756	1763.26
607.956	1829.52
608.156	1801.04
608.356	1720.44
608.556	1834.95
608.756	1757.64
608.956	1733.23
609.156	1749.51
609.356	1734.59
609.556	1712.69
609.755	1740.21
609.955	1683.44
610.155	1711.14
610.355	1728.77
610.555	1705.52
610.755	1744.27
610.954	1668.71
611.154	1715.02
611.354	1769.07
611.554	1695.64
611.753	1719.09
611.953	1641.98
612.153	1701.07
612.352	1716.18
612.552	1664.64
612.752	1616.21
612.951	1655.15
613.151	1717.92
613.351	1650.5
613.55	1641.01
613.75	1682.08
613.949	1648.95
614.149	1703.2
