Data from gum_old_FLMT105791__64__15-43-52-257.txt Node

Date: Mon Mar 20 15:43:52 GMT 2023
User: antho
Spectrometer: FLMT10579
Trigger mode: 0
Integration Time (sec): 1.000000E-1
Scans to average: 10
Electric dark correction enabled: true
Nonlinearity correction enabled: false
Boxcar width: 0
XAxis mode: Wavelengths
Number of Pixels in Spectrum: 3648
>>>>>Begin Spectral Data<<<<<
345.248	-185.87
345.464	-185.87
345.681	-185.87
345.898	-165.72
346.114	-198.66
346.331	-39.01
346.548	27.45
346.764	-14.6
346.981	-16.92
347.197	-9.95
347.414	-2.78
347.631	11.56
347.847	61.55
348.064	19.31
348.28	25.51
348.497	-46.37
348.713	-15.76
348.93	29.19
349.146	20.86
349.363	7.88
349.579	23.77
349.796	9.24
350.012	-21.96
350.229	31.9
350.445	26.09
350.661	-4.13
350.878	15.24
351.094	50.89
351.311	43.33
351.527	42.75
351.743	-2.97
351.96	46.82
352.176	73.17
352.392	58.06
352.609	48.76
352.825	12.53
353.041	24.15
353.257	21.25
353.474	15.44
353.69	39.46
353.906	23.57
354.122	-3.36
354.339	82.67
354.555	30.74
354.771	20.67
354.987	89.64
355.203	81.7
355.42	9.43
355.636	0.13
355.852	5.17
356.068	17.37
356.284	-17.7
356.5	79.57
356.716	19.5
356.932	13.89
357.148	65.81
357.364	11.37
357.58	56.51
357.796	107.27
358.012	68.33
358.228	42.95
358.444	-26.03
358.66	72.98
358.876	33.65
359.092	7.3
359.308	51.47
359.524	49.34
359.74	34.62
359.956	26.29
360.172	25.7
360.388	68.33
360.604	20.86
360.819	109.21
361.035	37.72
361.251	70.27
361.467	14.27
361.683	60.38
361.898	59.61
362.114	86.15
362.33	52.05
362.546	62.9
362.762	43.53
362.977	35.39
363.193	9.82
363.409	89.64
363.624	9.43
363.84	41.98
364.056	19.7
364.271	64.65
364.487	48.37
364.703	31.9
364.918	27.25
365.134	43.53
365.35	4
365.565	127.03
365.781	72.98
365.996	87.9
366.212	108.24
366.427	68.52
366.643	22.41
366.858	54.96
367.074	40.23
367.289	119.67
367.505	160.94
367.72	9.82
367.936	37.33
368.151	88.87
368.367	72.2
368.582	59.03
368.798	27.84
369.013	81.31
369.228	62.32
369.444	58.45
369.659	106.88
369.874	52.63
370.09	115.99
370.305	18.15
370.52	37.72
370.736	122.77
370.951	66.58
371.166	116.57
371.381	132.26
371.597	67.36
371.812	31.13
372.027	47.4
372.242	47.6
372.458	137.88
372.673	52.25
372.888	55.93
373.103	68.33
373.318	133.81
373.533	87.12
373.749	81.7
373.964	-0.06
374.179	84.99
374.394	42.37
374.609	62.9
374.824	18.15
375.039	109.02
375.254	29.38
375.469	96.81
375.684	52.44
375.899	78.6
376.114	58.06
376.329	76.08
376.544	96.81
376.759	112.12
376.974	34.62
377.189	63.48
377.404	53.02
377.619	103.4
377.834	22.02
378.049	30.93
378.264	56.51
378.478	82.08
378.693	58.45
378.908	91.77
379.123	62.71
379.338	128.58
379.553	83.63
379.767	69.88
379.982	118.51
380.197	98.55
380.412	86.93
380.626	82.28
380.841	155.51
381.056	69.1
381.271	137.3
381.485	59.61
381.7	38.1
381.915	122.19
382.129	66.58
382.344	95.65
382.559	83.44
382.773	105.92
382.988	10.98
383.202	98.55
383.417	23.77
383.632	174.11
383.846	43.92
384.061	88.87
384.275	74.53
384.49	85.96
384.704	109.79
384.919	105.33
385.133	86.15
385.348	94.87
385.562	71.04
385.777	152.41
385.991	71.43
386.206	100.68
386.42	85.38
386.634	138.08
386.849	131.1
387.063	99.13
387.277	75.3
387.492	100.68
387.706	59.22
387.92	97.39
388.135	122.96
388.349	106.3
388.563	107.47
388.778	109.79
388.992	105.14
389.206	136.72
389.42	182.25
389.635	109.21
389.849	158.42
390.063	180.51
390.277	145.63
390.491	193.88
390.706	149.9
390.92	146.8
391.134	131.88
391.348	134.98
391.562	84.02
391.776	158.03
391.99	124.51
392.205	190.97
392.419	116.38
392.633	133.43
392.847	193.68
393.061	114.63
393.275	173.73
393.489	107.08
393.703	92.74
393.917	129.75
394.131	62.13
394.345	136.33
394.559	140.01
394.773	98.75
394.986	169.46
395.2	139.05
395.414	188.06
395.628	144.28
395.842	164.43
396.056	146.41
396.27	95.07
396.484	160.36
396.697	163.26
396.911	166.36
397.125	98.36
397.339	141.18
397.553	129.16
397.766	180.9
397.98	180.7
398.194	208.02
398.408	156.1
398.621	224.68
398.835	227.59
399.049	216.93
399.262	243.67
399.476	248.32
399.69	235.92
399.903	274.67
400.117	202.98
400.331	245.8
400.544	216.16
400.758	335.51
400.971	236.11
401.185	287.84
401.398	228.56
401.612	283
401.826	296.17
402.039	279.13
402.253	260.14
402.466	270.6
402.68	258.59
402.893	283.58
403.106	262.46
403.32	264.59
403.533	292.11
403.747	289.59
403.96	262.46
404.174	274.28
404.387	237.28
404.6	279.13
404.814	310.51
405.027	281.64
405.24	283.39
405.454	262.08
405.667	305.47
405.88	237.28
406.094	289.98
406.307	341.9
406.52	296.76
406.733	264.98
406.947	230.69
407.16	351.2
407.373	332.99
407.586	272.34
407.799	242.31
408.012	330.86
408.226	311.29
408.439	328.72
408.652	245.61
408.865	323.69
409.078	355.46
409.291	334.15
409.504	267.69
409.717	309.54
409.93	358.95
410.143	318.65
410.357	256.84
410.57	252.39
410.783	267.5
410.996	293.46
411.209	299.86
411.421	356.82
411.634	317.87
411.847	299.47
412.06	345.97
412.273	336.67
412.486	332.6
412.699	439.35
412.912	333.57
413.125	366.7
413.338	361.27
413.55	395.76
413.763	319.42
413.976	337.44
414.189	339.38
414.402	366.89
414.615	431.8
414.827	319.62
415.04	410.87
415.253	399.25
415.466	389.56
415.678	430.44
415.891	363.41
416.104	385.1
416.316	350.42
416.529	332.99
416.742	408.16
416.954	428.89
417.167	373.09
417.38	372.12
417.592	413.97
417.805	359.72
418.017	309.93
418.23	395.95
418.442	360.89
418.655	358.37
418.868	377.74
419.08	395.18
419.293	392.08
419.505	394.99
419.718	404.09
419.93	419.01
420.142	378.13
420.355	411.07
420.567	401.38
420.78	407.58
420.992	407.97
421.205	473.45
421.417	387.04
421.629	399.83
421.842	405.64
422.054	398.47
422.266	421.92
422.479	472.29
422.691	387.04
422.903	444.78
423.115	374.45
423.328	363.99
423.54	401.57
423.752	389.75
423.964	397.7
424.177	414.55
424.389	388.01
424.601	531.58
424.813	414.17
425.025	474.42
425.238	456.79
425.45	401.57
425.662	413.59
425.874	740.24
426.086	436.84
426.298	427.15
426.51	457.76
426.722	413.39
426.934	425.99
427.146	437.61
427.358	412.62
427.57	457.37
427.782	410.68
427.994	407.58
428.206	406.8
428.418	407.19
428.63	505.03
428.842	489.73
429.054	453.3
429.266	466.48
429.478	398.47
429.69	428.7
429.902	347.32
430.114	445.17
430.325	423.66
430.537	385.49
430.749	372.12
430.961	310.51
431.173	309.35
431.384	368.06
431.596	286.49
431.808	400.41
432.02	440.71
432.231	479.46
432.443	523.05
432.655	490.31
432.867	475.78
433.078	485.27
433.29	556.38
433.502	508.52
433.713	535.65
433.925	521.5
434.136	509.88
434.348	454.47
434.56	427.73
434.771	548.63
434.983	409.71
435.194	462.22
435.406	496.32
435.617	547.27
435.829	607.91
436.04	532.35
436.252	543.01
436.463	572.85
436.675	575.75
436.886	570.91
437.098	588.93
437.309	631.36
437.521	554.83
437.732	569.55
437.943	533.52
438.155	577.69
438.366	469.38
438.578	612.76
438.789	536.62
439	559.86
439.211	531
439.423	543.01
439.634	572.26
439.845	571.68
440.057	573.23
440.268	610.05
440.479	565.1
440.69	579.82
440.902	544.17
441.113	542.43
441.324	557.73
441.535	613.15
441.746	632.33
441.957	558.31
442.168	586.21
442.38	658.87
442.591	640.85
442.802	603.07
443.013	631.16
443.224	641.63
443.435	642.21
443.646	600.16
443.857	645.31
444.068	599.78
444.279	597.65
444.49	710.41
444.701	651.51
444.912	745.86
445.123	699.56
445.334	680.18
445.545	622.45
445.756	613.34
445.967	608.88
446.178	651.12
446.388	677.47
446.599	667.98
446.81	653.25
447.021	612.56
447.232	680.57
447.443	715.64
447.653	648.21
447.864	704.98
448.075	693.36
448.286	705.76
448.496	693.55
448.707	732.69
448.918	675.73
449.129	774.34
449.339	687.35
449.55	688.13
449.761	672.82
449.971	741.79
450.182	694.33
450.393	726.88
450.603	702.27
450.814	758.07
451.024	729.2
451.235	810.19
451.446	805.54
451.656	815.22
451.867	728.42
452.077	740.63
452.288	808.06
452.498	785.97
452.709	731.52
452.919	750.9
453.13	694.71
453.34	769.89
453.55	698.2
453.761	745.86
453.971	731.33
454.182	747.22
454.392	746.06
454.602	799.72
454.813	765.04
455.023	775.7
455.233	663.52
455.444	763.69
455.654	686.77
455.864	704.79
456.075	731.52
456.285	741.79
456.495	718.54
456.705	773.37
456.916	810.57
457.126	829.95
457.336	780.35
457.546	688.13
457.756	741.6
457.967	840.22
458.177	736.76
458.387	766.59
458.597	745.09
458.807	741.21
459.017	759.04
459.227	760.2
459.437	759.23
459.647	817.16
459.857	792.36
460.068	739.27
460.278	821.04
460.488	794.3
460.698	827.43
460.908	778.61
461.117	766.01
461.327	781.32
461.537	812.51
461.747	836.54
461.957	812.71
462.167	915.78
462.377	866.18
462.587	802.82
462.797	873.35
463.007	847.77
463.216	874.51
463.426	917.52
463.636	876.84
463.846	756.13
464.056	803.21
464.265	849.9
464.475	784.81
464.685	845.06
464.895	850.68
465.104	807.28
465.314	871.8
465.524	807.47
465.733	768.53
465.943	893.3
466.153	904.73
466.362	871.99
466.572	868.89
466.782	864.05
466.991	848.16
467.201	921.4
467.41	803.21
467.62	859.4
467.829	856.1
468.039	897.95
468.249	880.52
468.458	880.32
468.668	901.44
468.877	912.48
469.086	958.79
469.296	952.2
469.505	915
469.715	979.33
469.924	920.43
470.134	956.27
470.343	943.68
470.552	906.28
470.762	914.23
470.971	889.43
471.18	891.37
471.39	925.47
471.599	914.42
471.808	968.67
472.018	890.98
472.227	986.3
472.436	1027.18
472.645	979.91
472.855	953.95
473.064	1074.07
473.273	1036.68
473.482	1023.7
473.691	1084.14
473.901	1006.84
474.11	1012.46
474.319	1128.51
474.528	1016.14
474.737	1142.66
474.946	1051.79
475.155	1098.87
475.364	1091.51
475.573	1086.66
475.783	1084.92
475.992	1108.75
476.201	1094.99
476.41	1096.54
476.619	1072.71
476.828	1108.17
477.037	1069.61
477.245	1069.03
477.454	1179.86
477.663	1107.98
477.872	1124.06
478.081	1225
478.29	1112.63
478.499	1271.11
478.708	1184.7
478.917	1282.93
479.125	1197.1
479.334	1196.71
479.543	1140.91
479.752	1226.74
479.961	1198.26
480.169	1254.84
480.378	1229.65
480.587	1338.73
480.796	1291.45
481.004	1290.87
481.213	1266.85
481.422	1248.25
481.63	1265.49
481.839	1307.73
482.048	1371.47
482.256	1328.85
482.465	1378.83
482.674	1350.35
482.882	1357.13
483.091	1414.68
483.299	1374.57
483.508	1404.6
483.716	1364.11
483.925	1383.87
484.134	1327.88
484.342	1348.42
484.551	1416.81
484.759	1385.81
484.967	1436.76
485.176	1429.4
485.384	1435.6
485.593	1433.47
485.801	1419.33
486.01	1376.7
486.218	1299.98
486.426	1250.77
486.635	1225
486.843	1176.76
487.051	1277.5
487.26	1275.95
487.468	1334.66
487.676	1354.62
487.885	1372.05
488.093	1407.7
488.301	1473.58
488.509	1434.63
488.717	1490.05
488.926	1473.96
489.134	1460.98
489.342	1443.35
489.55	1428.43
489.758	1457.3
489.967	1477.84
490.175	1589.05
490.383	1537.32
490.591	1653.57
490.799	1529.76
491.007	1613.66
491.215	1566.19
491.423	1565.99
491.631	1572.19
491.839	1551.46
492.047	1570.45
492.255	1516.78
492.463	1442.77
492.671	1482.49
492.879	1588.47
493.087	1525.11
493.295	1550.3
493.503	1564.83
493.711	1595.44
493.919	1601.45
494.127	1599.51
494.334	1617.34
494.542	1559.79
494.75	1622.37
494.958	1605.71
495.166	1694.84
495.374	1686.51
495.581	1667.91
495.789	1660.74
495.997	1744.44
496.205	1616.76
496.412	1643.11
496.62	1669.26
496.828	1671.39
497.035	1692.9
497.243	1698.9
497.451	1695.42
497.658	1704.52
497.866	1693.48
498.074	1769.04
498.281	1656.86
498.489	1787.64
498.696	1690.96
498.904	1656.86
499.112	1616.95
499.319	1725.64
499.527	1676.82
499.734	1762.65
499.942	1656.09
500.149	1716.15
500.357	1723.32
500.564	1647.56
500.771	1706.27
500.979	1646.4
501.186	1656.28
501.394	1702
501.601	1609.59
501.808	1671.2
502.016	1660.16
502.223	1626.44
502.43	1634.19
502.638	1660.93
502.845	1661.71
503.052	1766.33
503.26	1702.97
503.467	1734.94
503.674	1752.19
503.881	1733.59
504.089	1813.8
504.296	1760.9
504.503	1662.67
504.71	1701.04
504.917	1675.85
505.125	1727.19
505.332	1747.15
505.539	1729.71
505.746	1816.51
505.953	1806.24
506.16	1819.03
506.367	1841.31
506.574	1895.75
506.781	1906.02
506.988	1808.37
507.195	1837.63
507.402	1838.79
507.609	1846.54
507.816	1779.31
508.023	1799.65
508.23	1771.95
508.437	1743.08
508.644	1799.46
508.851	1837.05
509.058	1894.59
509.265	1801.59
509.472	1886.65
509.679	1949.03
509.885	1849.25
510.092	1846.93
510.299	1854.1
510.506	1858.75
510.713	1844.8
510.92	1861.27
511.126	1854.68
511.333	1927.72
511.54	1865.91
511.746	1930.63
511.953	1961.82
512.16	1972.67
512.367	1881.22
512.573	1881.03
512.78	1923.85
512.987	1884.32
513.193	1882
513.4	1801.98
513.606	1870.18
513.813	1882.77
514.02	1872.5
514.226	1912.22
514.433	1906.21
514.639	1851.77
514.846	1881.41
515.052	1858.75
515.259	1892.07
515.465	1860.68
515.672	1887.42
515.878	1944.19
516.085	1897.69
516.291	1957.75
516.497	1909.31
516.704	1866.5
516.91	1833.17
517.117	1754.12
517.323	1687.28
517.529	1689.22
517.736	1693.29
517.942	1716.92
518.148	1703.36
518.354	1829.1
518.561	1807.79
518.767	1764.59
518.973	1849.45
519.179	1837.43
519.386	1815.35
519.592	1825.42
519.798	1836.85
520.004	1986.62
520.21	1914.35
520.417	1972.67
520.623	1981.19
520.829	2003.67
521.035	2010.06
521.241	2031.57
521.447	2018.01
521.653	2140.07
521.859	2019.17
522.065	2044.74
522.271	2160.41
522.477	2074.97
522.683	2137.74
522.889	2121.08
523.095	2105.97
523.301	2053.46
523.507	1998.24
523.713	2082.33
523.919	2012.78
524.125	2121.27
524.331	2063.73
524.537	2202.26
524.742	2186.18
524.948	2191.99
525.154	2218.92
525.36	2266
525.566	2174.17
525.772	2274.33
525.977	2165.84
526.183	2207.1
526.389	2254.96
526.595	2159.25
526.8	2145.49
527.006	2070.9
527.212	1974.41
527.417	1990.49
527.623	1981
527.829	2084.66
528.034	2085.24
528.24	2117.4
528.446	2101.51
528.651	2235
528.857	2215.43
529.062	2291.38
529.268	2290.8
529.473	2296.81
529.679	2294.1
529.884	2350.67
530.09	2373.15
530.295	2332.46
530.501	2394.65
530.706	2325.48
530.912	2270.07
531.117	2325.48
531.323	2313.08
531.528	2422.36
531.733	2376.63
531.939	2316.18
532.144	2367.33
532.35	2378.38
532.555	2398.14
532.76	2381.67
532.966	2325.29
533.171	2280.34
533.376	2276.27
533.581	2216.21
533.787	2283.25
533.992	2327.81
534.197	2339.05
534.402	2319.09
534.607	2330.13
534.813	2432.04
535.018	2310.95
535.223	2354.16
535.428	2365.4
535.633	2417.13
535.838	2436.69
536.043	2447.54
536.249	2551.78
536.454	2433.59
536.659	2457.23
536.864	2419.84
537.069	2391.16
537.274	2390.58
537.479	2425.84
537.684	2401.82
537.889	2313.86
538.094	2490.36
538.299	2414.41
538.504	2419.64
538.708	2443.67
538.913	2478.35
539.118	2447.54
539.323	2493.66
539.528	2427.01
539.733	2414.22
539.938	2456.84
540.142	2458.01
540.347	2380.51
540.552	2368.88
540.757	2379.54
540.962	2343.31
541.166	2294.48
541.371	2324.51
541.576	2391.55
541.781	2301.85
541.985	2408.21
542.19	2400.46
542.395	2463.82
542.599	2503.15
542.804	2433.01
543.008	2495.59
543.213	2439.6
543.418	2386.71
543.622	2466.53
543.827	2394.46
544.031	2483
544.236	2466.14
544.44	2501.02
544.645	2583.94
544.849	2441.73
545.054	2524.66
545.258	2585.3
545.463	2585.88
545.667	2470.79
545.872	2546.74
546.076	2482.61
546.281	2498.69
546.485	2461.49
546.689	2486.68
546.894	2538.61
547.098	2527.37
547.302	2450.64
547.507	2492.11
547.711	2515.36
547.915	2528.34
548.119	2464.21
548.324	2454.33
548.528	2540.74
548.732	2453.36
548.936	2574.64
549.141	2547.32
549.345	2500.24
549.549	2539.77
549.753	2512.84
549.957	2613.39
550.161	2633.54
550.366	2548.49
550.57	2526.79
550.774	2509.54
550.978	2521.56
551.182	2567.09
551.386	2506.44
551.59	2524.66
551.794	2483.19
551.998	2537.83
552.202	2516.52
552.406	2482.61
552.61	2556.04
552.814	2540.35
553.018	2611.84
553.222	2511.48
553.426	2517.49
553.63	2573.48
553.833	2531.63
554.037	2480.87
554.241	2535.51
554.445	2537.06
554.649	2510.71
554.853	2512.26
555.056	2583.36
555.26	2618.43
555.464	2525.24
555.668	2557.21
555.871	2563.02
556.075	2568.05
556.279	2489.97
556.483	2459.56
556.686	2507.99
556.89	2500.82
557.094	2521.17
557.297	2435.34
557.501	2521.75
557.704	2408.02
557.908	2486.29
558.112	2425.84
558.315	2537.44
558.519	2443.09
558.722	2465.37
558.926	2408.41
559.129	2346.41
559.333	2324.32
559.536	2321.03
559.74	2279.76
559.943	2303.59
560.147	2313.28
560.35	2368.88
560.553	2383.03
560.757	2272.2
560.96	2410.34
561.164	2344.08
561.367	2490.56
561.57	2418.09
561.774	2407.83
561.977	2377.02
562.18	2318.51
562.384	2436.11
562.587	2328.39
562.79	2373.92
562.993	2317.54
563.197	2371.6
563.4	2463.82
563.603	2434.56
563.806	2480.09
564.009	2351.64
564.212	2387.1
564.416	2298.55
564.619	2381.67
564.822	2313.47
565.025	2358.42
565.228	2353.38
565.431	2350.67
565.634	2204
565.837	2290.42
566.04	2262.32
566.243	2272.59
566.446	2149.56
566.649	2322.77
566.852	2214.66
567.055	2224.54
567.258	2285.18
567.461	2317.35
567.664	2316.38
567.867	2215.05
568.07	2287.12
568.273	2268.13
568.475	2299.33
568.678	2209.43
568.881	2205.55
569.084	2219.12
569.287	2077.1
569.489	2128.83
569.692	2236.75
569.895	2208.46
570.098	2132.7
570.3	2077.29
570.503	2060.82
570.706	2104.22
570.909	2065.28
571.111	2059.27
571.314	2028.08
571.516	2027.69
571.719	2091.44
571.922	2067.02
572.124	2031.38
572.327	2053.07
572.529	2021.3
572.732	2068.38
572.935	2063.34
573.137	2166.42
573.34	2060.63
573.542	2121.66
573.745	2096.67
573.947	2075.94
574.15	2071.09
574.352	2046.87
574.554	2149.95
574.757	2033.89
574.959	2040.29
575.162	2038.16
575.364	2009.29
575.566	2139.49
575.769	1998.63
575.971	2033.7
576.173	1886.84
576.376	1983.52
576.578	2038.16
576.78	2078.26
576.982	1923.26
577.185	2005.99
577.387	1944.77
577.589	1968.79
577.791	2062.76
577.993	2036.61
578.196	1965.5
578.398	1967.63
578.6	1996.31
578.802	1887.81
579.004	1874.83
579.206	1912.03
579.408	1933.34
579.61	1869.98
579.812	1998.24
580.014	1928.69
580.216	1904.28
580.418	1939.15
580.62	1922.49
580.822	1859.72
581.024	1947.87
581.226	2021.3
581.428	1922.3
581.63	2052.69
581.832	1899.05
582.034	2000.96
582.236	1950.97
582.438	1953.49
582.64	2003.67
582.841	2041.26
583.043	2036.03
583.245	1965.69
583.447	1997.86
583.649	1965.31
583.85	1934.31
584.052	2008.71
584.254	1894.01
584.456	2008.51
584.657	1859.52
584.859	1937.02
585.061	1911.25
585.262	1912.03
585.464	1892.85
585.666	1922.1
585.867	1875.02
586.069	1950.58
586.27	1909.9
586.472	1886.45
586.674	1854.87
586.875	1875.8
587.077	1879.09
587.278	1897.3
587.48	1827.94
587.681	1988.75
587.883	1911.25
588.084	1824.26
588.285	1842.28
588.487	1873.28
588.688	1839.18
588.89	1764.97
589.091	1749.28
589.292	1769.82
589.494	1691.15
589.695	1638.65
589.896	1613.66
590.098	1581.11
590.299	1653.37
590.5	1589.63
590.702	1654.54
590.903	1685.54
591.104	1764.78
591.305	1751.99
591.507	1827.94
591.708	1771.95
591.909	1721.19
592.11	1823.68
592.311	1761.29
592.512	1716.92
592.714	1711.69
592.915	1731.84
593.116	1721.19
593.317	1780.47
593.518	1749.28
593.719	1709.75
593.92	1818.45
594.121	1798.3
594.322	1772.14
594.523	1765.17
594.724	1731.84
594.925	1764
595.126	1747.54
595.327	1730.29
595.528	1745.02
595.729	1759.94
595.929	1737.07
596.13	1737.46
596.331	1722.35
596.532	1712.85
596.733	1811.47
596.934	1773.3
597.135	1797.72
597.335	1779.5
597.536	1706.27
597.737	1727.77
597.938	1709.37
598.138	1770.4
598.339	1747.34
598.54	1718.47
598.74	1713.63
598.941	1691.35
599.142	1798.3
599.342	1709.37
599.543	1700.26
599.744	1731.07
599.944	1693.48
600.145	1698.9
600.345	1746.76
600.546	1811.86
600.746	1750.44
600.947	1799.46
601.147	1707.43
601.348	1765.75
601.548	1701.23
601.749	1715.76
601.949	1697.74
602.15	1697.16
602.35	1664.03
602.551	1769.24
602.751	1663.45
602.951	1708.79
603.152	1620.44
603.352	1730.49
603.552	1727.58
603.753	1758.97
603.953	1762.45
604.153	1743.66
604.354	1733
604.554	1697.16
604.754	1716.54
604.954	1674.69
605.155	1716.34
605.355	1712.08
605.555	1735.52
605.755	1786.67
605.955	1695.61
606.155	1735.14
606.356	1688.25
606.556	1720.41
606.756	1696
606.956	1648.72
607.156	1725.64
607.356	1681.66
607.556	1705.88
607.756	1688.83
607.956	1784.73
608.156	1678.56
608.356	1635.55
608.556	1751.41
608.756	1686.12
608.956	1614.24
609.156	1678.37
609.356	1606.49
609.556	1600.68
609.755	1654.92
609.955	1624.12
610.155	1640.2
610.355	1669.26
610.555	1613.27
610.755	1614.43
610.954	1560.96
611.154	1625.28
611.354	1653.57
611.554	1570.84
611.753	1605.13
611.953	1560.76
612.153	1644.66
612.352	1598.16
612.552	1534.8
612.752	1539.06
612.951	1557.47
613.151	1568.13
613.351	1575.29
613.55	1575.49
613.75	1621.21
613.949	1542.74
614.149	1568.51
614.348	1583.63
614.548	1522.59
