Data from gum_old_FLMT105791__27__15-42-49-259.txt Node

Date: Mon Mar 20 15:42:49 GMT 2023
User: antho
Spectrometer: FLMT10579
Trigger mode: 0
Integration Time (sec): 1.000000E-1
Scans to average: 10
Electric dark correction enabled: true
Nonlinearity correction enabled: false
Boxcar width: 0
XAxis mode: Wavelengths
Number of Pixels in Spectrum: 3648
>>>>>Begin Spectral Data<<<<<
345.248	-157.13
345.464	-157.13
345.681	-157.13
345.898	-180.77
346.114	-193.36
346.331	-54.25
346.548	23.44
346.764	-9.88
346.981	-8.14
347.197	-19.37
347.414	9.69
347.631	-14.14
347.847	73.04
348.064	10.27
348.28	0.19
348.497	-24.61
348.713	13.76
348.93	21.12
349.146	26.35
349.363	-1.55
349.579	46.11
349.796	8.33
350.012	-24.22
350.229	42.04
350.445	36.81
350.661	-21.51
350.878	33.13
351.094	41.66
351.311	52.7
351.527	45.53
351.743	11.24
351.96	63.36
352.176	57.16
352.392	50.96
352.609	69.17
352.825	10.27
353.041	41.07
353.257	15.5
353.474	39.91
353.69	42.62
353.906	22.67
354.122	23.06
354.339	110.63
354.555	26.16
354.771	45.53
354.987	74.59
355.203	71.11
355.42	25.96
355.636	35.26
355.852	18.41
356.068	43.21
356.284	-23.64
356.5	74.59
356.716	24.99
356.932	9.69
357.148	74.59
357.364	26.74
357.58	59.29
357.796	71.11
358.012	105.59
358.228	59.87
358.444	-25.19
358.66	100.17
358.876	54.44
359.092	-6.01
359.308	35.65
359.524	59.29
359.74	18.99
359.956	44.17
360.172	83.89
360.388	81.18
360.604	24.8
360.819	131.94
361.035	39.91
361.251	70.14
361.467	-1.55
361.683	78.27
361.898	63.55
362.114	75.76
362.33	61.22
362.546	70.52
362.762	76.14
362.977	52.51
363.193	30.42
363.409	94.94
363.624	51.15
363.84	55.61
364.056	23.44
364.271	117.99
364.487	89.7
364.703	37.2
364.918	33.13
365.134	50.18
365.35	63.16
365.565	147.64
365.781	102.49
365.996	103.46
366.212	140.85
366.427	90.29
366.643	74.01
366.858	85.44
367.074	56.96
367.289	144.15
367.505	200.33
367.72	51.34
367.936	86.61
368.151	114.5
368.367	98.23
368.582	80.6
368.798	66.46
369.013	110.63
369.228	79.05
369.444	90.48
369.659	150.35
369.874	108.11
370.09	165.46
370.305	32.74
370.52	78.66
370.736	160.42
370.951	102.88
371.166	131.17
371.381	139.89
371.597	127.1
371.812	77.5
372.027	80.21
372.242	98.23
372.458	160.23
372.673	85.06
372.888	69.56
373.103	106.95
373.318	171.47
373.533	79.44
373.749	110.82
373.964	33.32
374.179	99.2
374.394	49.41
374.609	133.69
374.824	42.43
375.039	130.78
375.254	78.66
375.469	146.09
375.684	109.66
375.899	135.04
376.114	134.46
376.329	109.85
376.544	116.05
376.759	141.05
376.974	73.82
377.189	101.72
377.404	105.98
377.619	167.4
377.834	58.71
378.049	95.71
378.264	101.33
378.478	150.74
378.693	104.82
378.908	152.67
379.123	113.34
379.338	173.21
379.553	135.04
379.767	129.42
379.982	143.37
380.197	123.03
380.412	124.19
380.626	131.55
380.841	206.92
381.056	182.32
381.271	208.86
381.485	108.89
381.7	131.36
381.915	137.17
382.129	107.53
382.344	133.49
382.559	118.19
382.773	146.67
382.988	38.17
383.202	122.64
383.417	66.07
383.632	179.99
383.846	103.27
384.061	120.32
384.275	99
384.49	138.92
384.704	141.44
384.919	142.6
385.133	169.53
385.348	153.64
385.562	118.77
385.777	187.93
385.991	136.59
386.206	133.3
386.42	116.05
386.634	207.31
386.849	162.17
387.063	165.27
387.277	120.12
387.492	127.1
387.706	103.85
387.92	107.53
388.135	161.97
388.349	145.31
388.563	176.31
388.778	175.53
388.992	161.2
389.206	185.22
389.42	240.83
389.635	174.57
389.849	237.53
390.063	233.47
390.277	207.12
390.491	273.76
390.706	208.08
390.92	199.37
391.134	215.64
391.348	246.64
391.562	176.12
391.776	223.58
391.99	176.31
392.205	229.59
392.419	199.75
392.633	197.04
392.847	233.66
393.061	141.82
393.275	209.44
393.489	139.11
393.703	133.69
393.917	160.04
394.131	86.61
394.345	130.78
394.559	186
394.773	179.8
394.986	198.78
395.2	169.53
395.414	286.55
395.628	197.62
395.842	269.31
396.056	235.02
396.27	185.61
396.484	228.82
396.697	210.6
396.911	229.78
397.125	164.1
397.339	197.82
397.553	159.07
397.766	217.19
397.98	234.82
398.194	297.6
398.408	241.02
398.621	308.25
398.835	312.51
399.049	317.94
399.262	362.31
399.476	376.45
399.69	365.6
399.903	408.23
400.117	355.14
400.331	396.02
400.544	360.56
400.758	475.46
400.971	391.76
401.185	396.21
401.398	322.01
401.612	421.59
401.826	399.51
402.039	421.21
402.253	393.89
402.466	454.14
402.68	390.4
402.893	426.05
403.106	431.86
403.32	411.33
403.533	446.59
403.747	404.35
403.96	426.44
404.174	456.86
404.387	385.56
404.6	436.13
404.814	481.27
405.027	442.32
405.24	401.44
405.454	401.64
405.667	445.23
405.88	363.47
406.094	464.61
406.307	504.52
406.52	426.83
406.733	389.82
406.947	388.08
407.16	489.79
407.373	469.06
407.586	408.81
407.799	412.1
408.012	449.11
408.226	433.22
408.439	516.53
408.652	427.02
408.865	491.92
409.078	571.75
409.291	512.66
409.504	435.54
409.717	518.66
409.93	502.39
410.143	508.2
410.357	416.75
410.57	389.82
410.783	415.2
410.996	452.59
411.209	460.54
411.421	561.48
411.634	513.62
411.847	472.94
412.06	551.6
412.273	544.62
412.486	508.2
412.699	611.27
412.912	550.24
413.125	577.17
413.338	535.13
413.55	552.37
413.763	508.2
413.976	571.94
414.189	519.05
414.402	525.05
414.615	634.91
414.827	493.86
415.04	560.32
415.253	596.55
415.466	578.14
415.678	605.85
415.891	562.06
416.104	534.94
416.316	531.84
416.529	537.07
416.742	620.96
416.954	608.75
417.167	589.77
417.38	568.07
417.592	611.66
417.805	576.98
418.017	510.52
418.23	567.87
418.442	538.62
418.655	544.82
418.868	564.97
419.08	593.06
419.293	621.35
419.505	600.23
419.718	597.9
419.93	638.98
420.142	564.77
420.355	624.83
420.567	606.43
420.78	621.35
420.992	587.44
421.205	646.15
421.417	587.44
421.629	628.32
421.842	621.54
422.054	613.6
422.266	653.12
422.479	680.83
422.691	595.39
422.903	629.68
423.115	628.13
423.328	621.35
423.54	611.66
423.752	574.85
423.964	607.4
424.177	635.88
424.389	625.22
424.601	731.78
424.813	655.06
425.025	658.16
425.238	651.38
425.45	645.57
425.662	620.96
425.874	920.49
426.086	641.88
426.298	669.78
426.51	662.81
426.722	626.77
426.934	665.33
427.146	664.94
427.358	636.27
427.57	689.55
427.782	621.54
427.994	609.92
428.206	603.91
428.418	625.61
428.63	688.19
428.842	716.28
429.054	655.25
429.266	695.17
429.478	612.43
429.69	612.63
429.902	589.57
430.114	646.53
430.325	592.87
430.537	546.95
430.749	523.31
430.961	473.52
431.173	494.06
431.384	546.75
431.596	476.42
431.808	579.11
432.02	654.28
432.231	743.8
432.443	792.43
432.655	770.34
432.867	690.13
433.078	732.17
433.29	773.83
433.502	769.18
433.713	797.27
433.925	802.5
434.136	797.46
434.348	702.53
434.56	633.36
434.771	798.63
434.983	662.62
435.194	739.34
435.406	763.75
435.617	815.29
435.829	906.16
436.04	856.56
436.252	817.42
436.463	865.86
436.675	884.07
436.886	883.49
437.098	876.71
437.309	956.53
437.521	875.54
437.732	884.84
437.943	836.99
438.155	825.75
438.366	783.13
438.578	885.42
438.789	793.59
439	834.47
439.211	781.77
439.423	821.1
439.634	864.5
439.845	848.81
440.057	895.89
440.268	911.39
440.479	882.13
440.69	928.24
440.902	853.07
441.113	852.88
441.324	864.5
441.535	901.89
441.746	954.79
441.957	894.34
442.168	924.76
442.38	997.41
442.591	988.3
442.802	924.37
443.013	998.77
443.224	991.99
443.435	977.26
443.646	947.62
443.857	945.29
444.068	955.56
444.279	944.91
444.49	1027.25
444.701	971.45
444.912	1101.26
445.123	1064.45
445.334	1018.14
445.545	1039.84
445.756	983.65
445.967	965.83
446.178	1014.07
446.388	972.61
446.599	993.92
446.81	980.75
447.021	960.6
447.232	1049.53
447.443	1039.26
447.653	1027.83
447.864	1085.57
448.075	1053.79
448.286	1064.45
448.496	1070.45
448.707	1115.98
448.918	1023.37
449.129	1147.56
449.339	1035.77
449.55	1108.43
449.761	1052.43
449.971	1117.73
450.182	1085.95
450.393	1125.48
450.603	1047.79
450.814	1140.98
451.024	1116.57
451.235	1197.55
451.446	1225.26
451.656	1205.11
451.867	1154.93
452.077	1137.3
452.288	1178.95
452.498	1167.91
452.709	1110.75
452.919	1120.44
453.13	1055.53
453.34	1098.74
453.55	1035.77
453.761	1098.55
453.971	1093.51
454.182	1113.08
454.392	1090.22
454.602	1185.54
454.813	1132.65
455.023	1169.26
455.233	1082.47
455.444	1139.62
455.654	1052.82
455.864	1118.89
456.075	1144.85
456.285	1127.03
456.495	1135.36
456.705	1170.62
456.916	1220.03
457.126	1257.61
457.336	1153.38
457.546	1126.83
457.756	1130.32
457.967	1225.26
458.177	1124.32
458.387	1166.36
458.597	1101.84
458.807	1183.21
459.017	1125.48
459.227	1150.28
459.437	1156.09
459.647	1193.1
459.857	1180.7
460.068	1147.76
460.278	1225.84
460.488	1204.33
460.698	1224.68
460.908	1180.5
461.117	1190.58
461.327	1231.65
461.537	1222.93
461.747	1221.19
461.957	1242.5
462.167	1343.25
462.377	1252.19
462.587	1210.34
462.797	1303.34
463.007	1256.26
463.216	1311.86
463.426	1381.42
463.636	1279.7
463.846	1194.65
464.056	1241.92
464.265	1311.09
464.475	1233.2
464.685	1264.59
464.895	1297.53
465.104	1215.57
465.314	1300.63
465.524	1231.84
465.733	1260.71
465.943	1367.47
466.153	1330.85
466.362	1338.02
466.572	1338.41
466.782	1310.7
466.991	1352.74
467.201	1341.12
467.41	1219.45
467.62	1314.19
467.829	1309.34
468.039	1330.85
468.249	1300.24
468.458	1359.91
468.668	1395.76
468.877	1359.72
469.086	1427.72
469.296	1420.36
469.505	1373.67
469.715	1425.01
469.924	1403.12
470.134	1428.5
470.343	1449.42
470.552	1392.07
470.762	1369.21
470.971	1373.09
471.18	1394.59
471.39	1408.93
471.599	1389.56
471.808	1452.72
472.018	1465.7
472.227	1506.38
472.436	1580.2
472.645	1496.31
472.855	1485.65
473.064	1581.95
473.273	1571.48
473.482	1516.46
473.691	1568.19
473.901	1554.82
474.11	1525.18
474.319	1644.53
474.528	1573.81
474.737	1664.87
474.946	1617.79
475.155	1646.27
475.364	1701.1
475.573	1673.59
475.783	1674.94
475.992	1693.93
476.201	1714.47
476.41	1714.66
476.619	1645.88
476.828	1678.82
477.037	1656.54
477.245	1660.41
477.454	1697.03
477.663	1727.26
477.872	1758.45
478.081	1855.9
478.29	1759.42
478.499	1880.9
478.708	1873.73
478.917	1884.77
479.125	1785.57
479.334	1843.12
479.543	1842.92
479.752	1881.67
479.961	1903.57
480.169	1946.77
480.378	1921.59
480.587	2072.13
480.796	1955.49
481.004	1901.24
481.213	1962.66
481.422	1943.28
481.63	2025.05
481.839	2035.7
482.048	2083.56
482.256	2039.96
482.465	2085.88
482.674	2080.07
482.882	2069.61
483.091	2179.27
483.299	2036.67
483.508	2110.49
483.716	2116.49
483.925	2151.76
484.134	2063.02
484.342	2095.57
484.551	2125.41
484.759	2133.16
484.967	2216.08
485.176	2182.76
485.384	2199.61
485.593	2183.34
485.801	2197.29
486.01	2080.65
486.218	2029.89
486.426	1870.24
486.635	1873.15
486.843	1864.04
487.051	1902.4
487.26	1914.61
487.468	1996.18
487.676	2073.1
487.885	2056.43
488.093	2161.25
488.301	2179.66
488.509	2193.61
488.717	2265.87
488.926	2226.54
489.134	2218.02
489.342	2277.69
489.55	2207.17
489.758	2222.67
489.967	2281.37
490.175	2363.91
490.383	2355
490.591	2452.84
490.799	2351.32
491.007	2417.97
491.215	2405.37
491.423	2355.19
491.631	2394.72
491.839	2369.92
492.047	2366.82
492.255	2301.52
492.463	2277.69
492.671	2237.01
492.879	2352.87
493.087	2336.98
493.295	2383.48
493.503	2391.23
493.711	2451.68
493.919	2493.72
494.127	2481.51
494.334	2494.3
494.542	2418.93
494.75	2525.11
494.958	2477.45
495.166	2598.34
495.374	2564.24
495.581	2598.34
495.789	2584.78
495.997	2691.54
496.205	2530.34
496.412	2532.08
496.62	2589.24
496.828	2565.41
497.035	2578.39
497.243	2590.79
497.451	2645.62
497.658	2621.4
497.866	2615.2
498.074	2695.02
498.281	2592.73
498.489	2673.91
498.696	2560.56
498.904	2519.88
499.112	2547
499.319	2624.31
499.527	2594.08
499.734	2657.82
499.942	2586.53
500.149	2603.96
500.357	2620.63
500.564	2557.27
500.771	2553.39
500.979	2555.91
501.186	2497.79
501.394	2590.98
501.601	2460.01
501.808	2546.23
502.016	2543.13
502.223	2519.49
502.43	2542.74
502.638	2533.25
502.845	2526.85
503.052	2653.37
503.26	2580.33
503.467	2693.09
503.674	2632.44
503.881	2651.82
504.089	2689.02
504.296	2645.42
504.503	2534.41
504.71	2596.41
504.917	2602.41
505.125	2629.73
505.332	2647.94
505.539	2651.24
505.746	2772.33
505.953	2745.79
506.16	2759.15
506.367	2796.93
506.574	2871.53
506.781	2849.05
506.988	2749.66
507.195	2763.03
507.402	2762.45
507.609	2775.43
507.816	2719.63
508.023	2710.52
508.23	2680.69
508.437	2632.83
508.644	2689.41
508.851	2745.59
509.058	2782.21
509.265	2744.62
509.472	2772.91
509.679	2873.66
509.885	2781.05
510.092	2809.33
510.299	2760.51
510.506	2751.4
510.713	2768.84
510.92	2771.94
511.126	2740.55
511.333	2793.06
511.54	2803.52
511.746	2857.38
511.953	2863
512.16	2930.04
512.367	2832.58
512.573	2804.3
512.78	2840.92
512.987	2813.98
513.193	2789.38
513.4	2689.02
513.606	2772.72
513.813	2786.67
514.02	2761.48
514.226	2808.95
514.433	2791.12
514.639	2717.11
514.846	2710.14
515.052	2724.28
515.259	2791.32
515.465	2785.89
515.672	2818.25
515.878	2897.1
516.085	2839.75
516.291	2880.05
516.497	2855.25
516.704	2764.58
516.91	2705.1
517.117	2596.41
517.323	2499.73
517.529	2507.48
517.736	2505.73
517.942	2491.2
518.148	2578.97
518.354	2664.02
518.561	2638.45
518.767	2642.91
518.973	2626.63
519.179	2648.72
519.386	2690.76
519.592	2729.32
519.798	2708.78
520.004	2851.77
520.21	2862.23
520.417	2880.63
520.623	2952.32
520.829	2918.8
521.035	2952.32
521.241	2960.46
521.447	2955.61
521.653	3076.32
521.859	2970.34
522.065	3000.76
522.271	3083.68
522.477	3075.16
522.683	3134.25
522.889	3024.2
523.095	2982.54
523.301	3001.14
523.507	2943.99
523.713	2982.74
523.919	2950.58
524.125	3092.59
524.331	3072.06
524.537	3176.49
524.742	3190.24
524.948	3157.89
525.154	3161.76
525.36	3284.4
525.566	3141.81
525.772	3236.74
525.977	3134.44
526.183	3176.29
526.389	3255.15
526.595	3103.64
526.8	3060.43
527.006	2965.3
527.212	2916.86
527.417	2879.67
527.623	2875.6
527.829	2959.88
528.034	3023.62
528.24	3061.4
528.446	3107.12
528.651	3258.25
528.857	3183.07
529.062	3211.94
529.268	3293.7
529.473	3320.25
529.679	3361.13
529.884	3381.28
530.09	3370.62
530.295	3364.81
530.501	3396.78
530.706	3351.44
530.912	3355.12
531.117	3375.27
531.323	3401.04
531.528	3462.26
531.733	3425.45
531.939	3398.91
532.144	3465.17
532.35	3462.65
532.555	3421.77
532.76	3342.72
532.966	3391.35
533.171	3302.42
533.376	3263.87
533.581	3232.67
533.787	3285.76
533.992	3361.9
534.197	3341.36
534.402	3338.26
534.607	3362.68
534.813	3441.92
535.018	3358.8
535.223	3395.81
535.428	3363.45
535.633	3415.96
535.838	3492.88
536.043	3498.11
536.249	3602.73
536.454	3518.64
536.659	3551.58
536.864	3488.23
537.069	3444.05
537.274	3441.73
537.479	3455.29
537.684	3413.83
537.889	3359.77
538.094	3558.56
538.299	3439.01
538.504	3472.34
538.708	3528.72
538.913	3584.13
539.118	3502.95
539.323	3526.39
539.528	3406.85
539.733	3462.07
539.938	3505.86
540.142	3417.51
540.347	3439.21
540.552	3379.53
540.757	3324.31
540.962	3392.32
541.166	3312.3
541.371	3246.23
541.576	3383.02
541.781	3297
541.985	3420.03
542.19	3389.41
542.395	3557.78
542.599	3550.03
542.804	3500.24
543.008	3543.06
543.213	3466.14
543.418	3436.49
543.622	3503.34
543.827	3405.69
544.031	3540.34
544.236	3572.89
544.44	3563.79
544.645	3613.97
544.849	3535.89
545.054	3621.91
545.258	3640.32
545.463	3618.04
545.667	3545.38
545.872	3553.13
546.076	3602.15
546.281	3535.69
546.485	3514.77
546.689	3576.77
546.894	3554.1
547.098	3604.28
547.302	3513.02
547.507	3521.55
547.711	3600.4
547.915	3573.67
548.119	3427.58
548.324	3520
548.528	3552.94
548.732	3506.63
548.936	3558.36
549.141	3581.61
549.345	3549.26
549.549	3564.17
549.753	3585.49
549.957	3648.26
550.161	3646.9
550.366	3600.21
550.57	3573.86
550.774	3556.04
550.978	3567.66
551.182	3565.14
551.386	3529.11
551.59	3482.41
551.794	3500.82
551.998	3554.87
552.202	3559.14
552.406	3555.07
552.61	3593.04
552.814	3534.14
553.018	3636.83
553.222	3513.41
553.426	3557.59
553.63	3589.75
553.833	3550.61
554.037	3465.36
554.241	3513.02
554.445	3586.07
554.649	3503.53
554.853	3485.9
555.056	3562.62
555.26	3635.28
555.464	3573.09
555.668	3588.78
555.871	3586.45
556.075	3601.37
556.279	3500.24
556.483	3441.92
556.686	3494.81
556.89	3539.76
557.094	3525.23
557.297	3408.59
557.501	3499.07
557.704	3412.86
557.908	3451.99
558.112	3399.68
558.315	3502.95
558.519	3451.03
558.722	3414.21
558.926	3416.34
559.129	3324.12
559.333	3309.2
559.536	3300.48
559.74	3273.94
559.943	3293.7
560.147	3274.52
560.35	3315.4
560.553	3326.64
560.757	3255.15
560.96	3368.1
561.164	3324.7
561.367	3407.63
561.57	3359.96
561.774	3369.07
561.977	3333.23
562.18	3293.32
562.384	3404.91
562.587	3357.06
562.79	3339.62
562.993	3305.91
563.197	3346.6
563.4	3383.41
563.603	3378.76
563.806	3426.23
564.009	3342.91
564.212	3371.01
564.416	3257.67
564.619	3351.05
564.822	3255.73
565.025	3391.35
565.228	3311.92
565.431	3344.46
565.634	3212.72
565.837	3258.63
566.04	3185.98
566.243	3215.62
566.446	3083.29
566.649	3194.12
566.852	3072.64
567.055	3167.57
567.258	3229.57
567.461	3267.55
567.664	3276.65
567.867	3148
568.07	3196.44
568.273	3225.7
568.475	3263.28
568.678	3181.72
568.881	3147.62
569.084	3139.87
569.287	3074.96
569.489	3110.42
569.692	3119.72
569.895	3169.7
570.098	3095.69
570.3	3072.64
570.503	3026.72
570.706	3026.91
570.909	2988.94
571.111	2953.1
571.314	2931.4
571.516	2981.96
571.719	3006.38
571.922	2958.52
572.124	3016.06
572.327	2982.74
572.529	2964.14
572.732	3004.44
572.935	3048.61
573.137	3089.88
573.34	2997.08
573.542	3051.71
573.745	3061.01
573.947	3072.06
574.15	2998.82
574.352	3007.93
574.554	3087.94
574.757	2963.36
574.959	2958.91
575.162	3010.64
575.364	2973.24
575.566	3039.12
575.769	2902.53
575.971	2950.77
576.173	2806.04
576.376	2907.76
576.578	2963.95
576.78	3018.19
576.982	2870.37
577.185	2934.11
577.387	2890.32
577.589	2893.23
577.791	2925.97
577.993	2904.66
578.196	2905.24
578.398	2908.73
578.6	2860.68
578.802	2808.56
579.004	2788.8
579.206	2858.35
579.408	2878.5
579.61	2811.85
579.812	2913.76
580.014	2819.41
580.216	2807.78
580.418	2865.13
580.62	2797.52
580.822	2801.78
581.024	2828.32
581.226	2861.45
581.428	2864.17
581.63	2940.31
581.832	2819.8
582.034	2919
582.236	2858.93
582.438	2939.53
582.64	2934.11
582.841	2890.51
583.043	2959.88
583.245	2882.77
583.447	2898.26
583.649	2857.38
583.85	2835.1
584.052	2889.74
584.254	2774.85
584.456	2895.94
584.657	2799.07
584.859	2827.74
585.061	2784.34
585.262	2855.64
585.464	2763.61
585.666	2855.83
585.867	2723.31
586.069	2806.23
586.27	2745.59
586.472	2740.55
586.674	2736.87
586.875	2712.85
587.077	2720.6
587.278	2792.09
587.48	2674.68
587.681	2879.67
587.883	2756.64
588.084	2637.48
588.285	2711.3
588.487	2684.56
588.688	2718.27
588.89	2619.08
589.091	2576.84
589.292	2539.83
589.494	2512.51
589.695	2440.83
589.896	2360.81
590.098	2352.67
590.299	2422.03
590.5	2437.73
590.702	2485.97
590.903	2521.23
591.104	2561.34
591.305	2602.99
591.507	2598.73
591.708	2577.81
591.909	2539.83
592.11	2636.71
592.311	2631.67
592.512	2618.69
592.714	2565.41
592.915	2550.1
593.116	2559.59
593.317	2596.99
593.518	2548.55
593.719	2602.61
593.92	2603.19
594.121	2643.49
594.322	2586.53
594.523	2594.47
594.724	2515.42
594.925	2577.81
595.126	2579.55
595.327	2544.29
595.528	2563.66
595.729	2552.81
595.929	2537.7
596.13	2575.87
596.331	2568.7
596.532	2564.44
596.733	2647.75
596.934	2612.29
597.135	2639.22
597.335	2563.86
597.536	2554.56
597.737	2628.18
597.938	2552.04
598.138	2574.9
598.339	2571.41
598.54	2570.64
598.74	2530.92
598.941	2522.4
599.142	2571.99
599.342	2552.62
599.543	2506.9
599.744	2542.16
599.944	2500.7
600.145	2545.06
600.345	2526.46
600.546	2614.62
600.746	2593.89
600.947	2620.24
601.147	2507.28
601.348	2577.03
601.548	2489.26
601.749	2531.31
601.949	2481.51
602.15	2450.71
602.35	2468.15
602.551	2484.03
602.751	2441.8
602.951	2499.73
603.152	2437.92
603.352	2525.11
603.552	2495.66
603.753	2580.33
603.953	2567.54
604.153	2562.5
604.354	2535.38
604.554	2508.45
604.754	2525.11
604.954	2482.68
605.155	2536.15
605.355	2514.06
605.555	2532.28
605.755	2553.01
605.955	2531.5
606.155	2552.81
606.356	2529.76
606.556	2534.41
606.756	2510.58
606.956	2477.83
607.156	2581.1
607.356	2451.87
607.556	2457.88
607.756	2515.61
607.956	2554.56
608.156	2487.13
608.356	2451.1
608.556	2463.5
608.756	2441.99
608.956	2430.17
609.156	2492.95
609.356	2419.9
609.556	2380.18
609.755	2434.82
609.955	2394.33
610.155	2476.28
610.355	2450.13
610.555	2374.57
610.755	2369.92
610.954	2328.26
611.154	2398.59
611.354	2438.89
611.554	2360.03
611.753	2389.1
