Data from gum_old_FLMT105791__15__15-42-37-259.txt Node

Date: Mon Mar 20 15:42:37 GMT 2023
User: antho
Spectrometer: FLMT10579
Trigger mode: 0
Integration Time (sec): 1.000000E-1
Scans to average: 10
Electric dark correction enabled: true
Nonlinearity correction enabled: false
Boxcar width: 0
XAxis mode: Wavelengths
Number of Pixels in Spectrum: 3648
>>>>>Begin Spectral Data<<<<<
345.248	-172.02
345.464	-172.02
345.681	-172.02
345.898	-185.97
346.114	-168.92
346.331	-4.23
346.548	15.34
346.764	-9.85
346.981	-13.53
347.197	-21.09
347.414	0.81
347.631	-11.01
347.847	73.85
348.064	2.55
348.28	21.93
348.497	-49.95
348.713	-4.81
348.93	40.53
349.146	33.94
349.363	11.46
349.579	41.49
349.796	26.19
350.012	14.37
350.229	70.36
350.445	37.04
350.661	6.23
350.878	13.98
351.094	49.44
351.311	51.96
351.527	46.92
351.743	29.29
351.96	17.66
352.176	76.76
352.392	44.21
352.609	59.9
352.825	31.42
353.041	26.19
353.257	8.17
353.474	38.2
353.69	55.64
353.906	41.11
354.122	12.63
354.339	74.43
354.555	15.34
354.771	14.76
354.987	103.11
355.203	79.27
355.42	51.38
355.636	17.86
355.852	9.14
356.068	37.81
356.284	-7.14
356.5	88.19
356.716	50.41
356.932	12.63
357.148	52.73
357.364	14.18
357.58	62.61
357.796	98.84
358.012	91.87
358.228	72.49
358.444	-28.06
358.66	100.59
358.876	37.81
359.092	31.81
359.308	64.36
359.524	65.13
359.74	34.71
359.956	47.89
360.172	30.26
360.388	63.78
360.604	56.8
360.819	125.77
361.035	52.34
361.251	81.6
361.467	50.79
361.683	100.97
361.898	79.47
362.114	63.19
362.33	65.33
362.546	76.56
362.762	45.37
362.977	66.68
363.193	18.63
363.409	82.96
363.624	21.34
363.84	44.98
364.056	58.93
364.271	82.18
364.487	93.81
364.703	49.63
364.918	17.28
365.134	59.13
365.35	56.41
365.565	182.93
365.781	81.02
365.996	90.9
366.212	129.46
366.427	91.48
366.643	82.96
366.858	67.26
367.074	50.21
367.289	144.18
367.505	159.1
367.72	22.51
367.936	70.17
368.151	113.76
368.367	81.6
368.582	77.34
368.798	80.44
369.013	129.26
369.228	74.24
369.444	89.74
369.659	138.76
369.874	98.07
370.09	144.18
370.305	44.98
370.52	53.12
370.736	138.56
370.951	72.69
371.166	124.61
371.381	146.51
371.597	157.36
371.812	67.46
372.027	44.01
372.242	74.24
372.458	182.15
372.673	43.24
372.888	83.54
373.103	102.33
373.318	175.57
373.533	112.6
373.749	90.51
373.964	47.11
374.179	135.46
374.394	64.74
374.609	105.82
374.824	57.38
375.039	121.51
375.254	65.71
375.469	150.38
375.684	95.74
375.899	105.04
376.114	87.22
376.329	84.12
376.544	131.01
376.759	113.18
376.974	98.07
377.189	87.41
377.404	70.75
377.619	143.6
377.834	83.92
378.049	84.51
378.264	78.11
378.478	146.12
378.693	92.26
378.908	126.16
379.123	125.19
379.338	167.04
379.553	155.81
379.767	120.93
379.982	130.62
380.197	119.19
380.412	90.32
380.626	132.56
380.841	185.84
381.056	128.1
381.271	177.31
381.485	102.14
381.7	86.64
381.915	127.13
382.129	76.37
382.344	120.54
382.559	112.6
382.773	150.77
382.988	44.4
383.202	96.13
383.417	75.79
383.632	164.52
383.846	95.55
384.061	111.82
384.275	98.07
384.49	122.29
384.704	156
384.919	112.79
385.133	128.1
385.348	168.79
385.562	99.42
385.777	184.87
385.991	123.26
386.206	119.96
386.42	111.82
386.634	179.83
386.849	171.69
387.063	140.31
387.277	117.06
387.492	126.94
387.706	121.32
387.92	131.78
388.135	162.78
388.349	172.66
388.563	187.19
388.778	148.25
388.992	158.91
389.206	165.3
389.42	204.82
389.635	152.12
389.849	206.37
390.063	240.47
390.277	193.39
390.491	254.23
390.706	221.29
390.92	207.92
391.134	194.94
391.348	205.6
391.562	154.64
391.776	190.29
391.99	184.29
392.205	223.62
392.419	169.95
392.633	189.32
392.847	220.52
393.061	125.58
393.275	188.16
393.489	108.53
393.703	124.03
393.917	161.23
394.131	117.64
394.345	145.73
394.559	180.02
394.773	173.05
394.986	191.84
395.2	197.65
395.414	235.24
395.628	194.94
395.842	255.2
396.056	217.03
396.27	158.13
396.484	226.14
396.697	212.57
396.911	214.12
397.125	135.66
397.339	174.99
397.553	142.82
397.766	217.42
397.98	229.24
398.194	237.37
398.408	225.36
398.621	277.48
398.835	302.67
399.049	283.87
399.262	334.44
399.476	334.25
399.69	341.61
399.903	366.6
400.117	301.5
400.331	335.02
400.544	298.4
400.758	409.81
400.971	343.93
401.185	362.92
401.398	317.39
401.612	391.4
401.826	387.14
402.039	386.56
402.253	347.42
402.466	340.83
402.68	354.78
402.893	371.83
403.106	366.6
403.32	346.06
403.533	379.78
403.747	343.55
403.96	340.83
404.174	374.74
404.387	376.48
404.6	362.15
404.814	408.84
405.027	358.27
405.24	362.53
405.454	351.1
405.667	364.08
405.88	329.02
406.094	361.56
406.307	418.14
406.52	393.34
406.733	324.75
406.947	310.42
407.16	446.04
407.373	431.12
407.586	365.63
407.799	343.74
408.012	394.89
408.226	379.39
408.439	467.35
408.652	380.94
408.865	434.99
409.078	463.28
409.291	431.12
409.504	370.28
409.717	434.99
409.93	450.11
410.143	429.96
410.357	343.93
410.57	331.34
410.783	369.9
410.996	377.45
411.209	390.05
411.421	449.33
411.634	422.98
411.847	441.97
412.06	460.38
412.273	455.73
412.486	478.01
412.699	506.49
412.912	450.3
413.125	493.89
413.338	454.76
413.55	471.61
413.763	441.39
413.976	479.36
414.189	449.72
414.402	451.27
414.615	523.73
414.827	427.63
415.04	521.02
415.253	473.16
415.466	510.94
415.678	532.06
415.891	501.06
416.104	486.14
416.316	476.26
416.529	470.26
416.742	523.54
416.954	566.16
417.167	500.48
417.38	507.46
417.592	517.92
417.805	462.89
418.017	458.44
418.23	502.42
418.442	463.86
418.655	466.96
418.868	507.26
419.08	539.42
419.293	543.3
419.505	524.12
419.718	522.18
419.93	533.61
420.142	495.06
420.355	559.96
420.567	523.34
420.78	513.27
420.992	504.36
421.205	631.65
421.417	506.49
421.629	527.22
421.842	517.53
422.054	518.11
422.266	532.45
422.479	573.33
422.691	511.91
422.903	550.86
423.115	503.78
423.328	516.37
423.54	507.65
423.752	505.13
423.964	522.18
424.177	559.96
424.389	529.35
424.601	622.93
424.813	545.82
425.025	598.32
425.238	584.76
425.45	532.26
425.662	544.85
425.874	827.72
426.086	537.1
426.298	572.94
426.51	555.31
426.722	545.04
426.934	557.64
427.146	581.86
427.358	551.24
427.57	577.4
427.782	522.76
427.994	517.72
428.206	534
428.418	485.18
428.63	591.16
428.842	621.77
429.054	563.84
429.266	604.33
429.478	528.96
429.69	559.77
429.902	489.83
430.114	539.62
430.325	524.51
430.537	482.66
430.749	454.18
430.961	382.1
431.173	456.31
431.384	469.29
431.596	414.65
431.808	516.56
432.02	552.41
432.231	595.81
432.443	714.57
432.655	642.89
432.867	614.02
433.078	617.5
433.29	677.76
433.502	667.3
433.713	704.3
433.925	686.48
434.136	726.97
434.348	600.26
434.56	563.45
434.771	704.88
434.983	565.58
435.194	621.19
435.406	642.89
435.617	687.45
435.829	738.02
436.04	713.22
436.252	733.75
436.463	775.8
436.675	749.06
436.886	751.38
437.098	765.14
437.309	820.36
437.521	727.55
437.732	745.96
437.943	704.3
438.155	737.82
438.366	652.77
438.578	751
438.789	706.24
439	694.03
439.211	677.37
439.423	698.1
439.634	697.13
439.845	749.25
440.057	780.64
440.268	781.22
440.479	737.82
440.69	775.41
440.902	734.72
441.113	706.05
441.324	729.3
441.535	805.63
441.746	854.46
441.957	788
442.168	804.08
442.38	834.7
442.591	841.67
442.802	769.98
443.013	819.97
443.224	872.67
443.435	855.23
443.646	809.9
443.857	829.08
444.068	834.89
444.279	793.04
444.49	925.76
444.701	837.6
444.912	961.6
445.123	902.89
445.334	883.91
445.545	900.76
445.756	826.36
445.967	846.13
446.178	851.16
446.388	839.54
446.599	868.79
446.81	829.85
447.021	859.69
447.232	868.41
447.443	916.26
447.653	844.96
447.864	987.17
448.075	895.34
448.286	990.66
448.496	921.88
448.707	940.48
448.918	887.78
449.129	989.69
449.339	882.55
449.55	941.06
449.761	920.14
449.971	990.86
450.182	892.63
450.393	960.24
450.603	956.76
450.814	980.59
451.024	964.7
451.235	1038.9
451.446	1064.67
451.656	1040.65
451.867	959.27
452.077	968.19
452.288	1043.75
452.498	1007.91
452.709	930.6
452.919	937.19
453.13	887.01
453.34	950.17
453.55	898.63
453.761	941.45
453.971	933.89
454.182	947.07
454.392	968.77
454.602	1008.29
454.813	984.07
455.023	1000.16
455.233	931.76
455.444	980.59
455.654	893.21
455.864	958.11
456.075	949.2
456.285	971.29
456.495	954.82
456.705	1015.46
456.916	1045.69
457.126	1041.23
457.336	1025.15
457.546	941.45
457.756	1005
457.967	1025.73
458.177	1021.86
458.387	982.33
458.597	974
458.807	991.05
459.017	980.39
459.227	988.34
459.437	961.79
459.647	1037.55
459.857	1010.23
460.068	972.84
460.278	1087.54
460.488	1020.89
460.698	1053.44
460.908	1027.28
461.117	976.52
461.327	1020.89
461.537	1064.67
461.747	1081.72
461.957	1061.57
462.167	1138.68
462.377	1108.27
462.587	1059.44
462.797	1135
463.007	1073.39
463.216	1143.53
463.426	1158.25
463.636	1120.86
463.846	1042.2
464.056	1033.48
464.265	1126.87
464.475	1046.27
464.685	1081.92
464.895	1110.4
465.104	1077.65
465.314	1139.07
465.524	1069.52
465.733	1054.4
465.943	1173.17
466.153	1167.17
466.362	1178.79
466.572	1154.57
466.782	1123.57
466.991	1122.99
467.201	1180.73
467.41	1025.34
467.62	1135.58
467.829	1144.5
468.039	1177.82
468.249	1128.8
468.458	1165.23
468.668	1146.82
468.877	1169.49
469.086	1209.79
469.296	1214.25
469.505	1153.99
469.715	1265.78
469.924	1204.75
470.134	1207.85
470.343	1246.41
470.552	1212.31
470.762	1201.46
470.971	1164.65
471.18	1201.46
471.39	1200.88
471.599	1150.31
471.808	1250.86
472.018	1253.58
472.227	1305.89
472.436	1322.55
472.645	1322.94
472.855	1267.53
473.064	1362.85
473.273	1342.51
473.482	1289.42
473.691	1360.72
473.901	1351.03
474.11	1286.32
474.319	1396.95
474.528	1326.81
474.737	1418.84
474.946	1389.01
475.155	1397.34
475.364	1446.16
475.573	1432.79
475.783	1465.73
475.992	1421.75
476.201	1472.32
476.41	1470.19
476.619	1407.61
476.828	1433.76
477.037	1409.16
477.245	1408.38
477.454	1475.03
477.663	1458.37
477.872	1487.24
478.081	1567.83
478.29	1494.6
478.499	1622.67
478.708	1575
478.917	1670.91
479.125	1505.06
479.334	1507.97
479.543	1553.5
479.752	1587.79
479.961	1553.89
480.169	1623.44
480.378	1609.68
480.587	1740.46
480.796	1642.82
481.004	1646.11
481.213	1655.02
481.422	1669.36
481.63	1702.3
481.839	1744.73
482.048	1780.57
482.256	1709.46
482.465	1764.68
482.674	1775.92
482.882	1800.72
483.091	1828.62
483.299	1742.21
483.508	1794.33
483.716	1763.13
483.925	1818.74
484.134	1744.73
484.342	1780.18
484.551	1822.42
484.759	1819.32
484.967	1864.27
485.176	1897.98
485.384	1852.84
485.593	1907.47
485.801	1829.39
486.01	1750.73
486.218	1700.55
486.426	1602.32
486.635	1578.88
486.843	1569
487.051	1635.26
487.26	1623.44
487.468	1698.03
487.676	1756.74
487.885	1743.18
488.093	1823.19
488.301	1900.5
488.509	1886.74
488.717	1959.4
488.926	1933.05
489.134	1869.31
489.342	1923.94
489.55	1860.59
489.758	1911.35
489.967	1947.58
490.175	2072.35
490.383	2020.62
490.591	2102.58
490.799	2012.48
491.007	2092.31
491.215	2023.53
491.423	2029.34
491.631	2029.53
491.839	1981.49
492.047	2015.58
492.255	1940.99
492.463	1914.45
492.671	1938.86
492.879	2025.66
493.087	1982.07
493.295	2039.8
493.503	2066.73
493.711	2145.78
493.919	2146.75
494.127	2133.77
494.334	2073.9
494.542	2012.48
494.75	2147.53
494.958	2119.43
495.166	2202.36
495.374	2184.34
495.581	2195.77
495.789	2210.88
495.997	2245.56
496.205	2158.96
496.412	2146.75
496.62	2164.96
496.828	2165.74
497.035	2195.77
497.243	2222.89
497.451	2205.65
497.658	2241.3
497.866	2211.85
498.074	2268.62
498.281	2211.46
498.489	2278.69
498.696	2185.31
498.904	2133.96
499.112	2137.45
499.319	2259.9
499.527	2225.03
499.734	2252.34
499.942	2151.6
500.149	2218.63
500.357	2214.76
500.564	2195.77
500.771	2177.17
500.979	2155.66
501.186	2103.93
501.394	2223.09
501.601	2156.83
501.808	2192.86
502.016	2186.47
502.223	2142.88
502.43	2195.58
502.638	2184.34
502.845	2151.98
503.052	2276.95
503.26	2211.66
503.467	2324.42
503.674	2259.51
503.881	2270.36
504.089	2305.04
504.296	2331.97
504.503	2194.41
504.71	2211.08
504.917	2179.88
505.125	2254.67
505.332	2275.21
505.539	2265.71
505.746	2373.63
505.953	2358.71
506.16	2392.23
506.367	2401.34
506.574	2453.26
506.781	2439.89
506.988	2334.11
507.195	2337.01
507.402	2368.4
507.609	2409.67
507.816	2296.71
508.023	2321.32
508.23	2307.76
508.437	2229.29
508.644	2306.59
508.851	2347.28
509.058	2406.57
509.265	2341.66
509.472	2374.21
509.679	2484.65
509.885	2395.52
510.092	2417.22
510.299	2410.05
510.506	2354.45
510.713	2358.32
510.92	2354.45
511.126	2382.15
511.333	2434.08
511.54	2428.46
511.746	2504.22
511.953	2465.27
512.16	2479.8
512.367	2442.6
512.573	2440.08
512.78	2440.28
512.987	2468.18
513.193	2378.67
513.4	2305.43
513.606	2394.75
513.813	2447.06
514.02	2398.24
514.226	2470.7
514.433	2502.67
514.639	2388.74
514.846	2397.07
515.052	2374.79
515.259	2389.9
515.465	2450.55
515.672	2419.55
515.878	2534.25
516.085	2439.89
516.291	2505.77
516.497	2468.37
516.704	2392.04
516.91	2329.07
517.117	2235.68
517.323	2169.03
517.529	2196.54
517.736	2174.26
517.942	2171.36
518.148	2214.95
518.354	2301.36
518.561	2291.29
518.767	2281.41
518.973	2329.65
519.179	2354.06
519.386	2303.11
519.592	2313.96
519.798	2346.89
520.004	2444.54
520.21	2448.61
520.417	2508.67
520.623	2566.41
520.829	2529.98
521.035	2508.48
521.241	2528.82
521.447	2519.71
521.653	2666.77
521.859	2567.96
522.065	2586.75
522.271	2664.44
522.477	2624.34
522.683	2692.34
522.889	2585.59
523.095	2580.75
523.301	2622.98
523.507	2496.08
523.713	2570.48
523.919	2552.65
524.125	2649.72
524.331	2640.81
524.537	2744.46
524.742	2727.61
524.948	2749.69
525.154	2731.87
525.36	2837.46
525.566	2769.07
525.772	2805.69
525.977	2714.04
526.183	2775.66
526.389	2787.86
526.595	2694.09
526.8	2699.51
527.006	2569.51
527.212	2509.06
527.417	2542.77
527.623	2482.32
527.829	2555.36
528.034	2653.79
528.24	2620.27
528.446	2630.34
528.651	2808.98
528.857	2752.41
529.062	2864.59
529.268	2878.15
529.473	2853.35
529.679	2893.45
529.884	2990.71
530.09	2915.73
530.295	2889.58
530.501	2870.59
530.706	2920
530.912	2854.12
531.117	2893.45
531.323	2893.84
531.528	2994.98
531.733	3011.25
531.939	2957.39
532.144	2951.38
532.35	2954.68
532.555	2952.74
532.76	2930.46
532.966	2922.9
533.171	2856.25
533.376	2836.69
533.581	2792.7
533.787	2855.09
533.992	2941.89
534.197	2944.22
534.402	2937.63
534.607	2926.58
534.813	3021.13
535.018	2924.65
535.223	2957.97
535.428	2938.79
535.633	3031.98
535.838	3038.38
536.043	3018.61
536.249	3133.12
536.454	3074.61
536.659	3093.79
536.864	3011.83
537.069	2992.85
537.274	3045.54
537.479	3014.16
537.684	2991.68
537.889	2957.97
538.094	3087.78
538.299	3026.56
538.504	3047.29
538.708	3020.75
538.913	3107.16
539.118	3040.31
539.323	3044.19
539.528	3012.41
539.733	2996.72
539.938	3017.06
540.142	3028.88
540.347	2994.59
540.552	2914.96
540.757	2945.57
540.962	2955.07
541.166	2948.67
541.371	2883.18
541.576	2925.81
541.781	2876.79
541.985	3003.7
542.19	2971.92
542.395	3082.74
542.599	3136.99
542.804	3046.32
543.008	3107.35
543.213	3071.89
543.418	3002.92
543.622	3037.8
543.827	2963.98
544.031	3081
544.236	3065.89
544.44	3094.76
544.645	3146.1
544.849	3058.53
545.054	3136.8
545.258	3166.83
545.463	3139.32
545.667	3051.74
545.872	3135.44
546.076	3120.53
546.281	3095.73
546.485	3059.88
546.689	3147.07
546.894	3151.14
547.098	3123.82
547.302	3071.89
547.507	3110.45
547.711	3127.31
547.915	3111.42
548.119	3003.11
548.324	3012.41
548.528	3141.84
548.732	3096.5
548.936	3126.73
549.141	3121.11
549.345	3059.88
549.549	3110.84
549.753	3114.33
549.957	3199.19
550.161	3172.45
550.366	3127.69
550.57	3090.69
550.774	3060.08
550.978	3076.54
551.182	3135.64
551.386	3082.74
551.59	3081.58
551.794	3062.98
551.998	3088.94
552.202	3112.58
552.406	3077.71
552.61	3141.64
552.814	3118.98
553.018	3109.29
553.222	3052.52
553.426	3074.22
553.63	3177.87
553.833	3051.94
554.037	3004.86
554.241	3093.4
554.445	3055.43
554.649	3085.07
554.853	3064.73
555.056	3097.47
555.26	3149.01
555.464	3109.09
555.668	3114.52
555.871	3116.26
556.075	3131.96
556.279	3074.41
556.483	3043.99
556.686	3071.51
556.89	3091.66
557.094	3059.49
557.297	2998.08
557.501	3055.04
557.704	2951
557.908	3042.25
558.112	2991.68
558.315	3043.41
558.519	2985.48
558.722	2979.28
558.926	2995.95
559.129	2866.14
559.333	2880.47
559.536	2915.93
559.74	2894.42
559.943	2809.37
560.147	2857.22
560.35	2873.3
560.553	2922.71
560.757	2882.6
560.96	2941.5
561.164	2912.63
561.367	3028.3
561.57	2965.33
561.774	2944.99
561.977	2922.52
562.18	2893.26
562.384	3045.93
562.587	2931.82
562.79	2919.8
562.993	2919.03
563.197	2888.22
563.4	3000.01
563.603	2957.58
563.806	3016.1
564.009	2925.62
564.212	2925.42
564.416	2854.32
564.619	2925.62
564.822	2826.42
565.025	2958.55
565.228	2895.39
565.431	2917.28
565.634	2783.21
565.837	2837.07
566.04	2779.92
566.243	2784.18
566.446	2722.76
566.649	2816.54
566.852	2750.47
567.055	2772.36
567.258	2849.67
567.461	2871.37
567.664	2875.63
567.867	2732.06
568.07	2762.87
568.273	2816.54
568.475	2874.66
568.678	2780.5
568.881	2772.94
569.084	2749.5
569.287	2650.88
569.489	2711.14
569.692	2698.35
569.895	2741.17
570.098	2674.52
570.3	2637.32
570.503	2611.36
570.706	2614.46
570.909	2669.29
571.111	2553.62
571.314	2502.28
571.516	2589.46
571.719	2578.42
571.922	2571.64
572.124	2559.43
572.327	2628.41
572.529	2562.34
572.732	2571.83
572.935	2605.74
573.137	2668.32
573.34	2596.25
573.542	2670.45
573.745	2591.98
573.947	2638.09
574.15	2583.26
574.352	2575.9
574.554	2628.41
574.757	2555.95
574.959	2527.46
575.162	2582.49
575.364	2555.95
575.566	2592.95
575.769	2469.15
575.971	2530.95
576.173	2388.74
576.376	2502.28
576.578	2503.25
576.78	2564.66
576.982	2420.9
577.185	2494.53
577.387	2432.72
577.589	2462.95
577.791	2488.33
577.993	2496.85
578.196	2479.8
578.398	2482.9
578.6	2435.63
578.802	2379.25
579.004	2387.97
579.206	2374.99
579.408	2445.32
579.61	2353.67
579.812	2477.48
580.014	2382.54
580.216	2437.37
580.418	2430.4
580.62	2406.95
580.822	2402.89
581.024	2461.01
581.226	2485.62
581.428	2419.74
581.63	2528.05
581.832	2387
582.034	2478.83
582.236	2446.87
582.438	2466.05
582.64	2508.28
582.841	2560.01
583.043	2542.19
583.245	2481.93
583.447	2509.64
583.649	2487.75
583.85	2476.12
584.052	2477.28
584.254	2442.41
584.456	2496.85
584.657	2424.39
584.859	2480.77
585.061	2456.94
585.262	2416.25
585.464	2376.73
585.666	2473.99
585.867	2406.37
586.069	2439.89
586.27	2400.95
586.472	2390.1
586.674	2357.55
586.875	2351.54
587.077	2385.25
587.278	2343.02
587.48	2402.11
587.681	2487.94
587.883	2412.38
588.084	2302.91
588.285	2382.54
588.487	2345.92
588.688	2356.97
588.89	2260.29
589.091	2205.26
589.292	2226.77
589.494	2133.38
589.695	2114.4
589.896	2009.58
590.098	2018.68
590.299	2095.99
590.5	2113.62
590.702	2141.71
590.903	2179.49
591.104	2236.26
591.305	2230.84
591.507	2278.11
591.708	2235.49
591.909	2222.31
592.11	2288.38
592.311	2249.63
592.512	2214.76
592.714	2155.86
592.915	2193.25
593.116	2207.98
593.317	2255.25
593.518	2205.07
593.719	2248.08
593.92	2238.59
594.121	2289.35
594.322	2231.23
594.523	2232.19
594.724	2172.71
594.925	2214.56
595.126	2185.89
595.327	2223.09
595.528	2199.06
595.729	2207.78
595.929	2181.63
596.13	2174.84
596.331	2200.81
596.532	2188.6
596.733	2271.14
596.934	2263.39
597.135	2220.96
597.335	2232.78
597.536	2165.74
597.737	2230.06
597.938	2187.05
598.138	2177.36
598.339	2182.21
598.54	2220.76
598.74	2149.08
598.941	2193.25
599.142	2238.78
599.342	2160.51
599.543	2137.84
599.744	2157.8
599.944	2175.62
600.145	2158.76
600.345	2191.12
600.546	2225.03
600.746	2203.91
600.947	2259.32
601.147	2190.15
601.348	2216.11
601.548	2134.35
601.749	2167.48
601.949	2101.22
602.15	2136.29
602.35	2153.15
602.551	2159.73
602.751	2113.81
602.951	2143.07
603.152	2072.16
603.352	2182.4
603.552	2154.5
603.753	2180.46
603.953	2207.78
604.153	2193.44
604.354	2131.45
604.554	2158.18
604.754	2178.72
604.954	2130.86
605.155	2207.2
605.355	2137.26
605.555	2171.74
605.755	2198.68
605.955	2165.74
606.155	2189.76
606.356	2183.95
606.556	2164
606.756	2159.73
606.956	2083.01
607.156	2220.18
607.356	2103.93
607.556	2163.22
607.756	2124.47
607.956	2218.44
608.156	2142.1
608.356	2119.24
608.556	2181.24
608.756	2116.14
608.956	2097.35
609.156	2150.43
609.356	2101.03
609.556	2084.36
609.755	2116.33
609.955	2085.53
610.155	2087.66
610.355	2093.28
610.555	2088.63
610.755	2076.42
610.954	2014.23
611.154	2114.98
611.354	2124.28
611.554	2031.08
611.753	2049.68
611.953	2021.01
612.153	2084.95
612.352	2093.66
612.552	2011.52
612.752	2005.32
