Data from gum_old_FLMT105791__155__15-47-42-250.txt Node

Date: Mon Mar 20 15:47:42 GMT 2023
User: antho
Spectrometer: FLMT10579
Trigger mode: 0
Integration Time (sec): 1.000000E-1
Scans to average: 10
Electric dark correction enabled: true
Nonlinearity correction enabled: false
Boxcar width: 0
XAxis mode: Wavelengths
Number of Pixels in Spectrum: 3648
>>>>>Begin Spectral Data<<<<<
345.248	-179.54
345.464	-179.54
345.681	-179.54
345.898	-185.55
346.114	-173.73
346.331	-26.48
346.548	30.48
346.764	-16.6
346.981	-9.82
347.197	-8.65
347.414	5.88
347.631	-6.91
347.847	69.81
348.064	20.8
348.28	3.16
348.497	-55.15
348.713	-6.52
348.93	10.72
349.146	2.2
349.363	-8.85
349.579	-1.68
349.796	2.2
350.012	12.27
350.229	51.41
350.445	28.74
350.661	-31.32
350.878	0.26
351.094	22.93
351.311	58
351.527	29.32
351.743	-2.26
351.96	30.68
352.176	65.55
352.392	17.31
352.609	23.9
352.825	14.6
353.041	20.21
353.257	6.07
353.474	18.47
353.69	26.22
353.906	13.63
354.122	2
354.339	51.6
354.555	16.34
354.771	-12.14
354.987	95.78
355.203	62.26
355.42	3.36
355.636	-5.75
355.852	4.71
356.068	44.43
356.284	-15.82
356.5	64.78
356.716	47.92
356.932	4.52
357.148	37.07
357.364	4.91
357.58	64.97
357.796	79.69
358.012	53.15
358.228	34.55
358.444	-45.08
358.66	65.74
358.876	15.76
359.092	-30.74
359.308	32.23
359.524	48.31
359.74	33.39
359.956	-1.29
360.172	32.61
360.388	55.09
360.604	9.56
360.819	112.44
361.035	28.35
361.251	75.63
361.467	7.04
361.683	88.22
361.898	55.67
362.114	66.33
362.33	32.23
362.546	76.4
362.762	6.07
362.977	21.18
363.193	15.18
363.409	47.92
363.624	5.3
363.84	-11.56
364.056	12.66
364.271	30.29
364.487	60.32
364.703	25.06
364.918	20.8
365.134	33
365.35	15.95
365.565	133.75
365.781	42.3
365.996	51.8
366.212	110.11
366.427	74.66
366.643	21.18
366.858	42.69
367.074	15.76
367.289	115.73
367.505	144.41
367.72	7.62
367.936	36.49
368.151	80.66
368.367	72.91
368.582	83.38
368.798	41.14
369.013	99.07
369.228	59.54
369.444	53.93
369.659	105.27
369.874	77.76
370.09	83.57
370.305	-0.9
370.52	30.68
370.736	68.46
370.951	65.55
371.166	92.09
371.381	124.06
371.597	100.43
371.812	12.08
372.027	20.99
372.242	43.27
372.458	131.04
372.673	48.7
372.888	37.07
373.103	67.29
373.318	135.69
373.533	79.11
373.749	66.13
373.964	2.58
374.179	91.51
374.394	26.41
374.609	89.96
374.824	11.5
375.039	105.85
375.254	28.16
375.469	111.66
375.684	65.74
375.899	88.99
376.114	47.92
376.329	48.5
376.544	94.03
376.759	93.84
376.974	51.8
377.189	62.45
377.404	31.26
377.619	77.18
377.834	4.52
378.049	15.76
378.264	30.48
378.478	83.38
378.693	71.17
378.908	105.46
379.123	56.45
379.338	137.43
379.553	63.42
379.767	57.03
379.982	91.71
380.197	92.87
380.412	49.86
380.626	95.39
380.841	147.12
381.056	109.14
381.271	146.54
381.485	32.42
381.7	45.98
381.915	99.07
382.129	39.01
382.344	49.86
382.559	49.86
382.773	115.93
382.988	6.85
383.202	45.6
383.417	7.04
383.632	193.23
383.846	37.07
384.061	66.33
384.275	47.15
384.49	81.24
384.704	94.23
384.919	89.96
385.133	88.22
385.348	92.09
385.562	28.35
385.777	100.43
385.991	86.09
386.206	74.85
386.42	51.99
386.634	135.11
386.849	101.59
387.063	78.73
387.277	57.8
387.492	58
387.706	73.3
387.92	31.06
388.135	111.66
388.349	95.39
388.563	81.44
388.778	66.71
388.992	104.3
389.206	125.23
389.42	174.05
389.635	76.21
389.849	130.65
390.063	137.43
390.277	114.38
390.491	157.19
390.706	115.73
390.92	146.15
391.134	112.05
391.348	130.46
391.562	58.19
391.776	100.04
391.99	85.89
392.205	152.16
392.419	91.51
392.633	96.94
392.847	134.33
393.061	77.95
393.275	166.69
393.489	82.21
393.703	96.94
393.917	93.84
394.131	50.05
394.345	93.26
394.559	128.33
394.773	91.71
394.986	139.76
395.2	126.19
395.414	142.66
395.628	88.03
395.842	129.68
396.056	104.3
396.27	65.16
396.484	117.86
396.697	118.25
396.911	147.12
397.125	123.29
397.339	113.41
397.553	118.25
397.766	179.47
397.98	148.09
398.194	180.44
398.408	126.78
398.621	186.06
398.835	178.7
399.049	161.07
399.262	191.1
399.476	187.03
399.69	222.1
399.903	237.02
400.117	192.46
400.331	209.12
400.544	158.16
400.758	302.7
400.971	237.99
401.185	202.14
401.398	171.34
401.612	250.19
401.826	233.72
402.039	247.48
402.253	184.71
402.466	229.07
402.68	208.73
402.893	242.83
403.106	232.17
403.32	206.99
403.533	237.02
403.747	211.06
403.96	213.19
404.174	243.22
404.387	180.44
404.6	214.93
404.814	272.86
405.027	239.34
405.24	196.72
405.454	187.81
405.667	275.77
405.88	155.64
406.094	238.76
406.307	272.67
406.52	223.07
406.733	197.11
406.947	155.45
407.16	278.67
407.373	254.26
407.586	241.09
407.799	156.61
408.012	264.53
408.226	232.95
408.439	309.87
408.652	212.02
408.865	256.2
409.078	310.06
409.291	293.59
409.504	227.72
409.717	254.65
409.93	258.91
410.143	263.75
410.357	199.24
410.57	201.56
410.783	233.14
410.996	258.14
411.209	244.19
411.421	285.07
411.634	261.04
411.847	240.89
412.06	278.48
412.273	287.59
412.486	316.65
412.699	367.22
412.912	281
413.125	297.85
413.338	282.74
413.55	291.46
413.763	286.23
413.976	295.14
414.189	247.87
414.402	291.85
414.615	348.23
414.827	236.82
415.04	344.16
415.253	298.44
415.466	330.21
415.678	350.36
415.891	321.3
416.104	315.87
416.316	295.14
416.529	273.44
416.742	338.73
416.954	330.02
417.167	296.3
417.38	289.14
417.592	351.13
417.805	271.5
418.017	248.45
418.23	321.3
418.442	258.14
418.655	283.71
418.868	325.75
419.08	348.23
419.293	339.9
419.505	316.84
419.718	361.98
419.93	340.48
420.142	315.1
420.355	361.21
420.567	369.73
420.78	344.16
420.992	307.54
421.205	392.4
421.417	300.76
421.629	305.41
421.842	293.4
422.054	277.9
422.266	386.59
422.479	390.66
422.691	306.96
422.903	359.27
423.115	331.57
423.328	306.57
423.54	331.57
423.752	328.85
423.964	317.04
424.177	346.1
424.389	342.8
424.601	458.66
424.813	360.63
425.025	381.75
425.238	398.99
425.45	326.33
425.662	343.97
425.874	689.61
426.086	358.11
426.298	367.22
426.51	365.28
426.722	355.01
426.934	327.69
427.146	394.15
427.358	315.87
427.57	393.18
427.782	331.18
427.994	343.77
428.206	304.83
428.418	329.82
428.63	400.35
428.842	409.06
429.054	376.32
429.266	408.68
429.478	354.82
429.69	355.2
429.902	300.37
430.114	388.53
430.325	345.9
430.537	290.69
430.749	315.49
430.961	243.41
431.173	269.37
431.384	299.21
431.596	229.85
431.808	309.87
432.02	390.27
432.231	424.76
432.443	453.24
432.655	423.21
432.867	361.21
433.078	438.13
433.29	479.4
433.502	448.78
433.713	451.5
433.925	429.99
434.136	477.85
434.348	361.02
434.56	358.69
434.771	510.78
434.983	355.4
435.194	408.87
435.406	438.13
435.617	510.98
435.829	529.77
436.04	489.08
436.252	472.42
436.463	500.13
436.675	504.97
436.886	506.91
437.098	517.76
437.309	564.26
437.521	483.27
437.732	498.38
437.943	466.61
438.155	506.13
438.366	444.33
438.578	539.65
438.789	473.58
439	473.39
439.211	457.7
439.423	469.32
439.634	486.56
439.845	512.53
440.057	497.41
440.268	540.04
440.479	490.25
440.69	497.41
440.902	464.86
441.113	490.83
441.324	467.77
441.535	524.73
441.746	592.74
441.957	484.43
442.168	538.68
442.38	559.99
442.591	565.42
442.802	506.91
443.013	519.5
443.224	563.68
443.435	538.29
443.646	518.14
443.857	530.35
444.068	523.96
444.279	519.69
444.49	623.74
444.701	547.4
444.912	666.94
445.123	590.02
445.334	576.66
445.545	616.57
445.756	588.86
445.967	533.06
446.178	560.58
446.388	604.56
446.599	587.89
446.81	606.88
447.021	541.98
447.232	624.71
447.443	657.64
447.653	586.54
447.864	636.91
448.075	611.14
448.286	664.42
448.496	613.86
448.707	654.54
448.918	620.83
449.129	690.97
449.339	570.26
449.55	647.96
449.761	614.63
449.971	656.29
450.182	588.28
450.393	666.94
450.603	588.09
450.814	663.65
451.024	677.6
451.235	712.47
451.446	695.04
451.656	693.49
451.867	628.97
452.077	653.38
452.288	732.04
452.498	721
452.709	651.83
452.919	671.98
453.13	600.49
453.34	652.61
453.55	570.65
453.761	652.99
453.971	664.42
454.182	668.88
454.392	651.44
454.602	769.63
454.813	687.48
455.023	711.89
455.233	615.02
455.444	674.11
455.654	579.56
455.864	680.12
456.075	668.49
456.285	662.68
456.495	633.81
456.705	704.72
456.916	737.27
457.126	752.77
457.336	708.4
457.546	582.86
457.756	668.11
457.967	744.05
458.177	676.44
458.387	696.59
458.597	645.05
458.807	667.14
459.017	645.63
459.227	655.9
459.437	652.22
459.647	734.37
459.857	737.85
460.068	685.74
460.278	748.51
460.488	699.1
460.698	769.82
460.908	679.92
461.117	662.1
461.327	709.76
461.537	776.41
461.747	714.22
461.957	724.1
462.167	851.2
462.377	779.51
462.587	732.82
462.797	806.25
463.007	729.14
463.216	758.97
463.426	810.32
463.636	794.23
463.846	685.54
464.056	733.4
464.265	773.89
464.475	717.51
464.685	751.22
464.895	788.42
465.104	719.25
465.314	776.22
465.524	718.09
465.733	742.7
465.943	846.35
466.153	849.06
466.362	789.2
466.572	789.39
466.782	753.74
466.991	791.91
467.201	807.41
467.41	709.18
467.62	760.33
467.829	751.22
468.039	812.06
468.249	784.35
468.458	794.23
468.668	836.08
468.877	826.01
469.086	884.13
469.296	858.75
469.505	813.22
469.715	860.11
469.924	836.08
470.134	886.46
470.343	874.45
470.552	823.1
470.762	844.8
470.971	790.17
471.18	805.67
471.39	807.22
471.599	823.1
471.808	884.52
472.018	801.4
472.227	903.12
472.436	916.1
472.645	873.28
472.855	888.2
473.064	1005.61
473.273	921.53
473.482	919.78
473.691	966.09
473.901	947.68
474.11	892.85
474.319	1021.89
474.528	948.46
474.737	1008.33
474.946	985.46
475.155	969.77
475.364	1023.63
475.573	1000.38
475.783	1003.29
475.992	996.31
476.201	1040.1
476.41	987.21
476.619	958.73
476.828	1007.36
477.037	988.76
477.245	989.14
477.454	1029.44
477.663	1003.68
477.872	1027.51
478.081	1118.18
478.29	1018.79
478.499	1155.77
478.708	1100.74
478.917	1167.97
479.125	1068.77
479.334	1088.92
479.543	1084.66
479.752	1119.54
479.961	1074.39
480.169	1142.98
480.378	1098.42
480.587	1248.77
480.796	1152.67
481.004	1152.28
481.213	1163.71
481.422	1188.7
481.63	1166.04
481.839	1218.15
482.048	1266.78
482.256	1168.94
482.465	1220.67
482.674	1244.31
482.882	1258.65
483.091	1312.51
483.299	1243.92
483.508	1269.88
483.716	1237.53
483.925	1271.24
484.134	1201.68
484.342	1276.08
484.551	1286.74
484.759	1303.4
484.967	1299.91
485.176	1323.75
485.384	1296.62
485.593	1337.31
485.801	1323.94
486.01	1219.12
486.218	1207.69
486.426	1115.85
486.635	1147.63
486.843	1104.62
487.051	1120.89
487.26	1134.26
487.468	1185.99
487.676	1241.98
487.885	1176.89
488.093	1255.93
488.301	1302.63
488.509	1302.63
488.717	1379.54
488.926	1345.64
489.134	1299.72
489.342	1328.98
489.55	1290.61
489.758	1303.79
489.967	1325.49
490.175	1450.65
490.383	1398.34
490.591	1506.26
490.799	1379.74
491.007	1451.23
491.215	1448.33
491.423	1402.41
491.631	1449.68
491.839	1438.25
492.047	1407.44
492.255	1383.61
492.463	1323.36
492.671	1350.29
492.879	1419.26
493.087	1445.23
493.295	1445.03
493.503	1458.21
493.711	1522.34
493.919	1505.29
494.127	1501.22
494.334	1516.91
494.542	1451.62
494.75	1501.61
494.958	1474.09
495.166	1552.17
495.374	1539.97
495.581	1545.2
495.789	1535.9
495.997	1611.46
496.205	1521.76
496.412	1489.98
496.62	1517.88
496.828	1563.02
497.035	1537.84
497.243	1565.35
497.451	1552.75
497.658	1586.66
497.866	1554.5
498.074	1645.56
498.281	1545
498.489	1667.65
498.696	1580.65
498.904	1532.22
499.112	1496.76
499.319	1646.53
499.527	1551.01
499.734	1628.12
499.942	1531.06
500.149	1557.21
500.357	1617.85
500.564	1543.26
500.771	1578.14
500.979	1520.4
501.186	1504.9
501.394	1602.16
501.601	1520.01
501.808	1578.52
502.016	1568.06
502.223	1570.58
502.43	1571.74
502.638	1528.92
502.845	1551.4
503.052	1670.94
503.26	1586.27
503.467	1695.74
503.674	1634.52
503.881	1643.82
504.089	1719.96
504.296	1653.5
504.503	1563.99
504.71	1601.97
504.917	1552.17
505.125	1631.61
505.332	1637.23
505.539	1672.3
505.746	1758.9
505.953	1710.85
506.16	1713.18
506.367	1779.44
506.574	1804.24
506.781	1765.68
506.988	1724.22
507.195	1731
507.402	1718.41
507.609	1751.93
507.816	1691.87
508.023	1681.21
508.23	1720.15
508.437	1639.75
508.644	1726.16
508.851	1779.83
509.058	1775.56
509.265	1760.65
509.472	1783.51
509.679	1850.16
509.885	1763.16
510.092	1777.89
510.299	1769.95
510.506	1782.93
510.713	1750.57
510.92	1783.31
511.126	1824.39
511.333	1888.91
511.54	1804.82
511.746	1870.11
511.953	1899.56
512.16	1911.38
512.367	1803.08
512.573	1793.78
512.78	1811.21
512.987	1840.47
513.193	1805.4
513.4	1714.73
513.606	1802.88
513.813	1845.31
514.02	1824.97
514.226	1869.14
514.433	1862.56
514.639	1766.85
514.846	1824.39
515.052	1799.98
515.259	1850.16
515.465	1879.22
515.672	1864.3
515.878	1939.86
516.085	1890.46
516.291	1906.54
516.497	1853.64
516.704	1852.68
516.91	1779.44
517.117	1727.9
517.323	1647.88
517.529	1661.06
517.736	1698.84
517.942	1670.94
518.148	1752.7
518.354	1754.64
518.561	1795.91
518.767	1777.11
518.973	1829.23
519.179	1845.7
519.386	1796.3
519.592	1809.08
519.798	1846.09
520.004	1951.29
520.21	1893.36
520.417	1999.73
520.623	2030.54
520.829	2015.04
521.035	1988.49
521.241	2025.69
521.447	2024.34
521.653	2148.92
521.859	2025.69
522.065	2051.27
522.271	2165
522.477	2108.62
522.683	2166.35
522.889	2087.88
523.095	2072.19
523.301	2111.13
523.507	2057.85
523.713	2110.17
523.919	2021.04
524.125	2148.72
524.331	2132.06
524.537	2260.32
524.742	2260.51
524.948	2245.79
525.154	2248.89
525.36	2362.62
525.566	2228.55
525.772	2346.92
525.977	2237.07
526.183	2248.69
526.389	2315.34
526.595	2202.78
526.8	2236.1
527.006	2121.98
527.212	2078.58
527.417	2056.89
527.623	2023.95
527.829	2107.84
528.034	2171.39
528.24	2195.61
528.446	2186.5
528.651	2308.95
528.857	2280.28
529.062	2354.67
529.268	2347.7
529.473	2413.57
529.679	2354.29
529.884	2459.3
530.09	2414.74
530.295	2424.23
530.501	2453.29
530.706	2407.57
530.912	2373.66
531.117	2443.41
531.323	2444.19
531.528	2487.78
531.733	2487.59
531.939	2442.25
532.144	2511.8
532.35	2472.09
532.555	2534.47
532.76	2459.88
532.966	2384.71
533.171	2414.16
533.376	2368.24
533.581	2312.24
533.787	2408.34
533.992	2462.59
534.197	2443.22
534.402	2432.75
534.607	2479.64
534.813	2526.72
535.018	2440.7
535.223	2443.41
535.428	2508.51
535.633	2537.96
535.838	2547.26
536.043	2567.41
536.249	2662.93
536.454	2536.22
536.659	2585.43
536.864	2539.32
537.069	2555.59
537.274	2537.38
537.479	2546.1
537.684	2563.53
537.889	2483.32
538.094	2630.38
538.299	2528.47
538.504	2552.3
538.708	2590.47
538.913	2649.36
539.118	2597.44
539.323	2628.63
539.528	2544.16
539.733	2573.61
539.938	2574.58
540.142	2589.3
540.347	2570.32
540.552	2527.69
540.757	2514.32
540.962	2485.65
541.166	2471.7
541.371	2470.73
541.576	2488.17
541.781	2425.39
541.985	2560.82
542.19	2537.18
542.395	2647.62
542.599	2644.52
542.804	2597.25
543.008	2642.78
543.213	2570.7
543.418	2526.53
543.622	2636
543.827	2497.27
544.031	2611.58
544.236	2646.07
544.44	2677.85
544.645	2704.19
544.849	2623.21
545.054	2680.36
545.258	2753.41
545.463	2746.04
545.667	2598.8
545.872	2704.19
546.076	2702.26
546.281	2639.48
546.485	2644.13
546.689	2652.66
546.894	2701.48
547.098	2646.65
547.302	2587.75
547.507	2677.46
547.711	2659.63
547.915	2713.88
548.119	2623.6
548.324	2629.8
548.528	2702.26
548.732	2665.64
548.936	2685.79
549.141	2716.4
549.345	2660.99
549.549	2678.23
549.753	2710.2
549.957	2782.27
550.161	2784.41
550.366	2744.69
550.57	2698.96
550.774	2724.15
550.978	2685.79
551.182	2691.99
551.386	2696.64
551.59	2670.87
551.794	2666.61
551.998	2743.53
552.202	2631.73
552.406	2675.91
552.61	2750.11
552.814	2686.56
553.018	2758.64
553.222	2675.91
553.426	2742.17
553.63	2775.49
553.833	2664.48
554.037	2641.42
554.241	2689.66
554.445	2736.94
554.649	2709.81
554.853	2695.09
555.056	2723.38
555.26	2768.91
555.464	2718.73
555.668	2731.51
555.871	2758.25
556.075	2759.22
556.279	2704.97
556.483	2649.75
556.686	2666.03
556.89	2694.7
557.094	2686.56
557.297	2565.47
557.501	2684.43
557.704	2581.75
557.908	2676.68
558.112	2588.33
558.315	2660.41
558.519	2648.98
558.722	2618.95
558.926	2599.76
559.129	2519.36
559.333	2505.22
559.536	2528.08
559.74	2475.57
559.943	2496.69
560.147	2486.62
560.35	2472.47
560.553	2499.21
560.757	2476.74
560.96	2570.7
561.164	2516.26
561.367	2616.23
561.57	2522.27
561.774	2569.35
561.977	2537.96
562.18	2444.96
562.384	2597.44
562.587	2491.65
562.79	2481.97
562.993	2496.89
563.197	2511.8
563.4	2578.65
563.603	2535.63
563.806	2591.05
564.009	2494.37
564.212	2538.15
564.416	2440.12
564.619	2506.38
564.822	2420.35
565.025	2489.52
565.228	2439.92
565.431	2479.45
565.634	2367.27
565.837	2473.05
566.04	2382.38
566.243	2388.97
566.446	2265.36
566.649	2442.64
566.852	2296.16
567.055	2343.82
567.258	2381.02
567.461	2463.17
567.664	2442.05
567.867	2373.66
568.07	2392.07
568.273	2363.97
568.475	2430.62
568.678	2314.76
568.881	2347.31
569.084	2360.29
569.287	2227.77
569.489	2245.79
569.692	2304.3
569.895	2298.88
570.098	2211.69
570.3	2249.66
570.503	2180.3
570.706	2217.31
570.909	2202.58
571.111	2134.97
571.314	2147.37
571.516	2167.13
571.719	2193.67
571.922	2178.95
572.124	2174.1
572.327	2172.75
572.529	2146.2
572.732	2148.53
572.935	2209.56
573.137	2267.49
573.34	2190.18
573.542	2224.09
573.745	2225.25
573.947	2228.55
574.15	2197.35
574.352	2161.7
574.554	2257.22
574.757	2170.03
574.959	2137.87
575.162	2153.18
575.364	2135.35
575.566	2224.28
575.769	2090.4
575.971	2150.47
576.173	2020.65
576.376	2098.54
576.578	2170.81
576.78	2157.63
576.982	2037.32
577.185	2073.55
577.387	2045.65
577.589	2079.75
577.791	2105.52
577.993	2083.04
578.196	2076.26
578.398	2085.56
578.6	2104.16
578.802	1965.82
579.004	1996.05
579.206	2020.65
579.408	2031.5
579.61	2030.34
579.812	2092.34
580.014	1992.56
580.216	2015.81
580.418	2030.15
580.62	2013.29
580.822	1968.92
581.024	2015.23
581.226	2049.72
581.428	1992.56
581.63	2096.8
581.832	2009.61
582.034	2043.52
582.236	2019.49
582.438	2047
582.64	2060.37
582.841	2095.05
583.043	2130.32
583.245	2053.4
583.447	2044.1
583.649	2051.65
583.85	2056.3
584.052	2062.5
584.254	1989.46
584.456	2070.64
584.657	1980.36
584.859	2005.54
585.061	2013.29
585.262	1980.94
585.464	1965.24
585.666	2037.12
585.867	1932.11
586.069	2043.13
586.27	1944.32
586.472	1949.74
586.674	1940.06
586.875	1919.52
587.077	1931.53
587.278	1958.07
587.48	1940.64
587.681	2023.95
587.883	1985.78
588.084	1880.19
588.285	1912.16
588.487	1901.31
588.688	1878.83
588.89	1829.04
589.091	1784.48
589.292	1785.06
589.494	1751.54
589.695	1706.78
589.896	1646.92
590.098	1627.35
590.299	1678.3
590.5	1695.35
590.702	1754.06
590.903	1763.36
591.104	1836.79
591.305	1800.36
591.507	1848.41
591.708	1807.92
591.909	1772.27
592.11	1903.24
592.311	1829.23
592.512	1794.55
592.714	1721.51
592.915	1754.25
593.116	1783.12
593.317	1778.86
593.518	1792.81
593.719	1766.26
593.92	1822.45
594.121	1814.89
594.322	1821.48
594.523	1823.42
594.724	1747.86
594.925	1781.76
595.126	1804.24
595.327	1793.2
595.528	1768.98
595.729	1795.13
595.929	1794.75
596.13	1762.58
596.331	1781.57
596.532	1797.46
596.733	1849.96
596.934	1813.73
597.135	1808.89
597.335	1815.67
597.536	1792.81
597.737	1792.61
597.938	1767.62
598.138	1807.92
598.339	1753.67
598.54	1782.93
598.74	1760.26
598.941	1775.76
599.142	1818.19
599.342	1791.26
599.543	1759.87
599.744	1761.23
599.944	1751.93
600.145	1761.42
600.345	1779.05
600.546	1852.87
600.746	1815.09
600.947	1814.31
601.147	1761.81
601.348	1806.56
601.548	1719.57
601.749	1757.16
601.949	1728.68
602.15	1710.08
602.35	1750.38
602.551	1781.38
602.751	1707.17
602.951	1721.12
603.152	1650.02
603.352	1775.56
603.552	1757.74
603.753	1801.14
603.953	1780.6
604.153	1750.76
604.354	1745.15
604.554	1723.64
604.754	1768.2
604.954	1693.22
605.155	1775.76
605.355	1713.18
605.555	1801.14
605.755	1805.01
605.955	1719.57
606.155	1764.71
606.356	1727.13
606.556	1767.23
606.756	1755.61
606.956	1705.82
607.156	1799.78
607.356	1689.35
607.556	1758.9
607.756	1728.87
607.956	1770.72
608.156	1764.71
608.356	1723.64
608.556	1755.8
608.756	1696.71
608.956	1658.15
609.156	1724.8
609.356	1639.55
609.556	1658.35
609.755	1675.98
609.955	1654.08
610.155	1681.6
610.355	1669.97
610.555	1634.52
610.755	1640.72
610.954	1591.12
611.154	1615.72
611.354	1671.72
611.554	1591.89
611.753	1622.89
611.953	1598.48
612.153	1658.93
612.352	1679.08
612.552	1600.42
612.752	1529.31
612.951	1640.91
613.151	1607.97
613.351	1576
613.55	1613.2
613.75	1612.62
613.949	1592.09
614.149	1608.94
614.348	1573.87
614.548	1561.67
614.747	1497.15
614.947	1526.21
