Data from gum_old_FLMT105791__89__15-44-17-256.txt Node

Date: Mon Mar 20 15:44:17 GMT 2023
User: antho
Spectrometer: FLMT10579
Trigger mode: 0
Integration Time (sec): 1.000000E-1
Scans to average: 10
Electric dark correction enabled: true
Nonlinearity correction enabled: false
Boxcar width: 0
XAxis mode: Wavelengths
Number of Pixels in Spectrum: 3648
>>>>>Begin Spectral Data<<<<<
345.248	-196.64
345.464	-196.64
345.681	-196.64
345.898	-185.98
346.114	-161.96
346.331	-58.3
346.548	29.47
346.764	-4.83
346.981	-1.15
347.197	-7.93
347.414	3.89
347.631	-15.29
347.847	52.72
348.064	0.4
348.28	22.3
348.497	-28.08
348.713	6.8
348.93	54.07
349.146	25.59
349.363	4.08
349.579	18.42
349.796	-7.35
350.012	-1.53
350.229	46.71
350.445	-8.12
350.661	-8.51
350.878	3.12
351.094	33.53
351.311	30.05
351.527	38.77
351.743	20.55
351.96	41.09
352.176	74.03
352.392	42.25
352.609	38.38
352.825	10.67
353.041	15.71
353.257	36.44
353.474	27.92
353.69	31.21
353.906	24.82
354.122	-7.54
354.339	60.27
354.555	7.96
354.771	27.14
354.987	62.98
355.203	85.07
355.42	23.07
355.636	-20.91
355.852	-6.57
356.068	12.8
356.284	-11.8
356.5	77.13
356.716	37.22
356.932	6.02
357.148	54.46
357.364	13
357.58	71.7
357.796	73.25
358.012	74.22
358.228	17.45
358.444	-59.08
358.66	81.97
358.876	44.58
359.092	1.37
359.308	2.34
359.524	70.93
359.74	21.52
359.956	-8.7
360.172	18.23
360.388	81.39
360.604	15.52
360.819	113.55
361.035	49.23
361.251	51.36
361.467	0.6
361.683	67.63
361.898	36.44
362.114	75.19
362.33	65.5
362.546	82.16
362.762	24.23
362.977	33.15
363.193	14.74
363.409	99.41
363.624	21.52
363.84	7.57
364.056	10.48
364.271	66.86
364.487	26.17
364.703	29.47
364.918	-5.6
365.134	41.48
365.35	20.55
365.565	145.52
365.781	103.28
365.996	54.27
366.212	106.58
366.427	62.02
366.643	43.8
366.858	63.57
367.074	18.62
367.289	93.98
367.505	157.73
367.72	6.6
367.936	52.13
368.151	105.61
368.367	76.93
368.582	51.94
368.798	25.59
369.013	87.4
369.228	68.41
369.444	78.87
369.659	129.63
369.874	60.85
370.09	104.83
370.305	15.71
370.52	35.67
370.736	108.71
370.951	56.59
371.166	105.41
371.381	121.88
371.597	73.45
371.812	21.52
372.027	55.82
372.242	28.11
372.458	146.68
372.673	68.8
372.888	82.55
373.103	85.65
373.318	143.39
373.533	81.39
373.749	83.52
373.964	25.98
374.179	89.91
374.394	14.55
374.609	125.18
374.824	10.67
375.039	108.32
375.254	26.56
375.469	121.88
375.684	76.74
375.899	96.7
376.114	62.21
376.329	76.35
376.544	87.2
376.759	106.19
376.974	49.81
377.189	66.08
377.404	55.04
377.619	106.58
377.834	34.89
378.049	39.93
378.264	62.21
378.478	93.4
378.693	68.8
378.908	138.55
379.123	81.2
379.338	128.47
379.553	104.64
379.767	92.82
379.982	114.71
380.197	109.87
380.412	71.32
380.626	67.63
380.841	161.02
381.056	97.47
381.271	160.83
381.485	74.42
381.7	57.37
381.915	110.45
382.129	61.05
382.344	81
382.559	67.44
382.773	141.26
382.988	9.32
383.202	96.7
383.417	27.92
383.632	136.61
383.846	75.19
384.061	70.35
384.275	68.6
384.49	80.42
384.704	92.24
384.919	97.66
385.133	108.13
385.348	107.74
385.562	73.06
385.777	151.91
385.991	84.49
386.206	74.8
386.42	65.5
386.634	150.17
386.849	138.35
387.063	103.28
387.277	62.6
387.492	79.26
387.706	66.47
387.92	85.26
388.135	107.35
388.349	119.36
388.563	115.1
388.778	106.96
388.992	137.58
389.206	130.99
389.42	180.98
389.635	118.01
389.849	135.25
390.063	126.15
390.277	141.84
390.491	186.98
390.706	138.55
390.92	159.66
391.134	151.33
391.348	149.98
391.562	79.65
391.776	134.09
391.99	130.41
392.205	146.88
392.419	101.73
392.633	129.83
392.847	184.46
393.061	111.61
393.275	177.29
393.489	117.62
393.703	114.13
393.917	108.32
394.131	57.17
394.345	113.16
394.559	154.43
394.773	110.84
394.986	157.73
395.2	119.36
395.414	172.26
395.628	131.96
395.842	172.64
396.056	156.56
396.27	130.21
396.484	151.91
396.697	159.28
396.911	165.09
397.125	143.78
397.339	143.39
397.553	95.53
397.766	205.39
397.98	179.81
398.194	192.21
398.408	144.55
398.621	205.58
398.835	212.56
399.049	197.25
399.262	264.09
399.476	249.18
399.69	233.09
399.903	318.92
400.117	214.69
400.331	261.96
400.544	225.15
400.758	362.32
400.971	242.98
401.185	265.84
401.398	219.92
401.612	319.89
401.826	298.97
402.039	290.06
402.253	259.25
402.466	271.46
402.68	252.08
402.893	269.71
403.106	285.41
403.32	276.3
403.533	289.47
403.747	273.01
403.96	255.96
404.174	287.92
404.387	232.9
404.6	259.25
404.814	316.41
405.027	232.9
405.24	291.61
405.454	264.09
405.667	298.58
405.88	233.48
406.094	297.22
406.307	322.02
406.52	307.3
406.733	225.73
406.947	220.89
407.16	324.16
407.373	317.57
407.586	267.97
407.799	247.82
408.012	306.14
408.226	285.79
408.439	371.82
408.652	257.31
408.865	297.81
409.078	344.11
409.291	340.62
409.504	244.91
409.717	330.74
409.93	331.71
410.143	319.51
410.357	261.57
410.57	237.36
410.783	274.75
410.996	284.82
411.209	283.27
411.421	353.02
411.634	314.08
411.847	303.81
412.06	342.37
412.273	328.61
412.486	341.59
412.699	434.78
412.912	374.92
413.125	395.07
413.338	343.53
413.55	383.05
413.763	324.74
413.976	376.85
414.189	313.11
414.402	321.25
414.615	403.98
414.827	303.81
415.04	371.24
415.253	380.92
415.466	395.65
415.678	438.08
415.891	374.34
416.104	393.52
416.316	350.31
416.529	328.03
416.742	395.26
416.954	421.22
417.167	373.95
417.38	361.55
417.592	395.26
417.805	344.3
418.017	299.16
418.23	381.89
418.442	349.15
418.655	353.22
418.868	380.92
419.08	428.39
419.293	412.12
419.505	396.62
419.718	394.29
419.93	446.02
420.142	382.28
420.355	405.34
420.567	433.82
420.78	414.64
420.992	326.67
421.205	435.17
421.417	348.37
421.629	376.85
421.842	363.49
422.054	356.32
422.266	411.34
422.479	458.42
422.691	350.12
422.903	413.47
423.115	346.05
423.328	382.47
423.54	390.61
423.752	388.29
423.964	377.24
424.177	454.55
424.389	364.84
424.601	477.02
424.813	411.73
425.025	433.23
425.238	414.64
425.45	413.09
425.662	395.45
425.874	731.99
426.086	409.02
426.298	416.96
426.51	411.34
426.722	413.47
426.934	378.02
427.146	452.03
427.358	390.8
427.57	484.77
427.782	375.3
427.994	376.27
428.206	369.88
428.418	396.62
428.63	439.82
428.842	461.72
429.054	403.01
429.266	438.66
429.478	376.66
429.69	395.26
429.902	376.47
430.114	429.36
430.325	375.5
430.537	352.44
430.749	339.07
430.961	267.77
431.173	326.67
431.384	378.21
431.596	295.29
431.808	350.12
432.02	441.76
432.231	477.8
432.443	517.51
432.655	462.68
432.867	461.13
433.078	515.97
433.29	533.79
433.502	488.07
433.713	524.3
433.925	491.94
434.136	523.91
434.348	426.84
434.56	413.09
434.771	578.74
434.983	406.3
435.194	450.48
435.406	499.69
435.617	526.04
435.829	566.53
436.04	557.81
436.252	517.51
436.463	570.8
436.675	573.7
436.886	529.91
437.098	556.65
437.309	602.76
437.521	561.3
437.732	545.41
437.943	530.5
438.155	541.73
438.366	473.53
438.578	613.23
438.789	501.82
439	527.01
439.211	492.52
439.423	507.63
439.634	531.46
439.845	584.36
440.057	548.9
440.268	592.69
440.479	558.01
440.69	580.68
440.902	566.73
441.113	553.16
441.324	558.2
441.535	576.41
441.746	595.98
441.957	591.53
442.168	602.38
442.38	610.13
442.591	628.92
442.802	564.6
443.013	604.51
443.224	607.99
443.435	599.28
443.646	637.64
443.857	585.91
444.068	580.68
444.279	587.07
444.49	686.85
444.701	633.96
444.912	752.34
445.123	669.03
445.334	672.13
445.545	674.06
445.756	635.12
445.967	578.35
446.178	643.06
446.388	655.66
446.599	653.91
446.81	657.79
447.021	598.31
447.232	678.13
447.443	688.98
447.653	636.67
447.864	694.6
448.075	702.16
448.286	682.01
448.496	687.24
448.707	731.8
448.918	644.42
449.129	764.54
449.339	619.23
449.55	669.61
449.761	698.86
449.971	709.52
450.182	679.1
450.393	726.18
450.603	675.61
450.814	740.32
451.024	739.16
451.235	763.19
451.446	776.75
451.656	777.52
451.867	707.58
452.077	714.94
452.288	772.87
452.498	749.04
452.709	704.67
452.919	722.11
453.13	671.74
453.34	726.96
453.55	642.68
453.761	691.31
453.971	694.02
454.182	700.8
454.392	730.44
454.602	784.5
454.813	727.73
455.023	768.42
455.233	687.04
455.444	730.64
455.654	644.81
455.864	730.64
456.075	720.17
456.285	705.45
456.495	718.04
456.705	739.36
456.916	803.87
457.126	844.56
457.336	738.97
457.546	699.64
457.756	744.78
457.967	804.84
458.177	727.15
458.387	761.06
458.597	710.1
458.807	737.61
459.017	732.96
459.227	781.2
459.437	766.87
459.647	774.81
459.857	800.19
460.068	731.61
460.278	798.45
460.488	780.43
460.698	836.04
460.908	750.98
461.117	726.96
461.327	720.37
461.537	775.59
461.747	777.72
461.957	738
462.167	923.61
462.377	828.48
462.587	803.49
462.797	851.15
463.007	801.55
463.216	853.28
463.426	844.56
463.636	862.97
463.846	752.53
464.056	804.07
464.265	831.77
464.475	760.86
464.685	805.04
464.895	836.42
465.104	794.57
465.314	843.2
465.524	783.53
465.733	767.84
465.943	864.9
466.153	893.58
466.362	872.46
466.572	827.32
466.782	835.65
466.991	825.19
467.201	912.76
467.41	752.34
467.62	856.38
467.829	834.68
468.039	842.62
468.249	848.24
468.458	854.64
468.668	893.97
468.877	905.98
469.086	931.17
469.296	928.45
469.505	884.47
469.715	956.55
469.924	890.87
470.134	928.84
470.343	956.16
470.552	870.52
470.762	885.25
470.971	850.37
471.18	901.13
471.39	898.62
471.599	867.03
471.808	954.03
472.018	913.53
472.227	964.1
472.436	984.25
472.645	961.97
472.855	929.81
473.064	1057.49
473.273	998.59
473.482	982.9
473.691	1031.14
473.901	1021.26
474.11	947.83
474.319	1084.23
474.528	984.83
474.737	1100.11
474.946	1029.78
475.155	1057.49
475.364	1105.54
475.573	1065.43
475.783	1090.23
475.992	1068.34
476.201	1106.89
476.41	1084.61
476.619	1025.33
476.828	1025.33
477.037	1063.88
477.245	1058.46
477.454	1139.25
477.663	1069.69
477.872	1127.24
478.081	1196.41
478.29	1119.29
478.499	1226.44
478.708	1179.16
478.917	1260.73
479.125	1188.27
479.334	1184.78
479.543	1188.07
479.752	1176.45
479.961	1190.59
480.169	1244.84
480.378	1218.69
480.587	1357.6
480.796	1249.88
481.004	1226.44
481.213	1225.47
481.422	1252.01
481.63	1281.85
481.839	1295.8
482.048	1332.8
482.256	1296.77
482.465	1327.96
482.674	1343.85
482.882	1296.77
483.091	1426.58
483.299	1325.63
483.508	1364.19
483.716	1351.98
483.925	1355.08
484.134	1295.02
484.342	1334.16
484.551	1369.23
484.759	1370.58
484.967	1388.22
485.176	1405.65
485.384	1401.39
485.593	1386.67
485.801	1399.06
486.01	1329.12
486.218	1259.57
486.426	1188.07
486.635	1199.7
486.843	1167.92
487.051	1219.27
487.26	1229.15
487.468	1303.74
487.676	1341.91
487.885	1309.17
488.093	1370.39
488.301	1386.08
488.509	1406.43
488.717	1428.32
488.926	1442.46
489.134	1371.75
489.342	1418.05
489.55	1394.61
489.758	1415.34
489.967	1399.65
490.175	1557.55
490.383	1452.15
490.591	1585.64
490.799	1476.56
491.007	1571.69
491.215	1545.54
491.423	1527.13
491.631	1525.97
491.839	1506.4
492.047	1510.86
492.255	1418.25
492.463	1407.78
492.671	1413.4
492.879	1525.78
493.087	1487.41
493.295	1523.26
493.503	1524.42
493.711	1587.19
493.919	1625.56
494.127	1607.73
494.334	1624.39
494.542	1494.19
494.75	1556.19
494.958	1531.98
495.166	1649
495.374	1626.52
495.581	1651.52
495.789	1627.49
495.997	1695.69
496.205	1586.61
496.412	1605.6
496.62	1618.77
496.828	1627.3
497.035	1652.29
497.243	1648.81
497.451	1659.27
497.658	1672.05
497.866	1610.83
498.074	1735.22
498.281	1615.48
498.489	1708.67
498.696	1673.41
498.904	1619.16
499.112	1587
499.319	1714.1
499.527	1620.91
499.734	1674.38
499.942	1643.77
500.149	1663.53
500.357	1694.14
500.564	1676.32
500.771	1633.31
500.979	1614.32
501.186	1568.59
501.394	1678.45
501.601	1608.51
501.808	1628.66
502.016	1641.06
502.223	1596.3
502.43	1647.84
502.638	1598.24
502.845	1600.17
503.052	1725.92
503.26	1622.07
503.467	1742.19
503.674	1676.9
503.881	1701.7
504.089	1779.39
504.296	1708.09
504.503	1631.76
504.71	1693.95
504.917	1627.3
505.125	1687.75
505.332	1698.6
505.539	1705.96
505.746	1800.9
505.953	1762.73
506.16	1774.93
506.367	1797.02
506.574	1823.18
506.781	1822.4
506.988	1754.98
507.195	1783.27
507.402	1793.92
507.609	1782.49
507.816	1742.58
508.023	1712.35
508.23	1710.8
508.437	1656.55
508.644	1736.19
508.851	1778.62
509.058	1783.65
509.265	1758.47
509.472	1801.87
509.679	1839.45
509.885	1810.58
510.092	1812.52
510.299	1801.28
510.506	1776.29
510.713	1788.5
510.92	1804
511.126	1841.97
511.333	1859.6
511.54	1834.41
511.746	1890.41
511.953	1873.94
512.16	1880.72
512.367	1866.38
512.573	1862.31
512.78	1861.35
512.987	1820.27
513.193	1810.78
513.4	1766.02
513.606	1805.93
513.813	1827.05
514.02	1853.21
514.226	1907.85
514.433	1852.24
514.639	1813.49
514.846	1845.65
515.052	1791.79
515.259	1839.26
515.465	1814.07
515.672	1816.2
515.878	1949.11
516.085	1868.51
516.291	1895.83
516.497	1876.85
516.704	1827.05
516.91	1772.22
517.117	1712.16
517.323	1649
517.529	1667.99
517.736	1656.36
517.942	1671.09
518.148	1701.31
518.354	1773
518.561	1735.41
518.767	1759.05
518.973	1763.31
519.179	1796.44
519.386	1740.25
519.592	1787.72
519.798	1789.47
520.004	1905.71
520.21	1855.92
520.417	1925.86
520.623	1952.21
520.829	1995.61
521.035	1969.65
521.241	1964.03
521.447	1961.32
521.653	2084.93
521.859	1968.49
522.065	2010.53
522.271	2100.82
522.477	2048.89
522.683	2097.72
522.889	2052.38
523.095	2016.73
523.301	2008.59
523.507	1976.43
523.713	2000.26
523.919	1968.1
524.125	2110.5
524.331	2068.27
524.537	2130.65
524.742	2144.22
524.948	2129.88
525.154	2144.99
525.36	2292.43
525.566	2147.32
525.772	2236.25
525.977	2102.56
526.183	2107.99
526.389	2219.58
526.595	2118.25
526.8	2127.94
527.006	2028.94
527.212	1973.72
527.417	1932.64
527.623	1934.19
527.829	2023.32
528.034	2089.97
528.24	2096.75
528.446	2066.14
528.651	2213.97
528.857	2171.92
529.062	2252.91
529.268	2250.39
529.473	2273.64
529.679	2270.54
529.884	2323.05
530.09	2315.1
530.295	2292.43
530.501	2298.05
530.706	2240.12
530.912	2234.89
531.117	2285.07
531.323	2271.12
531.528	2346.49
531.733	2343
531.939	2311.23
532.144	2340.48
532.35	2332.54
532.555	2388.73
532.76	2313.36
532.966	2304.45
533.171	2289.53
533.376	2211.64
533.581	2195.75
533.787	2256.2
533.992	2291.27
534.197	2329.63
534.402	2321.5
534.607	2339.9
534.813	2414.11
535.018	2319.17
535.223	2329.25
535.428	2364.12
535.633	2392.79
535.838	2398.8
536.043	2413.14
536.249	2496.26
536.454	2372.26
536.659	2419.53
536.864	2401.9
537.069	2390.66
537.274	2376.71
537.479	2393.96
537.684	2382.53
537.889	2318.78
538.094	2485.02
538.299	2379.04
538.504	2402.87
538.708	2430.77
538.913	2481.92
539.118	2405.97
539.323	2467
539.528	2351.91
539.733	2357.53
539.938	2438.33
540.142	2389.89
540.347	2377.68
540.552	2348.62
540.757	2304.64
540.962	2341.26
541.166	2311.81
541.371	2280.81
541.576	2309.48
541.781	2226.56
541.985	2392.02
542.19	2353.46
542.395	2447.04
542.599	2480.95
542.804	2441.04
543.008	2469.32
543.213	2397.25
543.418	2344.36
543.622	2444.91
543.827	2354.82
544.031	2446.66
544.236	2507.3
544.44	2474.75
544.645	2541.01
544.849	2421.66
545.054	2505.56
545.258	2555.35
545.463	2566.59
545.667	2465.45
545.872	2490.44
546.076	2472.04
546.281	2494.12
546.485	2442.2
546.689	2467.19
546.894	2504.59
547.098	2497.42
547.302	2423.6
547.507	2474.94
547.711	2496.84
547.915	2562.52
548.119	2433.29
548.324	2463.71
548.528	2547.99
548.732	2463.51
548.936	2516.02
549.141	2500.52
549.345	2490.64
549.549	2495.09
549.753	2493.35
549.957	2577.44
550.161	2594.29
550.366	2551.67
550.57	2487.15
550.774	2508.07
550.978	2475.72
551.182	2524.93
551.386	2452.27
551.59	2515.63
551.794	2481.14
551.998	2518.34
552.202	2480.37
552.406	2497.03
552.61	2580.73
552.814	2557.48
553.018	2595.45
553.222	2467
553.426	2512.72
553.63	2578.02
553.833	2523.57
554.037	2412.75
554.241	2512.14
554.445	2482.11
554.649	2485.99
554.853	2504.78
555.056	2550.7
555.26	2542.75
555.464	2511.56
555.668	2484.63
555.871	2525.51
556.075	2556.9
556.279	2498.39
556.483	2470.68
556.686	2482.5
556.89	2472.81
557.094	2479.4
557.297	2370.51
557.501	2521.64
557.704	2375.36
557.908	2460.61
558.112	2429.03
558.315	2514.27
558.519	2439.1
558.722	2438.71
558.926	2377.88
559.129	2339.51
559.333	2346.49
559.536	2347.65
559.74	2311.03
559.943	2284.3
560.147	2320.72
560.35	2286.23
560.553	2362.76
560.757	2306
560.96	2425.73
561.164	2375.94
561.367	2461.19
561.57	2378.46
561.774	2389.11
561.977	2371.68
562.18	2327.31
562.384	2456.34
562.587	2340.68
562.79	2338.55
562.993	2339.32
563.197	2363.93
563.4	2417.01
563.603	2394.15
563.806	2430.19
564.009	2316.65
564.212	2355.21
564.416	2284.68
564.619	2342.81
564.822	2286.81
565.025	2298.63
565.228	2313.94
565.431	2357.34
565.634	2255.43
565.837	2242.83
566.04	2245.74
566.243	2241.87
566.446	2162.43
566.649	2265.5
566.852	2173.47
567.055	2203.89
567.258	2244.97
567.461	2316.65
567.664	2336.41
567.867	2212.61
568.07	2252.91
568.273	2284.1
568.475	2303.48
568.678	2214.93
568.881	2190.91
569.084	2248.65
569.287	2112.64
569.489	2155.45
569.692	2207.18
569.895	2242.64
570.098	2134.72
570.3	2116.12
570.503	2085.71
570.706	2153.9
570.909	2104.89
571.111	2058.19
571.314	2046.76
571.516	2109.73
571.719	2096.94
571.922	2070.4
572.124	2081.83
572.327	2082.8
572.529	2043.27
572.732	2053.93
572.935	2092.49
573.137	2205.05
573.34	2071.17
573.542	2187.42
573.745	2134.14
573.947	2178.9
574.15	2110.5
574.352	2084.74
574.554	2147.9
574.757	2061.29
574.959	2049.67
575.162	2066.52
575.364	2038.82
575.566	2167.08
575.769	2055.29
575.971	2050.25
576.173	1905.91
576.376	2022.54
576.578	2061.29
576.78	2080.47
576.982	1974.88
577.185	2030.68
577.387	1965.58
577.589	1969.26
577.791	1993.68
577.993	2009.37
578.196	1972.56
578.398	1993.09
578.6	2002.97
578.802	1900.68
579.004	1879.56
579.206	1954.73
579.408	1991.74
579.61	1925.67
579.812	1934.58
580.014	1897.38
580.216	1871.81
580.418	1934
580.62	1906.3
580.822	1888.66
581.024	1942.14
581.226	1985.15
581.428	1922.57
581.63	2013.63
581.832	1900.29
582.034	1975.46
582.236	1928.58
582.438	1967.52
582.64	1986.7
582.841	1976.24
583.043	2056.06
583.245	2009.95
583.447	2011.69
583.649	1968.49
583.85	1973.33
584.052	1991.93
584.254	1918.31
584.456	2024.29
584.657	1889.63
584.859	1944.08
585.061	1899.32
585.262	1921.21
585.464	1892.35
585.666	1947.95
585.867	1883.24
586.069	1947.95
586.27	1907.85
586.472	1894.86
586.674	1882.46
586.875	1887.5
587.077	1873.75
587.278	1898.16
587.48	1861.93
587.681	1995.42
587.883	1891.38
588.084	1795.86
588.285	1865.03
588.487	1822.21
588.688	1876.26
588.89	1801.87
589.091	1731.92
589.292	1739.48
589.494	1708.48
589.695	1696.08
589.896	1619.36
590.098	1616.26
590.299	1662.95
590.5	1651.91
590.702	1702.67
590.903	1722.24
591.104	1804.38
591.305	1725.53
591.507	1807.29
591.708	1803.03
591.909	1757.11
592.11	1830.35
592.311	1817.37
592.512	1791.02
592.714	1765.44
592.915	1730.57
593.116	1744.9
593.317	1785.78
593.518	1764.47
593.719	1760.21
593.92	1809.42
594.121	1857.66
594.322	1791.6
594.523	1796.25
594.724	1707.7
594.925	1763.7
595.126	1759.05
595.327	1764.08
595.528	1762.73
595.729	1787.72
595.929	1755.75
596.13	1782.1
596.331	1756.14
596.532	1773.97
596.733	1830.35
596.934	1794.5
597.135	1796.83
597.335	1799.35
597.536	1712.55
597.737	1767.38
597.938	1758.08
598.138	1781.72
598.339	1729.6
598.54	1782.88
598.74	1765.63
598.941	1756.33
599.142	1806.71
599.342	1767.18
599.543	1713.32
599.744	1759.24
599.944	1749.17
600.145	1722.24
600.345	1773.97
600.546	1841.58
600.746	1782.49
600.947	1818.33
601.147	1750.33
601.348	1785.78
601.548	1688.14
601.749	1768.73
601.949	1679.03
602.15	1731.15
602.35	1711.19
602.551	1761.57
602.751	1689.49
602.951	1702.47
603.152	1634.86
603.352	1760.21
603.552	1729.02
603.753	1756.33
603.953	1760.21
604.153	1729.79
604.354	1720.1
604.554	1726.11
604.754	1742.38
604.954	1687.55
605.155	1742.58
605.355	1704.22
605.555	1736.77
605.755	1787.53
605.955	1719.14
606.155	1753.82
606.356	1720.88
606.556	1723.4
606.756	1733.28
606.956	1700.54
607.156	1755.75
607.356	1671.28
607.556	1721.46
607.756	1712.35
607.956	1716.62
608.156	1701.5
608.356	1662.17
608.556	1712.94
608.756	1659.27
608.956	1659.07
609.156	1683.68
609.356	1607.54
609.556	1620.13
609.755	1678.25
609.955	1572.66
610.155	1682.71
610.355	1646.09
610.555	1602.11
610.755	1637.76
610.954	1559.1
611.154	1640.86
611.354	1677.09
611.554	1579.44
611.753	1612.96
611.953	1555.23
612.153	1623.04
612.352	1651.71
612.552	1585.64
612.752	1548.44
612.951	1581.77
613.151	1615.29
613.351	1532.75
613.55	1574.02
613.75	1624.01
613.949	1546.12
614.149	1608.7
614.348	1561.04
