Data from gum_old_FLMT105791__125__15-46-14-253.txt Node

Date: Mon Mar 20 15:46:14 GMT 2023
User: antho
Spectrometer: FLMT10579
Trigger mode: 0
Integration Time (sec): 1.000000E-1
Scans to average: 10
Electric dark correction enabled: true
Nonlinearity correction enabled: false
Boxcar width: 0
XAxis mode: Wavelengths
Number of Pixels in Spectrum: 3648
>>>>>Begin Spectral Data<<<<<
345.248	-187.97
345.464	-187.97
345.681	-187.97
345.898	-195.91
346.114	-184.67
346.331	-16.31
346.548	26.12
346.764	-8.75
346.981	-1.78
347.197	-12.04
347.414	11.59
347.631	-25.8
347.847	39.69
348.064	3.07
348.28	6.56
348.497	-41.11
348.713	18.76
348.93	40.46
349.146	31.55
349.363	7.14
349.579	17.79
349.796	-2.36
350.012	-10.88
350.229	33.68
350.445	19.92
350.661	15.85
350.878	9.66
351.094	23.22
351.311	20.12
351.527	18.18
351.743	-8.36
351.96	40.85
352.176	23.41
352.392	26.32
352.609	47.82
352.825	-3.91
353.041	9.07
353.257	14.5
353.474	19.54
353.69	25.35
353.906	17.21
354.122	-12.43
354.339	82.31
354.555	2.49
354.771	-20.38
354.987	69.33
355.203	73.79
355.42	-29.09
355.636	-16.31
355.852	2.49
356.068	41.43
356.284	-22.12
356.5	76.5
356.716	46.66
356.932	27.29
357.148	38.91
357.364	10.04
357.58	51.31
357.796	88.9
358.012	77.47
358.228	45.5
358.444	-44.21
358.66	68.94
358.876	31.94
359.092	10.82
359.308	29.42
359.524	40.07
359.74	-1
359.956	-0.42
360.172	18.37
360.388	65.07
360.604	18.18
360.819	118.54
361.035	55.38
361.251	75.53
361.467	-13.4
361.683	67.97
361.898	51.5
362.114	69.91
362.33	31.74
362.546	57.7
362.762	38.33
362.977	39.49
363.193	3.65
363.409	71.65
363.624	-5.07
363.84	-7.01
364.056	48.02
364.271	53.44
364.487	21.47
364.703	13.92
364.918	29.42
365.134	45.11
365.35	17.79
365.565	137.33
365.781	33.68
365.996	85.99
366.212	96.65
366.427	28.45
366.643	5.78
366.858	57.32
367.074	12.56
367.289	92.58
367.505	146.25
367.72	-10.88
367.936	47.05
368.151	80.18
368.367	64.29
368.582	47.82
368.798	29.8
369.013	98.39
369.228	43.56
369.444	21.28
369.659	113.5
369.874	64.29
370.09	120.09
370.305	-42.08
370.52	5.97
370.736	105.37
370.951	48.4
371.166	90.45
371.381	114.28
371.597	81.54
371.812	17.02
372.027	4.62
372.242	51.7
372.458	117.57
372.673	25.74
372.888	24.96
373.103	56.15
373.318	113.5
373.533	74.37
373.749	64.29
373.964	-24.44
374.179	90.25
374.394	8.49
374.609	119.9
374.824	16.24
375.039	78.44
375.254	22.64
375.469	92.97
375.684	45.11
375.899	85.22
376.114	51.5
376.329	53.25
376.544	112.92
376.759	100.72
376.974	34.84
377.189	54.41
377.404	79.6
377.619	94.52
377.834	15.66
378.049	-4.49
378.264	31.55
378.478	51.12
378.693	59.64
378.908	85.99
379.123	68.55
379.338	107.88
379.553	92.19
379.767	72.62
379.982	75.14
380.197	72.82
380.412	49.18
380.626	83.86
380.841	151.87
381.056	100.33
381.271	136.95
381.485	59.64
381.7	25.74
381.915	78.63
382.129	40.46
382.344	70.49
382.559	46.08
382.773	79.02
382.988	17.21
383.202	58.29
383.417	29.22
383.632	147.8
383.846	58.09
384.061	55.57
384.275	16.63
384.49	48.99
384.704	105.95
384.919	84.05
385.133	75.34
385.348	109.82
385.562	49.57
385.777	106.14
385.991	67.39
386.206	61.97
386.42	51.31
386.634	107.88
386.849	93.94
387.063	76.5
387.277	23.22
387.492	33.49
387.706	43.56
387.92	57.12
388.135	112.92
388.349	69.72
388.563	105.56
388.778	92.19
388.992	86.19
389.206	73.79
389.42	174.73
389.635	93.35
389.849	104.59
390.063	101.1
390.277	101.1
390.491	139.27
390.706	109.82
390.92	141.02
391.134	69.52
391.348	138.5
391.562	64.1
391.776	127.07
391.99	78.05
392.205	127.45
392.419	51.5
392.633	98.97
392.847	140.24
393.061	61
393.275	143.34
393.489	100.52
393.703	89.67
393.917	97.62
394.131	64.29
394.345	128.81
394.559	109.05
394.773	68.17
394.986	107.3
395.2	85.8
395.414	128.81
395.628	68.55
395.842	146.05
396.056	75.53
396.27	77.66
396.484	116.41
396.697	124.74
396.911	124.16
397.125	118.93
397.339	124.35
397.553	99.94
397.766	141.98
397.98	125.71
398.194	141.6
398.408	108.47
398.621	173.18
398.835	154.77
399.049	132.88
399.262	202.82
399.476	185.58
399.69	168.33
399.903	235.95
400.117	174.53
400.331	169.69
400.544	122.22
400.758	304.34
400.971	198.17
401.185	195.85
401.398	141.4
401.612	210.38
401.826	233.05
402.039	231.69
402.253	170.66
402.466	223.75
402.68	198.17
402.893	229.56
403.106	173.37
403.32	171.05
403.533	206.11
403.747	175.5
403.96	206.7
404.174	207.08
404.387	167.95
404.6	195.46
404.814	221.03
405.027	186.16
405.24	196.62
405.454	170.85
405.667	230.33
405.88	154.19
406.094	203.6
406.307	240.41
406.52	203.4
406.733	167.37
406.947	131.52
407.16	268.11
407.373	242.35
407.586	164.27
407.799	166.98
408.012	217.74
408.226	219.1
408.439	238.86
408.652	158.07
408.865	245.83
409.078	266.76
409.291	239.05
409.504	168.53
409.717	248.74
409.93	242.93
410.143	233.43
410.357	150.7
410.57	164.07
410.783	190.81
410.996	227.81
411.209	216.19
411.421	244.28
411.634	258.04
411.847	210.76
412.06	229.17
412.273	249.71
412.486	217.74
412.699	319.07
412.912	257.46
413.125	283.03
413.338	249.51
413.55	253
413.763	251.84
413.976	272.76
414.189	210.96
414.402	213.28
414.615	305.7
414.827	237.31
415.04	282.06
415.253	272.96
415.466	273.15
415.678	318.1
415.891	247.38
416.104	266.18
416.316	242.15
416.529	253.78
416.742	287.49
416.954	302.79
417.167	268.5
417.38	267.73
417.592	279.35
417.805	214.83
418.017	226.07
418.23	283.81
418.442	240.02
418.655	234.4
418.868	256.68
419.08	310.54
419.293	306.09
419.505	253.39
419.718	283.03
419.93	308.99
420.142	263.27
420.355	304.15
420.567	302.6
420.78	291.36
420.992	255.71
421.205	330.31
421.417	246.8
421.629	275.67
421.842	255.33
422.054	248.74
422.266	312.48
422.479	347.36
422.691	244.67
422.903	306.28
423.115	247.96
423.328	263.27
423.54	296.79
423.752	260.36
423.964	272.76
424.177	274.9
424.389	283.61
424.601	391.92
424.813	294.66
425.025	314.81
425.238	322.17
425.45	288.84
425.662	281.29
425.874	605.04
426.086	322.36
426.298	324.49
426.51	303.18
426.722	287.88
426.934	254.94
427.146	320.23
427.358	271.41
427.57	337.48
427.782	281.87
427.994	292.14
428.206	263.27
428.418	258.04
428.63	318.29
428.842	326.82
429.054	340.58
429.266	315.19
429.478	289.43
429.69	253.97
429.902	249.13
430.114	315.39
430.325	293.88
430.537	261.53
430.749	245.45
430.961	198.95
431.173	226.26
431.384	274.31
431.596	170.66
431.808	247.96
432.02	297.37
432.231	312.29
432.443	368.86
432.655	315.19
432.867	293.11
433.078	349.68
433.29	388.43
433.502	383.97
433.713	371.19
433.925	386.69
434.136	415.94
434.348	274.9
434.56	273.73
434.771	418.07
434.983	246.41
435.194	297.18
435.406	333.02
435.617	389.79
435.829	423.11
436.04	372.93
436.252	385.14
436.463	407.61
436.675	425.63
436.886	398.12
437.098	396.76
437.309	451.4
437.521	388.04
437.732	400.44
437.943	387.85
438.155	371.38
438.366	314.03
438.578	441.52
438.789	379.13
439	410.91
439.211	361.31
439.423	389.98
439.634	376.81
439.845	415.94
440.057	372.54
440.268	434.35
440.479	374.67
440.69	413.42
440.902	368.09
441.113	390.56
441.324	399.86
441.535	437.26
441.746	466.51
441.957	379.91
442.168	397.92
442.38	477.55
442.591	465.35
442.802	381.26
443.013	409.16
443.224	446.17
443.435	418.85
443.646	426.99
443.857	423.5
444.068	405.67
444.279	418.46
444.49	488.6
444.701	442.87
444.912	546.53
445.123	504.68
445.334	454.3
445.545	452.95
445.756	435.51
445.967	429.7
446.178	436.09
446.388	470
446.599	464.38
446.81	455.85
447.021	431.44
447.232	489.18
447.443	492.47
447.653	430.28
447.864	495.38
448.075	451.4
448.286	480.46
448.496	483.75
448.707	530.84
448.918	458.76
449.129	550.6
449.339	470.77
449.55	509.72
449.761	496.54
449.971	520.57
450.182	461.67
450.393	507.78
450.603	492.67
450.814	540.33
451.024	514.17
451.235	544.59
451.446	574.23
451.656	566.68
451.867	481.24
452.077	515.53
452.288	564.93
452.498	553.7
452.709	495.96
452.919	511.27
453.13	484.34
453.34	530.84
453.55	476.59
453.761	529.09
453.971	516.11
454.182	500.8
454.392	530.25
454.602	581.4
454.813	530.45
455.023	524.64
455.233	469.22
455.444	523.47
455.654	442.68
455.864	521.92
456.075	492.67
456.285	509.33
456.495	512.82
456.705	544.98
456.916	542.27
457.126	595.93
457.336	531.42
457.546	438.42
457.756	500.61
457.967	607.56
458.177	525.6
458.387	541.49
458.597	485.11
458.807	509.72
459.017	516.89
459.227	519.4
459.437	525.22
459.647	577.14
459.857	560.09
460.068	478.91
460.278	555.83
460.488	534.71
460.698	622.87
460.908	542.07
461.117	500.03
461.327	530.45
461.537	565.32
461.747	552.34
461.957	557.18
462.167	651.35
462.377	590.12
462.587	538.78
462.797	604.07
463.007	579.47
463.216	603.3
463.426	640.88
463.636	622.48
463.846	522.12
464.056	563.38
464.265	586.83
464.475	538.59
464.685	575.2
464.895	602.13
465.104	543.04
465.314	615.89
465.524	558.15
465.733	533.35
465.943	662.39
466.153	654.45
466.362	631.2
466.572	621.12
466.782	594.38
466.991	620.15
467.201	643.79
467.41	535.49
467.62	576.75
467.829	609.69
468.039	609.88
468.249	606.4
468.458	584.5
468.668	650.96
468.877	617.63
469.086	689.51
469.296	671.69
469.505	601.17
469.715	707.34
469.924	657.93
470.134	672.08
470.343	684.28
470.552	632.36
470.762	610.47
470.971	607.37
471.18	654.64
471.39	637.4
471.599	583.73
471.808	653.48
472.018	601.36
472.227	695.52
472.436	692.03
472.645	700.56
472.855	671.69
473.064	725.36
473.273	690.87
473.482	692.81
473.691	744.73
473.901	727.1
474.11	673.63
474.319	812.16
474.528	728.26
474.737	779.22
474.946	724
475.155	723.03
475.364	770.31
475.573	735.63
475.783	772.05
475.992	786
476.201	777.28
476.41	755.97
476.619	742.41
476.828	773.6
477.037	734.46
477.245	732.72
477.454	785.61
477.663	791.23
477.872	802.08
478.081	846.84
478.29	747.44
478.499	898.76
478.708	804.99
478.917	910.97
479.125	841.99
479.334	859.24
479.543	776.31
479.752	813.51
479.961	819.91
480.169	881.91
480.378	835.21
480.587	955.34
480.796	885.97
481.004	877.06
481.213	898.37
481.422	885.2
481.63	881.32
481.839	891.59
482.048	948.17
482.256	919.69
482.465	926.47
482.674	945.07
482.882	963.67
483.091	995.63
483.299	949.72
483.508	959.02
483.716	935.57
483.925	939.64
484.134	927.44
484.342	962.31
484.551	994.08
484.759	971.61
484.967	966.77
485.176	970.84
485.384	996.41
485.593	992.73
485.801	986.53
486.01	952.43
486.218	906.7
486.426	829.4
486.635	881.32
486.843	836.18
487.051	882.29
487.26	876.09
487.468	906.9
487.676	944.1
487.885	926.85
488.093	948.55
488.301	971.42
488.509	994.28
488.717	1025.86
488.926	969.09
489.134	981.3
489.342	1003.19
489.55	930.54
489.758	1024.5
489.967	993.5
490.175	1142.69
490.383	1023.15
490.591	1135.13
490.799	1024.12
491.007	1083.98
491.215	1043.3
491.423	1071
491.631	1062.67
491.839	1080.5
492.047	1106.46
492.255	1028.57
492.463	982.65
492.671	1024.31
492.879	1061.9
493.087	1048.53
493.295	1079.72
493.503	1095.41
493.711	1144.05
493.919	1106.85
494.127	1132.81
494.334	1133.58
494.542	1040
494.75	1114.6
494.958	1108.78
495.166	1176.21
495.374	1133.78
495.581	1176.01
495.789	1170.98
495.997	1225.61
496.205	1161.29
496.412	1136.1
496.62	1160.32
496.828	1178.73
497.035	1159.16
497.243	1198.88
497.451	1169.04
497.658	1138.81
497.866	1160.51
498.074	1210.69
498.281	1157.22
498.489	1248.09
498.696	1188.22
498.904	1130.68
499.112	1128.16
499.319	1237.63
499.527	1157.41
499.734	1216.12
499.942	1161.48
500.149	1143.66
500.357	1206.82
500.564	1142.3
500.771	1146.18
500.979	1157.8
501.186	1108.01
501.394	1186.86
501.601	1127.77
501.808	1200.62
502.016	1179.89
502.223	1132.03
502.43	1159.35
502.638	1144.05
502.845	1115.76
503.052	1231.43
503.26	1168.26
503.467	1273.08
503.674	1185.51
503.881	1245.96
504.089	1287.61
504.296	1203.53
504.503	1160.71
504.71	1193.26
504.917	1144.24
505.125	1201.39
505.332	1231.23
505.539	1215.34
505.746	1294.78
505.953	1303.89
506.16	1275.79
506.367	1333.34
506.574	1325.59
506.781	1350
506.988	1265.33
507.195	1296.72
507.402	1295.75
507.609	1317.06
507.816	1243.24
508.023	1250.41
508.23	1206.43
508.437	1176.59
508.644	1283.16
508.851	1308.73
509.058	1326.36
509.265	1283.54
509.472	1297.69
509.679	1394.17
509.885	1276.76
510.092	1312.61
510.299	1293.04
510.506	1314.54
510.713	1320.94
510.92	1299.43
511.126	1335.27
511.333	1355.62
511.54	1354.84
511.746	1392.82
511.953	1401.54
512.16	1407.15
512.367	1318.61
512.573	1354.26
512.78	1357.17
512.987	1321.71
513.193	1335.08
513.4	1261.65
513.606	1324.62
513.813	1346.9
514.02	1348.64
514.226	1401.92
514.433	1372.67
514.639	1334.69
514.846	1349.22
515.052	1277.73
515.259	1336.24
515.465	1343.99
515.672	1357.94
515.878	1459.85
516.085	1367.44
516.291	1405.99
516.497	1388.55
516.704	1360.85
516.91	1335.85
517.117	1252.74
517.323	1193.84
517.529	1258.16
517.736	1219.99
517.942	1278.51
518.148	1255.26
518.354	1294.39
518.561	1308.73
518.767	1292.84
518.973	1366.47
519.179	1363.95
519.386	1302.34
519.592	1363.17
519.798	1336.82
520.004	1454.04
520.21	1440.67
520.417	1450.36
520.623	1481.17
520.829	1501.12
521.035	1474.38
521.241	1475.93
521.447	1513.13
521.653	1607.1
521.859	1516.23
522.065	1536.96
522.271	1622.21
522.477	1571.06
522.683	1625.7
522.889	1564.28
523.095	1576.3
523.301	1577.46
523.507	1546.07
523.713	1558.66
523.919	1530.76
524.125	1633.84
524.331	1578.23
524.537	1664.45
524.742	1658.83
524.948	1654.57
525.154	1657.67
525.36	1804.92
525.566	1712.31
525.772	1730.71
525.977	1603.03
526.183	1681.89
526.389	1744.08
526.595	1655.54
526.8	1671.23
527.006	1595.09
527.212	1523.98
527.417	1521.08
527.623	1521.85
527.829	1615.63
528.034	1612.33
528.24	1637.71
528.446	1649.73
528.651	1738.85
528.857	1740.79
529.062	1801.82
529.268	1760.55
529.473	1753.77
529.679	1796.59
529.884	1856.07
530.09	1839.02
530.295	1877.18
530.501	1835.92
530.706	1812.86
530.912	1786.51
531.117	1830.69
531.323	1868.66
531.528	1864.78
531.733	1911.28
531.939	1839.21
532.144	1905.28
532.35	1879.51
532.555	1877.18
532.76	1881.25
532.966	1880.87
533.171	1832.24
533.376	1811.89
533.581	1778.37
533.787	1828.94
533.992	1821
534.197	1915.93
534.402	1848.12
534.607	1896.37
534.813	1992.85
535.018	1885.13
535.223	1882.61
535.428	1870.79
535.633	1977.55
535.838	1927.37
536.043	1988.2
536.249	2052.91
536.454	1964.95
536.659	1984.91
536.864	1978.9
537.069	1908.38
537.274	1969.21
537.479	1952.75
537.684	1951
537.889	1852.58
538.094	2039.16
538.299	1947.71
538.504	1934.53
538.708	1986.26
538.913	2040.32
539.118	1985.68
539.323	1999.25
539.528	1992.66
539.733	1978.32
539.938	1959.91
540.142	2024.43
540.347	1939.96
540.552	1903.34
540.757	1947.71
540.962	1919.62
541.166	1898.11
541.371	1854.13
541.576	1899.47
541.781	1801.62
541.985	1948.48
542.19	1955.65
542.395	2019.59
542.599	2054.85
542.804	2002.35
543.008	2057.37
543.213	1933.37
543.418	1951
543.622	1990.53
543.827	1947.32
544.031	2036.64
544.236	2041.68
544.44	2012.81
544.645	2109.49
544.849	2030.05
545.054	2075.78
545.258	2108.71
545.463	2075.19
545.667	1989.56
545.872	2056.21
546.076	2046.33
546.281	2051.75
546.485	2018.23
546.689	2047.49
546.894	2097.28
547.098	2012.03
547.302	2029.86
547.507	2034.12
547.711	2076.36
547.915	2108.13
548.119	2006.22
548.324	1983.16
548.528	2069.58
548.732	2012.23
548.936	2087.01
549.141	2070.74
549.345	2001.76
549.549	2053.49
549.753	2095.54
549.957	2148.43
550.161	2132.93
550.366	2096.51
550.57	2091.86
550.774	2054.66
550.978	2062.99
551.182	2078.88
551.386	2041.09
551.59	2060.66
551.794	2043.42
551.998	2072.68
552.202	2033.15
552.406	2035.86
552.61	2064.15
552.814	2083.33
553.018	2141.07
553.222	2115.49
553.426	2071.13
553.63	2108.71
553.833	2085.46
554.037	1988.78
554.241	2094.38
554.445	2069.38
554.649	2066.09
554.853	2048.07
555.056	2093.21
555.26	2135.06
555.464	2077.52
555.668	2090.31
555.871	2111.81
556.075	2104.45
556.279	2034.89
556.483	1998.47
556.686	2074.61
556.89	2066.28
557.094	2088.95
557.297	1983.75
557.501	2093.79
557.704	1993.82
557.908	2082.17
558.112	2014.36
558.315	2076.74
558.519	2001.57
558.722	2010.68
558.926	1982.2
559.129	1938.8
559.333	1907.02
559.536	1927.17
559.74	1877.77
559.943	1907.99
560.147	1893.07
560.35	1904.12
560.553	1932.98
560.757	1878.93
560.96	1991.5
561.164	1942.48
561.367	2034.31
561.57	1965.15
561.774	1977.16
561.977	1948.68
562.18	1910.12
562.384	1995.56
562.587	1942.09
562.79	1914.97
562.993	1911.48
563.197	1954.3
563.4	1995.56
563.603	1966.5
563.806	2035.28
564.009	1876.6
564.212	1955.07
564.416	1823.32
564.619	1918.84
564.822	1850.64
565.025	1942.67
565.228	1867.5
565.431	1856.65
565.634	1779.54
565.837	1853.35
566.04	1832.43
566.243	1819.84
566.446	1723.93
566.649	1846.38
566.852	1723.74
567.055	1781.28
567.258	1829.91
567.461	1873.5
567.664	1848.51
567.867	1730.52
568.07	1787.48
568.273	1770.43
568.475	1869.63
568.678	1803.95
568.881	1736.72
569.084	1754.54
569.287	1631.51
569.489	1698.36
569.692	1740.79
569.895	1729.16
570.098	1711.14
570.3	1643.53
570.503	1632.29
570.706	1647.98
570.909	1661.93
571.111	1616.98
571.314	1597.61
571.516	1627.83
571.719	1654.76
571.922	1590.44
572.124	1591.99
572.327	1631.51
572.529	1564.67
572.732	1618.34
572.935	1630.93
573.137	1694.29
573.34	1614.66
573.542	1658.44
573.745	1636.74
573.947	1641.39
574.15	1618.73
574.352	1624.34
574.554	1668.52
574.757	1556.92
574.959	1578.23
575.162	1582.88
575.364	1543.94
575.566	1675.69
575.769	1541.03
575.971	1557.7
576.173	1451.72
576.376	1544.33
576.578	1556.34
576.78	1592.57
576.982	1464.12
577.185	1553.05
577.387	1487.75
577.589	1479.23
577.791	1533.48
577.993	1551.11
578.196	1487.75
578.398	1505.77
578.6	1550.91
578.802	1444.93
579.004	1444.55
579.206	1495.5
579.408	1475.16
579.61	1469.73
579.812	1502.48
580.014	1447.45
580.216	1456.56
580.418	1466.44
580.62	1441.06
580.822	1423.43
581.024	1480.78
581.226	1525.34
581.428	1447.26
581.63	1562.54
581.832	1457.14
582.034	1503.83
582.236	1464.5
582.438	1481.94
582.64	1526.7
582.841	1567.58
583.043	1562.93
583.245	1518.75
583.447	1511.97
583.649	1467.02
583.85	1466.25
584.052	1503.45
584.254	1464.7
584.456	1492.4
584.657	1420.91
584.859	1486.4
585.061	1442.42
585.262	1411.8
585.464	1379.06
585.666	1477.68
585.867	1421.1
586.069	1481.75
586.27	1427.88
586.472	1415.48
586.674	1368.99
586.875	1418.58
587.077	1417.03
587.278	1447.26
587.48	1389.52
587.681	1516.81
587.883	1433.89
588.084	1337.4
588.285	1366.47
588.487	1365.89
588.688	1394.56
588.89	1341.28
589.091	1330.62
589.292	1320.94
589.494	1293.81
589.695	1262.23
589.896	1169.43
590.098	1175.63
590.299	1226.78
590.5	1212.05
590.702	1240.53
590.903	1259.52
591.104	1353.1
591.305	1312.41
591.507	1378.67
591.708	1332.17
591.909	1310.09
592.11	1386.23
592.311	1315.32
592.512	1317.26
592.714	1230.65
592.915	1261.07
593.116	1250.22
593.317	1285.29
593.518	1302.34
593.719	1284.9
593.92	1323.07
594.121	1346.7
594.322	1312.8
594.523	1313.19
594.724	1280.83
594.925	1300.01
595.126	1309.12
595.327	1302.14
595.528	1300.01
595.729	1297.88
595.929	1259.52
596.13	1289.55
596.331	1311.25
596.532	1317.26
596.733	1343.6
596.934	1335.85
597.135	1352.13
597.335	1331.4
597.536	1232.98
597.737	1292.65
597.938	1252.16
598.138	1268.04
598.339	1284.71
598.54	1308.34
598.74	1265.52
598.941	1299.43
599.142	1340.7
599.342	1324.04
599.543	1254.09
599.744	1244.6
599.944	1249.64
600.145	1262.81
600.345	1288.39
600.546	1351.16
600.746	1342.83
600.947	1370.92
601.147	1276.57
601.348	1328.49
601.548	1226.39
601.749	1283.93
601.949	1217.67
602.15	1245.96
602.35	1238.21
602.551	1294.39
602.751	1191.32
602.951	1250.02
603.152	1152.18
603.352	1285.67
603.552	1217.28
603.753	1259.32
603.953	1269.79
604.153	1294.59
604.354	1260.49
604.554	1232.39
604.754	1248.86
604.954	1231.04
605.155	1270.76
605.355	1246.92
605.555	1285.09
605.755	1283.74
605.955	1251.19
606.155	1292.26
606.356	1222.9
606.556	1272.69
606.756	1268.62
606.956	1182.21
607.156	1297.3
607.356	1181.63
607.556	1263.97
607.756	1250.22
607.956	1270.37
608.156	1244.79
608.356	1212.05
608.556	1244.79
608.756	1240.34
608.956	1195.97
609.156	1213.99
609.356	1176.4
609.556	1195.78
609.755	1174.08
609.955	1175.43
610.155	1223.09
610.355	1239.56
610.555	1165.36
610.755	1173.69
610.954	1098.71
611.154	1203.91
611.354	1225.23
611.554	1161.48
611.753	1156.44
611.953	1109.36
612.153	1150.63
612.352	1213.99
612.552	1122.73
612.752	1106.07
612.951	1142.69
613.151	1159.54
613.351	1128.16
613.55	1159.16
613.75	1137.26
613.949	1137.46
614.149	1165.16
614.348	1116.53
614.548	1127.77
614.747	1033.03
614.947	1084.95
615.146	1064.61
615.346	1150.25
615.545	1120.41
