Data from gum_old_FLMT105791__50__15-43-38-257.txt Node

Date: Mon Mar 20 15:43:38 GMT 2023
User: antho
Spectrometer: FLMT10579
Trigger mode: 0
Integration Time (sec): 1.000000E-1
Scans to average: 10
Electric dark correction enabled: true
Nonlinearity correction enabled: false
Boxcar width: 0
XAxis mode: Wavelengths
Number of Pixels in Spectrum: 3648
>>>>>Begin Spectral Data<<<<<
345.248	-179.54
345.464	-179.54
345.681	-179.54
345.898	-177.02
346.114	-160.75
346.331	-29.97
346.548	31.45
346.764	-2.45
346.981	-8.85
347.197	-31.52
347.414	-6.14
347.631	1.42
347.847	74.46
348.064	-4.39
348.28	39.98
348.497	-66.97
348.713	2.97
348.93	26.61
349.146	33.97
349.363	0.45
349.579	13.24
349.796	9.56
350.012	10.33
350.229	42.88
350.445	14.01
350.661	11.88
350.878	21.18
351.094	29.32
351.311	42.11
351.527	45.01
351.743	2.78
351.96	40.36
352.176	67.88
352.392	36.49
352.609	61.68
352.825	13.24
353.041	8.59
353.257	28.16
353.474	25.45
353.69	41.14
353.906	1.61
354.122	-26.29
354.339	73.3
354.555	46.37
354.771	21.76
354.987	92.29
355.203	88.8
355.42	16.15
355.636	-4.39
355.852	17.11
356.068	19.25
356.284	-4.2
356.5	65.16
356.716	34.55
356.932	20.41
357.148	66.13
357.364	21.57
357.58	48.31
357.796	64.97
358.012	62.06
358.228	39.59
358.444	-41.2
358.66	61.29
358.876	31.84
359.092	16.53
359.308	20.6
359.524	39.78
359.74	26.22
359.956	15.18
360.172	59.74
360.388	65.94
360.604	12.66
360.819	108.76
361.035	50.44
361.251	59.54
361.467	-5.75
361.683	70.2
361.898	45.4
362.114	66.33
362.33	38.23
362.546	59.54
362.762	40.75
362.977	51.6
363.193	6.85
363.409	76.21
363.624	15.76
363.84	17.31
364.056	31.26
364.271	47.34
364.487	33.97
364.703	16.53
364.918	-1.87
365.134	30.29
365.35	49.28
365.565	139.18
365.781	42.11
365.996	88.22
366.212	103.91
366.427	98.68
366.643	4.33
366.858	42.11
367.074	20.6
367.289	132.98
367.505	157.97
367.72	10.91
367.936	50.25
368.151	85.31
368.367	71.75
368.582	78.92
368.798	34.36
369.013	104.69
369.228	67.29
369.444	56.83
369.659	99.07
369.874	66.71
370.09	111.28
370.305	7.23
370.52	33.78
370.736	110.89
370.951	69.23
371.166	97.91
371.381	122.9
371.597	87.64
371.812	49.28
372.027	25.83
372.242	46.76
372.458	118.44
372.673	50.83
372.888	77.56
373.103	86.28
373.318	154.87
373.533	72.91
373.749	72.33
373.964	-9.43
374.179	107.21
374.394	3.55
374.609	98.88
374.824	15.56
375.039	74.66
375.254	61.09
375.469	90.16
375.684	62.26
375.899	97.33
376.114	52.96
376.329	77.95
376.544	93.06
376.759	88.03
376.974	42.3
377.189	55.48
377.404	64.78
377.619	125.61
377.834	38.62
378.049	41.53
378.264	56.06
378.478	86.28
378.693	73.88
378.908	101.59
379.123	64.39
379.338	122.9
379.553	82.99
379.767	77.95
379.982	113.99
380.197	100.81
380.412	66.91
380.626	107.01
380.841	163.39
381.056	115.15
381.271	145.96
381.485	53.54
381.7	56.45
381.915	98.29
382.129	74.27
382.344	86.67
382.559	51.21
382.773	120.77
382.988	15.95
383.202	70.78
383.417	52.38
383.632	179.47
383.846	79.5
384.061	100.81
384.275	58
384.49	98.29
384.704	118.83
384.919	90.54
385.133	86.09
385.348	132.39
385.562	97.33
385.777	154.29
385.991	84.15
386.206	66.71
386.42	80.28
386.634	145.96
386.849	113.99
387.063	102.56
387.277	84.15
387.492	69.23
387.706	78.73
387.92	88.8
388.135	133.75
388.349	116.89
388.563	137.24
388.778	106.43
388.992	128.71
389.206	141.5
389.42	203.89
389.635	114.57
389.849	170.56
390.063	168.04
390.277	122.9
390.491	221.91
390.706	156.22
390.92	163.39
391.134	165.72
391.348	151.96
391.562	106.43
391.776	151.57
391.99	113.99
392.205	189.16
392.419	117.86
392.633	113.41
392.847	204.66
393.061	100.81
393.275	163.78
393.489	117.48
393.703	124.06
393.917	134.72
394.131	60.9
394.345	108.95
394.559	151.38
394.773	105.85
394.986	153.51
395.2	143.05
395.414	202.34
395.628	126
395.842	185.48
396.056	182.38
396.27	97.91
396.484	170.17
396.697	166.88
396.911	177.15
397.125	149.44
397.339	171.72
397.553	138.59
397.766	200.21
397.98	176.57
398.194	194.39
398.408	178.51
398.621	240.12
398.835	228.88
399.049	213.38
399.262	282.74
399.476	256.78
399.69	273.83
399.903	294.56
400.117	226.17
400.331	264.53
400.544	222.49
400.758	346.48
400.971	256.59
401.185	287.2
401.398	225.78
401.612	306.19
401.826	289.52
402.039	315.49
402.253	263.95
402.466	303.67
402.68	275.57
402.893	304.83
403.106	291.65
403.32	268.02
403.533	259.1
403.747	268.02
403.96	279.25
404.174	294.37
404.387	243.99
404.6	289.91
404.814	331.57
405.027	297.85
405.24	275.77
405.454	281.39
405.667	340.28
405.88	249.03
406.094	311.61
406.307	340.09
406.52	288.55
406.733	247.67
406.947	225.39
407.16	349.97
407.373	329.24
407.586	256.2
407.799	256
408.012	348.03
408.226	310.25
408.439	358.69
408.652	245.54
408.865	342.8
409.078	380.78
409.291	318.59
409.504	305.22
409.717	350.17
409.93	344.16
410.143	307.35
410.357	282.55
410.57	242.44
410.783	318
410.996	311.22
411.209	341.25
411.421	371.09
411.634	360.63
411.847	321.3
412.06	370.51
412.273	362.76
412.486	382.13
412.699	445.68
412.912	379.81
413.125	386.98
413.338	354.62
413.55	356.75
413.763	342.8
413.976	380.97
414.189	341.25
414.402	369.54
414.615	427.28
414.827	337.57
415.04	400.73
415.253	398.8
415.466	395.7
415.678	453.24
415.891	365.67
416.104	395.12
416.316	360.05
416.529	367.02
416.742	408.1
416.954	447.62
417.167	419.53
417.38	359.08
417.592	468.74
417.805	351.52
418.017	343.19
418.23	418.56
418.442	354.82
418.655	378.07
418.868	376.13
419.08	436.58
419.293	417.01
419.505	436
419.718	418.17
419.93	428.63
420.142	392.4
420.355	422.43
420.567	454.98
420.78	410.81
420.992	394.15
421.205	467
421.417	387.17
421.629	408.68
421.842	380.97
422.054	366.25
422.266	463.51
422.479	479.4
422.691	402.48
422.903	477.07
423.115	396.08
423.328	405.97
423.54	410.81
423.752	425.34
423.964	415.07
424.177	462.35
424.389	441.81
424.601	523.76
424.813	448.01
425.025	480.36
425.238	429.6
425.45	423.98
425.662	435.8
425.874	743.86
426.086	455.56
426.298	480.56
426.51	469.51
426.722	461.76
426.934	428.63
427.146	493.54
427.358	452.66
427.57	452.46
427.782	397.44
427.994	431.54
428.206	369.54
428.418	405
428.63	469.32
428.842	500.13
429.054	457.7
429.266	485.98
429.478	395.5
429.69	442.58
429.902	398.22
430.114	450.14
430.325	428.05
430.537	369.93
430.749	393.37
430.961	293.01
431.173	361.02
431.384	365.67
431.596	285.84
431.808	388.53
432.02	453.43
432.231	485.98
432.443	548.56
432.655	495.67
432.867	464.09
433.078	520.08
433.29	554.57
433.502	531.51
433.713	522.99
433.925	558.64
434.136	581.5
434.348	453.24
434.56	440.65
434.771	567.94
434.983	461.96
435.194	503.61
435.406	520.86
435.617	584.02
435.829	597
436.04	595.26
436.252	597.58
436.463	609.4
436.675	627.03
436.886	573.17
437.098	620.25
437.309	643.89
437.521	599.13
437.732	596.42
437.943	565.61
438.155	569.49
438.366	525.51
438.578	634.78
438.789	550.11
439	559.03
439.211	544.11
439.423	550.11
439.634	589.06
439.845	609.21
440.057	574.72
440.268	602.81
440.479	584.99
440.69	635.36
440.902	587.31
441.113	616.76
441.324	617.15
441.535	624.51
441.746	665.97
441.957	620.44
442.168	619.86
442.38	658.03
442.591	676.82
442.802	651.44
443.013	671.79
443.224	702.98
443.435	664.81
443.646	678.95
443.857	657.84
444.068	649.31
444.279	635.17
444.49	732.24
444.701	668.11
444.912	802.57
445.123	754.52
445.334	705.69
445.545	703.17
445.756	661.32
445.967	645.82
446.178	703.95
446.388	686.12
446.599	710.73
446.81	693.49
447.021	665.39
447.232	714.6
447.443	745.22
447.653	699.1
447.864	763.04
448.075	714.99
448.286	760.33
448.496	746.77
448.707	791.52
448.918	691.94
449.129	798.88
449.339	725.84
449.55	746.19
449.761	687.87
449.971	770.98
450.182	733.59
450.393	785.9
450.603	718.48
450.814	799.27
451.024	786.87
451.235	823.1
451.446	802.76
451.656	848.68
451.867	754.32
452.077	791.33
452.288	832.6
452.498	819.81
452.709	772.15
452.919	770.6
453.13	753.94
453.34	786.29
453.55	705.69
453.761	802.18
453.971	767.69
454.182	772.92
454.392	767.3
454.602	839.77
454.813	815.74
455.023	804.31
455.233	742.5
455.444	782.8
455.654	701.43
455.864	786.48
456.075	777.96
456.285	752.58
456.495	761.88
456.705	821.17
456.916	851.78
457.126	869.8
457.336	802.18
457.546	737.66
457.756	777.18
457.967	862.63
458.177	799.47
458.387	819.62
458.597	785.32
458.807	761.49
459.017	761.68
459.227	771.76
459.437	776.6
459.647	825.04
459.857	846.16
460.068	795.4
460.278	870.76
460.488	847.9
460.698	884.33
460.908	810.9
461.117	761.88
461.327	808.77
461.537	847.32
461.747	864.18
461.957	861.27
462.167	975.39
462.377	926.37
462.587	841.12
462.797	937.8
463.007	839.77
463.216	900.21
463.426	939.93
463.636	900.6
463.846	806.63
464.056	849.26
464.265	922.3
464.475	811.67
464.685	877.74
464.895	896.53
465.104	866.89
465.314	929.28
465.524	871.15
465.733	805.86
465.943	937.61
466.153	960.47
466.362	912.03
466.572	918.81
466.782	875.41
466.991	930.05
467.201	944.97
467.41	805.08
467.62	887.43
467.829	889.36
468.039	924.63
468.249	902.73
468.458	907.19
468.668	949.62
468.877	950.39
469.086	996.12
469.296	999.03
469.505	957.56
469.715	1024.21
469.924	964.34
470.134	1015.3
470.343	1012.2
470.552	930.83
470.762	975
470.971	920.17
471.18	978.88
471.39	973.45
471.599	947.88
471.808	986.24
472.018	983.14
472.227	1070.13
472.436	1067.22
472.645	1044.75
472.855	999.03
473.064	1116.24
473.273	1066.84
473.482	1063.16
473.691	1088.15
473.901	1078.46
474.11	1043.97
474.319	1148.21
474.528	1059.09
474.737	1134.84
474.946	1124.77
475.155	1126.51
475.364	1171.65
475.573	1147.44
475.783	1153.83
475.992	1168.17
476.201	1190.45
476.41	1115.85
476.619	1141.04
476.828	1173.79
477.037	1127.87
477.245	1135.62
477.454	1167.97
477.663	1166.42
477.872	1187.54
478.081	1302.05
478.29	1180.37
478.499	1337.5
478.708	1275.31
478.917	1330.91
479.125	1226.29
479.334	1252.45
479.543	1235.4
479.752	1296.81
479.961	1258.45
480.169	1350.87
480.378	1310.18
480.587	1429.73
480.796	1342.15
481.004	1312.31
481.213	1339.44
481.422	1353.39
481.63	1375.86
481.839	1402.21
482.048	1441.74
482.256	1409.77
482.465	1463.05
482.674	1424.69
482.882	1470.8
483.091	1505.67
483.299	1441.35
483.508	1493.08
483.716	1446.39
483.925	1464.99
484.134	1416.74
484.342	1467.31
484.551	1518.27
484.759	1473.12
484.967	1548.1
485.176	1528.92
485.384	1507.42
485.593	1525.63
485.801	1513.04
486.01	1425.08
486.218	1384.78
486.426	1284.41
486.635	1299.14
486.843	1267.17
487.051	1328.98
487.26	1316.58
487.468	1347.38
487.676	1414.61
487.885	1405.31
488.093	1458.21
488.301	1530.09
488.509	1509.94
488.717	1564.57
488.926	1522.34
489.134	1522.53
489.342	1506.64
489.55	1508.97
489.758	1508.97
489.967	1537.64
490.175	1690.12
490.383	1637.42
490.591	1695.35
490.799	1586.47
491.007	1718.8
491.215	1642.46
491.423	1661.64
491.631	1633.55
491.839	1634.71
492.047	1690.9
492.255	1582.01
492.463	1556.82
492.671	1583.95
492.879	1649.82
493.087	1614.95
493.295	1625.99
493.503	1694.38
493.711	1726.35
493.919	1747.28
494.127	1752.7
494.334	1702.52
494.542	1657.57
494.75	1695.74
494.958	1707.75
495.166	1774.98
495.374	1756.19
495.581	1770.72
495.789	1795.33
495.997	1825.36
496.205	1739.72
496.412	1688.18
496.62	1780.6
496.828	1798.62
497.035	1773.43
497.243	1818.38
497.451	1752.9
497.658	1811.41
497.866	1729.06
498.074	1850.54
498.281	1769.36
498.489	1849.38
498.696	1768.98
498.904	1725.96
499.112	1732.16
499.319	1839.69
499.527	1761.23
499.734	1809.08
499.942	1775.76
500.149	1829.43
500.357	1848.8
500.564	1756.96
500.771	1780.02
500.979	1731.78
501.186	1736.81
501.394	1787
501.601	1709.5
501.808	1782.54
502.016	1776.53
502.223	1725.38
502.43	1744.95
502.638	1742.43
502.845	1731.39
503.052	1841.44
503.26	1793.78
503.467	1870.69
503.674	1827.88
503.881	1868.18
504.089	1934.24
504.296	1846.48
504.503	1763.36
504.71	1788.16
504.917	1767.04
505.125	1818.19
505.332	1798.04
505.539	1813.34
505.746	1933.08
505.953	1890.07
506.16	1910.8
506.367	1957.49
506.574	1976.87
506.781	1979.97
506.988	1879.99
507.195	1928.04
507.402	1932.89
507.609	1944.32
507.816	1892.2
508.023	1895.69
508.23	1851.71
508.437	1821.09
508.644	1868.76
508.851	1928.82
509.058	1930.17
509.265	1914.09
509.472	1948.58
509.679	2028.6
509.885	1930.56
510.092	1921.65
510.299	1949.94
510.506	1943.35
510.713	1927.07
510.92	1919.52
511.126	1940.06
511.333	1969.31
511.54	2028.4
511.746	2027.24
511.953	1985.97
512.16	2027.63
512.367	2022.79
512.573	1957.49
512.78	1993.14
512.987	1988.69
513.193	1948
513.4	1858.29
513.606	1944.12
513.813	1975.32
514.02	1940.44
514.226	2021.82
514.433	1967.76
514.639	1922.42
514.846	1945.09
515.052	1916.03
515.259	1962.53
515.465	1917.77
515.672	1973.19
515.878	2036.93
516.085	1997.02
516.291	2041.58
516.497	1967.96
516.704	1930.37
516.91	1877.09
517.117	1816.25
517.323	1766.85
517.529	1766.07
517.736	1780.21
517.942	1735.46
518.148	1811.79
518.354	1848.41
518.561	1852.87
518.767	1822.84
518.973	1909.25
519.179	1924.36
519.386	1906.34
519.592	1930.17
519.798	1918.16
520.004	2035.57
520.21	1983.65
520.417	2052.43
520.623	2070.83
520.829	2101.06
521.035	2092.73
521.241	2059.02
521.447	2087.88
521.653	2207.23
521.859	2080.33
522.065	2123.53
522.271	2262.84
522.477	2189.21
522.683	2222.54
522.889	2163.25
523.095	2156.66
523.301	2128.18
523.507	2101.25
523.713	2167.32
523.919	2106.1
524.125	2208.59
524.331	2196.58
524.537	2295.58
524.742	2279.11
524.948	2282.79
525.154	2270.2
525.36	2339.95
525.566	2264.39
525.772	2308.76
525.977	2237.26
526.183	2259.16
526.389	2324.06
526.595	2225.64
526.8	2204.91
527.006	2133.42
527.212	2078.97
527.417	2057.47
527.623	2051.27
527.829	2135.16
528.034	2165.19
528.24	2156.86
528.446	2216.34
528.651	2277.95
528.857	2274.66
529.062	2362.04
529.268	2336.46
529.473	2392.46
529.679	2371.92
529.884	2460.85
530.09	2419.19
530.295	2436.24
530.501	2394.59
530.706	2373.86
530.912	2399.82
531.117	2394.2
531.323	2435.66
531.528	2448.84
531.733	2489.72
531.939	2431.2
532.144	2477.12
532.35	2455.81
532.555	2508.12
532.76	2439.73
532.966	2443.99
533.171	2390.32
533.376	2351.19
533.581	2309.73
533.787	2380.64
533.992	2431.79
534.197	2400.21
534.402	2425.2
534.607	2434.89
534.813	2529.82
535.018	2393.04
535.223	2425.59
535.428	2468.6
535.633	2513.93
535.838	2528.85
536.043	2526.14
536.249	2616.81
536.454	2511.03
536.659	2577.48
536.864	2531.95
537.069	2507.54
537.274	2528.85
537.479	2495.14
537.684	2492.24
537.889	2443.99
538.094	2560.24
538.299	2545.32
538.504	2498.82
538.708	2532.34
538.913	2542.61
539.118	2516.26
539.323	2561.4
539.528	2452.32
539.733	2541.06
539.938	2521.68
540.142	2544.16
540.347	2500.57
540.552	2431.59
540.757	2454.84
540.962	2451.94
541.166	2406.79
541.371	2412.8
541.576	2434.89
541.781	2397.49
541.985	2515.87
542.19	2471.12
542.395	2579.42
542.599	2590.27
542.804	2558.88
543.008	2631.93
543.213	2537.96
543.418	2511.22
543.622	2553.85
543.827	2517.03
544.031	2584.85
544.236	2589.88
544.44	2565.28
544.645	2676.3
544.849	2609.06
545.054	2646.65
545.258	2700.51
545.463	2678.04
545.667	2592.6
545.872	2612.94
546.076	2613.91
546.281	2589.11
546.485	2577.87
546.689	2634.25
546.894	2644.33
547.098	2615.46
547.302	2546.29
547.507	2610.61
547.711	2627.86
547.915	2651.5
548.119	2554.04
548.324	2579.42
548.528	2657.31
548.732	2554.62
548.936	2637.74
549.141	2617.01
549.345	2583.1
549.549	2593.37
549.753	2627.66
549.957	2740.62
550.161	2702.84
550.366	2649.95
550.57	2611
550.774	2599.18
550.978	2623.01
551.182	2653.24
551.386	2580.78
551.59	2586.01
551.794	2579.42
551.998	2613.52
552.202	2593.76
552.406	2585.43
552.61	2665.06
552.814	2627.08
553.018	2665.06
553.222	2645.49
553.426	2589.69
553.63	2663.12
553.833	2600.93
554.037	2545.52
554.241	2599.76
554.445	2580.78
554.649	2567.22
554.853	2589.3
555.056	2652.46
555.26	2637.35
555.464	2650.91
555.668	2623.21
555.871	2636.96
556.075	2691.6
556.279	2578.07
556.483	2535.05
556.686	2559.66
556.89	2553.65
557.094	2613.52
557.297	2524.4
557.501	2606.74
557.704	2484.68
557.908	2588.92
558.112	2516.65
558.315	2581.75
558.519	2552.68
558.722	2531.18
558.926	2532.15
559.129	2427.14
559.333	2432.95
559.536	2396.91
559.74	2424.04
559.943	2432.17
560.147	2409.12
560.35	2430.62
560.553	2414.35
560.757	2369.59
560.96	2493.4
561.164	2409.89
561.367	2486.81
561.57	2478.48
561.774	2466.66
561.977	2420.55
562.18	2468.4
562.384	2494.37
562.587	2381.99
562.79	2434.69
562.993	2394.01
563.197	2461.04
563.4	2527.5
563.603	2481.77
563.806	2536.99
564.009	2409.7
564.212	2475.57
564.416	2334.91
564.619	2434.3
564.822	2380.64
565.025	2484.1
565.228	2424.04
565.431	2444.19
565.634	2339.76
565.837	2350.61
566.04	2368.04
566.243	2308.76
566.446	2259.35
566.649	2342.66
566.852	2256.44
567.055	2329.68
567.258	2354.67
567.461	2387.22
567.664	2402.34
567.867	2279.31
568.07	2357.58
568.273	2335.3
568.475	2355.45
568.678	2318.64
568.881	2273.11
569.084	2305.27
569.287	2171
569.489	2227.58
569.692	2255.67
569.895	2289.58
570.098	2225.06
570.3	2225.45
570.503	2194.06
570.706	2168.68
570.909	2166.55
571.111	2128.96
571.314	2134.58
571.516	2162.28
571.719	2154.34
571.922	2131.28
572.124	2132.83
572.327	2193.67
572.529	2110.36
572.732	2174.88
572.935	2204.13
573.137	2236.3
573.34	2168.87
573.542	2208.4
573.745	2181.85
573.947	2146.78
574.15	2149.3
574.352	2162.86
574.554	2209.17
574.757	2121.79
574.959	2084.4
575.162	2107.26
575.364	2105.13
575.566	2202.39
575.769	2100.48
575.971	2137.68
576.173	1983.65
576.376	2049.52
576.578	2126.05
576.78	2159.57
576.982	1982.68
577.185	2090.98
577.387	2041.58
577.589	2074.9
577.791	2127.8
577.993	2100.48
578.196	2085.95
578.398	2098.15
578.6	2124.7
578.802	2008.25
579.004	2014.07
579.206	2030.73
579.408	2059.21
579.61	2017.94
579.812	2053.98
580.014	2010
580.216	2038.29
580.418	2052.04
580.62	1994.89
580.822	1970.47
581.024	2033.44
581.226	2060.57
581.428	2041
581.63	2100.67
581.832	2003.02
582.034	2075.29
582.236	2053.59
582.438	2081.1
582.64	2099.9
582.841	2107.26
583.043	2175.85
583.245	2068.12
583.447	2086.92
583.649	2028.99
583.85	2055.34
584.052	2068.7
584.254	1988.1
584.456	2098.15
584.657	2045.26
584.859	2069.87
585.061	2006.7
585.262	2016
585.464	1967.96
585.666	2053.4
585.867	2000.89
586.069	2015.04
586.27	2018.91
586.472	1975.12
586.674	1959.62
586.875	1982.49
587.077	1953.42
587.278	1986.75
587.48	1971.25
587.681	2087.3
587.883	1995.27
588.084	1923.78
588.285	1915.64
588.487	1912.54
588.688	1925.91
588.89	1899.17
589.091	1813.93
589.292	1797.46
589.494	1788.93
589.695	1751.93
589.896	1700.97
590.098	1689.15
590.299	1754.06
590.5	1720.93
590.702	1738.95
590.903	1799.2
591.104	1859.84
591.305	1852.48
591.507	1871.86
591.708	1883.87
591.909	1850.54
592.11	1878.25
592.311	1889.68
592.512	1859.26
592.714	1774.98
592.915	1815.09
593.116	1813.15
593.317	1835.24
593.518	1816.25
593.719	1830.2
593.92	1877.86
594.121	1899.76
594.322	1825.74
594.523	1837.18
594.724	1805.79
594.925	1810.05
595.126	1801.14
595.327	1826.33
595.528	1815.86
595.729	1857.13
595.929	1831.36
596.13	1855.97
596.331	1809.86
596.532	1827.49
596.733	1892.01
596.934	1878.25
597.135	1893.75
597.335	1859.26
597.536	1787
597.737	1840.28
597.938	1793.58
598.138	1850.93
598.339	1812.18
598.54	1813.15
598.74	1803.08
598.941	1810.63
599.142	1842.99
599.342	1811.6
599.543	1776.15
599.744	1831.56
599.944	1775.76
600.145	1770.53
600.345	1797.85
600.546	1892.98
600.746	1879.61
600.947	1888.91
601.147	1803.27
601.348	1853.84
601.548	1743.6
601.749	1796.88
601.949	1743.79
602.15	1780.8
602.35	1780.6
602.551	1802.5
602.751	1752.31
602.951	1820.9
603.152	1707.37
603.352	1822.26
603.552	1795.91
603.753	1791.65
603.953	1811.79
604.153	1824
604.354	1811.21
604.554	1832.91
604.754	1811.79
604.954	1764.71
605.155	1826.33
605.355	1792.42
605.555	1833.69
605.755	1847.25
605.955	1799.4
606.155	1834.85
606.356	1801.72
606.556	1806.37
606.756	1791.65
606.956	1753.09
607.156	1837.18
607.356	1743.6
607.556	1803.08
607.756	1779.83
607.956	1816.25
608.156	1789.13
608.356	1742.82
608.556	1837.18
608.756	1765.88
608.956	1735.65
609.156	1738.75
609.356	1703.3
609.556	1707.95
609.755	1744.37
609.955	1676.56
610.155	1716.08
610.355	1678.11
610.555	1690.12
610.755	1667.84
610.954	1657.57
611.154	1727.51
611.354	1711.24
611.554	1682.18
611.753	1690.12
611.953	1655.63
612.153	1717.63
612.352	1689.93
612.552	1638.97
612.752	1638.78
612.951	1688.57
613.151	1656.02
613.351	1651.57
613.55	1659.12
613.75	1671.33
613.949	1620.57
614.149	1649.63
614.348	1609.91
614.548	1600.22
