Data from gum_old_FLMT105791__117__15-46-06-253.txt Node

Date: Mon Mar 20 15:46:06 GMT 2023
User: antho
Spectrometer: FLMT10579
Trigger mode: 0
Integration Time (sec): 1.000000E-1
Scans to average: 10
Electric dark correction enabled: true
Nonlinearity correction enabled: false
Boxcar width: 0
XAxis mode: Wavelengths
Number of Pixels in Spectrum: 3648
>>>>>Begin Spectral Data<<<<<
345.248	-154.87
345.464	-154.87
345.681	-154.87
345.898	-201.95
346.114	-174.44
346.331	-42.69
346.548	43.92
346.764	-17.89
346.981	-3.94
347.197	-15.56
347.414	-15.37
347.631	-11.69
347.847	64.07
348.064	19.31
348.28	7.69
348.497	-46.18
348.713	18.34
348.93	32.87
349.146	19.89
349.363	29.77
349.579	41.98
349.796	-0.26
350.012	13.5
350.229	25.12
350.445	32.68
350.661	16.21
350.878	5.55
351.094	27.84
351.311	25.12
351.527	45.47
351.743	0.9
351.96	89.06
352.176	64.26
352.392	34.23
352.609	53.02
352.825	-5.49
353.041	10.59
353.257	10.79
353.474	30.16
353.69	49.73
353.906	15.44
354.122	-15.56
354.339	66.97
354.555	27.64
354.771	11.37
354.987	75.11
355.203	83.05
355.42	18.34
355.636	12.72
355.852	-5.49
356.068	22.6
356.284	1.29
356.5	71.23
356.716	5.17
356.932	24.35
357.148	53.6
357.364	6.33
357.58	72.98
357.796	71.04
358.012	72.98
358.228	48.57
358.444	-42.11
358.66	77.63
358.876	38.49
359.092	-31.45
359.308	45.66
359.524	58.45
359.74	7.1
359.956	-5.3
360.172	31.13
360.388	48.95
360.604	6.52
360.819	105.14
361.035	27.45
361.251	52.05
361.467	-5.68
361.683	70.07
361.898	43.33
362.114	49.34
362.33	47.21
362.546	63.68
362.762	35.78
362.977	55.54
363.193	26.48
363.409	43.14
363.624	26.87
363.84	46.05
364.056	18.54
364.271	53.02
364.487	52.25
364.703	29.77
364.918	12.34
365.134	41.2
365.35	31.71
365.565	155.13
365.781	41.78
365.996	60.77
366.212	117.15
366.427	62.13
366.643	37.91
366.858	25.7
367.074	47.02
367.289	119.28
367.505	179.93
367.72	3.42
367.936	33.45
368.151	74.92
368.367	80.34
368.582	57.67
368.798	20.86
369.013	89.45
369.228	41.59
369.444	68.33
369.659	89.25
369.874	45.27
370.09	133.81
370.305	2.65
370.52	27.84
370.736	88.87
370.951	68.33
371.166	93.71
371.381	128.78
371.597	83.05
371.812	46.24
372.027	38.1
372.242	59.03
372.458	117.35
372.673	46.43
372.888	47.02
373.103	66.97
373.318	132.85
373.533	75.11
373.749	63.87
373.964	14.66
374.179	76.66
374.394	-1.61
374.609	100.3
374.824	27.64
375.039	115.41
375.254	31.13
375.469	111.34
375.684	66.2
375.899	100.88
376.114	62.52
376.329	59.42
376.544	83.63
376.759	93.9
376.974	36.17
377.189	46.43
377.404	24.35
377.619	93.52
377.834	-11.5
378.049	32.29
378.264	30.93
378.478	72.2
378.693	43.53
378.908	74.14
379.123	52.44
379.338	115.99
379.553	85.57
379.767	78.79
379.982	88.67
380.197	90.8
380.412	55.15
380.626	75.3
380.841	162.49
381.056	108.43
381.271	147.96
381.485	49.34
381.7	48.95
381.915	81.5
382.129	59.61
382.344	95.84
382.559	58.83
382.773	113.08
382.988	0.32
383.202	76.08
383.417	38.1
383.632	173.92
383.846	67.55
384.061	58.25
384.275	37.91
384.49	91.58
384.704	86.35
384.919	43.33
385.133	63.29
385.348	123.93
385.562	54.77
385.777	113.08
385.991	73.17
386.206	81.89
386.42	73.95
386.634	122.77
386.849	77.05
387.063	84.99
387.277	53.41
387.492	48.95
387.706	56.12
387.92	47.98
388.135	112.7
388.349	92.35
388.563	100.1
388.778	86.93
388.992	88.48
389.206	122.96
389.42	154.93
389.635	78.79
389.849	118.7
390.063	125.29
390.277	114.63
390.491	187.87
390.706	117.15
390.92	122.58
391.134	130.71
391.348	124.51
391.562	54.18
391.776	138.27
391.99	96.62
392.205	125.1
392.419	83.63
392.633	115.99
392.847	139.05
393.061	87.12
393.275	166.95
393.489	78.98
393.703	88.87
393.917	98.94
394.131	57.67
394.345	107.08
394.559	115.22
394.773	85.96
394.986	137.88
395.2	117.73
395.414	141.18
395.628	72.01
395.842	135.17
396.056	126.45
396.27	75.88
396.484	133.23
396.697	125.29
396.911	169.85
397.125	95.07
397.339	114.83
397.553	88.48
397.766	177.21
397.98	135.56
398.194	141.56
398.408	119.28
398.621	135.95
398.835	189.61
399.049	161.33
399.262	231.46
399.476	199.69
399.69	202.98
399.903	264.98
400.117	175.86
400.331	201.24
400.544	174.89
400.758	301.6
400.971	212.86
401.185	209.76
401.398	164.43
401.612	263.43
401.826	229.72
402.039	208.21
402.253	187.29
402.466	221.39
402.68	213.06
402.893	220.61
403.106	206.86
403.32	205.89
403.533	243.09
403.747	201.05
403.96	238.24
404.174	241.15
404.387	180.12
404.6	189.03
404.814	261.11
405.027	199.5
405.24	227.01
405.454	214.61
405.667	247.35
405.88	180.7
406.094	229.14
406.307	257.23
406.52	223.91
406.733	175.66
406.947	160.36
407.16	271.57
407.373	261.49
407.586	178.38
407.799	194.46
408.012	243.67
408.226	240.38
408.439	295.79
408.652	174.31
408.865	265.18
409.078	276.03
409.291	269.44
409.504	201.43
409.717	264.79
409.93	265.56
410.143	247.74
410.357	188.26
410.57	179.35
410.783	180.51
410.996	269.63
411.209	221.19
411.421	289.98
411.634	269.05
411.847	198.53
412.06	262.66
412.273	275.06
412.486	286.88
412.699	369.41
412.912	263.63
413.125	271.57
413.338	259.75
413.55	282.23
413.763	250.45
413.976	270.02
414.189	257.62
414.402	238.05
414.615	351.59
414.827	266.53
415.04	309.54
415.253	289.39
415.466	312.64
415.678	354.3
415.891	266.73
416.104	255.68
416.316	271.96
416.529	262.66
416.742	338.61
416.954	334.34
417.167	288.43
417.38	272.73
417.592	310.71
417.805	257.62
418.017	206.66
418.23	317.49
418.442	261.11
418.655	264.98
418.868	283.58
419.08	320.97
419.293	304.51
419.505	303.92
419.718	316.13
419.93	333.96
420.142	286.88
420.355	345.58
420.567	342.48
420.78	289.59
420.992	290.94
421.205	357.21
421.417	239.99
421.629	272.15
421.842	276.61
422.054	236.5
422.266	347.71
422.479	352.17
422.691	298.31
422.903	349.46
423.115	269.83
423.328	284.74
423.54	301.02
423.752	295.59
423.964	259.36
424.177	334.34
424.389	303.34
424.601	398.86
424.813	322.52
425.025	355.85
425.238	348.49
425.45	301.21
425.662	262.85
425.874	629.81
426.086	322.52
426.298	337.06
426.51	334.54
426.722	325.24
426.934	313.61
427.146	348.49
427.358	301.02
427.57	357.98
427.782	325.82
427.994	323.69
428.206	284.94
428.418	267.69
428.63	380.45
428.842	361.27
429.054	314
429.266	349.65
429.478	287.46
429.69	319.23
429.902	267.89
430.114	343.45
430.325	301.21
430.537	283
430.749	270.6
430.961	178.18
431.173	286.49
431.384	281.45
431.596	192.91
431.808	265.18
432.02	344.03
432.231	352.17
432.443	441.29
432.655	393.24
432.867	335.12
433.078	372.51
433.29	405.64
433.502	343.84
433.713	400.22
433.925	384.72
434.136	433.15
434.348	338.61
434.56	270.21
434.771	451.75
434.983	288.62
435.194	354.69
435.406	352.75
435.617	404.09
435.829	466.28
436.04	409.71
436.252	417.46
436.463	445.36
436.675	440.9
436.886	435.67
437.098	428.89
437.309	487.21
437.521	448.85
437.732	415.72
437.943	406.22
438.155	442.07
438.366	351.78
438.578	458.92
438.789	401.38
439	441.49
439.211	399.05
439.423	410.1
439.634	415.91
439.845	450.01
440.057	423.85
440.268	486.82
440.479	383.75
440.69	420.95
440.902	413.39
441.113	427.54
441.324	422.3
441.535	444.59
441.746	487.02
441.957	395.95
442.168	407.39
442.38	468.22
442.591	481.4
442.802	431.99
443.013	470.93
443.224	498.45
443.435	458.54
443.646	444
443.857	457.57
444.068	444.39
444.279	477.91
444.49	543.98
444.701	468.8
444.912	602.3
445.123	550.37
445.334	492.05
445.545	496.32
445.756	493.41
445.967	446.33
446.178	489.34
446.388	498.64
446.599	494.96
446.81	489.92
447.021	461.05
447.232	513.37
447.443	535.45
447.653	468.61
447.864	537.58
448.075	515.69
448.286	523.83
448.496	520.73
448.707	532.35
448.918	485.08
449.129	587.57
449.339	469
449.55	520.53
449.761	490.5
449.971	560.83
450.182	513.75
450.393	545.33
450.603	526.35
450.814	590.67
451.024	561.8
451.235	563.74
451.446	633.1
451.656	606.56
451.867	533.13
452.077	571.49
452.288	609.08
452.498	623.41
452.709	532.16
452.919	552.89
453.13	496.7
453.34	555.02
453.55	509.68
453.761	553.66
453.971	549.79
454.182	549.79
454.392	567.61
454.602	607.33
454.813	564.9
455.023	596.68
455.233	513.56
455.444	578.46
455.654	481.98
455.864	537.39
456.075	544.75
456.285	521.5
456.495	555.8
456.705	570.91
456.916	634.65
457.126	646.86
457.336	569.94
457.546	471.32
457.756	555.8
457.967	619.73
458.177	584.28
458.387	568.2
458.597	535.07
458.807	569.55
459.017	549.98
459.227	565.29
459.437	533.32
459.647	597.26
459.857	580.6
460.068	549.21
460.278	639.5
460.488	589.31
460.698	668.94
460.908	572.07
461.117	553.66
461.327	543.59
461.537	625.16
461.747	605.78
461.957	589.31
462.167	712.93
462.377	644.14
462.587	595.9
462.797	638.91
463.007	617.8
463.216	647.44
463.426	672.82
463.636	653.83
463.846	545.72
464.056	648.21
464.265	634.46
464.475	549.4
464.685	610.05
464.895	656.93
465.104	614.5
465.314	653.83
465.524	589.12
465.733	563.93
465.943	713.31
466.153	685.61
466.362	660.23
466.572	648.02
466.782	621.48
466.991	634.46
467.201	706.53
467.41	595.32
467.62	643.37
467.829	610.05
468.039	674.95
468.249	642.98
468.458	663.33
468.668	678.44
468.877	685.22
469.086	704.01
469.296	688.13
469.505	667.01
469.715	743.73
469.924	661.97
470.134	717.38
470.343	736.56
470.552	676.11
470.762	645.31
470.971	626.51
471.18	690.84
471.39	669.91
471.599	641.63
471.808	746.83
472.018	674.95
472.227	749.54
472.436	751.87
472.645	724.16
472.855	696.46
473.064	773.37
473.273	764.66
473.482	741.41
473.691	792.94
473.901	766.21
474.11	720.87
474.319	855.14
474.528	755.55
474.737	805.73
474.946	769.5
475.155	771.82
475.364	850.29
475.573	832.47
475.783	799.92
475.992	813.29
476.201	822
476.41	776.47
476.619	764.27
476.828	810.96
477.037	792.17
477.245	808.83
477.454	864.24
477.663	808.64
477.872	842.74
478.081	902.22
478.29	840.02
478.499	977.39
478.708	877.42
478.917	925.27
479.125	840.02
479.334	880.13
479.543	873.15
479.752	893.3
479.961	904.54
480.169	944.26
480.378	908.61
480.587	1027.57
480.796	946
481.004	945.42
481.213	951.23
481.422	957.05
481.63	935.35
481.839	965.38
482.048	1012.46
482.256	970.22
482.465	979.52
482.674	1021.56
482.882	1015.75
483.091	1073.68
483.299	992.11
483.508	1042.1
483.716	997.73
483.925	1031.25
484.134	992.31
484.342	982.23
484.551	1056.83
484.759	1050.82
484.967	1048.11
485.176	1045.4
485.384	1076.01
485.593	1053.73
485.801	1066.13
486.01	1008.58
486.218	968.87
486.426	903.57
486.635	868.89
486.843	896.4
487.051	948.13
487.26	896.6
487.468	983.01
487.676	1000.25
487.885	979.33
488.093	1014.98
488.301	1067.68
488.509	1073.1
488.717	1085.31
488.926	1057.21
489.134	1084.34
489.342	1085.89
489.55	1046.75
489.758	1048.5
489.967	1048.69
490.175	1196.13
490.383	1089.57
490.591	1209.89
490.799	1086.66
491.007	1209.69
491.215	1135.68
491.423	1118.44
491.631	1136.65
491.839	1144.59
492.047	1157.38
492.255	1093.83
492.463	1067.1
492.671	1081.82
492.879	1163
493.087	1122.31
493.295	1146.14
493.503	1161.06
493.711	1190.12
493.919	1243.79
494.127	1226.55
494.334	1224.03
494.542	1173.85
494.75	1189.16
494.958	1172.69
495.166	1245.92
495.374	1247.28
495.581	1228.1
495.789	1242.63
495.997	1297.07
496.205	1220.16
496.412	1210.66
496.62	1237.98
496.828	1248.06
497.035	1237.4
497.243	1271.89
497.451	1232.17
497.658	1282.15
497.866	1218.41
498.074	1315.29
498.281	1223.06
498.489	1299.01
498.696	1240.89
498.904	1235.66
499.112	1201.17
499.319	1316.25
499.527	1241.47
499.734	1307.92
499.942	1226.94
500.149	1242.44
500.357	1259.68
500.564	1174.82
500.771	1243.41
500.979	1215.51
501.186	1183.73
501.394	1266.07
501.601	1202.91
501.808	1258.9
502.016	1214.54
502.223	1192.64
502.43	1195.94
502.638	1223.64
502.845	1206.59
503.052	1312.57
503.26	1231.97
503.467	1321.68
503.674	1285.25
503.881	1306.57
504.089	1389.3
504.296	1315.87
504.503	1232.56
504.71	1271.69
504.917	1229.07
505.125	1280.99
505.332	1287.19
505.539	1315.29
505.746	1377.67
505.953	1367.79
506.16	1363.14
506.367	1394.33
506.574	1421.07
506.781	1404.6
506.988	1339.89
507.195	1380.58
507.402	1345.9
507.609	1407.12
507.816	1319.35
508.023	1328.46
508.23	1300.75
508.437	1256.97
508.644	1339.12
508.851	1389.68
509.058	1377.67
509.265	1346.48
509.472	1423.01
509.679	1489.66
509.885	1385.03
510.092	1387.55
510.299	1372.44
510.506	1417.58
510.713	1408.87
510.92	1404.41
511.126	1408.48
511.333	1460.21
511.54	1451.49
511.746	1479.39
511.953	1443.74
512.16	1480.55
512.367	1448.97
512.573	1409.06
512.78	1436.76
512.987	1448.97
513.193	1403.44
513.4	1360.82
513.606	1385.23
513.813	1471.83
514.02	1431.15
514.226	1505.16
514.433	1491.4
514.639	1382.13
514.846	1438.31
515.052	1375.35
515.259	1416.81
515.465	1429.79
515.672	1476.29
515.878	1525.11
516.085	1437.15
516.291	1517.56
516.497	1437.54
516.704	1425.72
516.91	1411.58
517.117	1340.67
517.323	1261.42
517.529	1300.17
517.736	1311.22
517.942	1301.72
518.148	1327.88
518.354	1416.23
518.561	1378.25
518.767	1404.6
518.973	1456.53
519.179	1454.2
519.386	1392.98
519.592	1417.39
519.798	1424.37
520.004	1517.94
520.21	1485.59
520.417	1554.56
520.623	1552.43
520.829	1570.84
521.035	1580.33
521.241	1553.79
521.447	1594.48
521.653	1676.43
521.859	1579.94
522.065	1615.4
522.271	1764
522.477	1634.97
522.683	1709.56
522.889	1679.14
523.095	1669.26
523.301	1665.19
523.507	1579.56
523.713	1637.29
523.919	1579.17
524.125	1699.68
524.331	1658.99
524.537	1786.28
524.742	1801.98
524.948	1748.89
525.154	1762.45
525.36	1891.88
525.566	1759.16
525.772	1821.55
525.977	1707.43
526.183	1771.37
526.389	1821.16
526.595	1739.59
526.8	1707.82
527.006	1695.42
527.212	1602.81
527.417	1568.32
527.623	1568.51
527.829	1685.54
528.034	1707.82
528.24	1740.17
528.446	1715.57
528.651	1850.8
528.857	1854.68
529.062	1876.96
529.268	1852.35
529.473	1866.3
529.679	1849.45
529.884	1943.41
530.09	1919.58
530.295	1922.68
530.501	1904.28
530.706	1879.28
530.912	1850.8
531.117	1910.48
531.323	1891.49
531.528	1935.47
531.733	2004.25
531.939	1918.61
532.144	1968.79
532.35	1953.68
532.555	1981
532.76	1984.88
532.966	1969.96
533.171	1909.7
533.376	1893.23
533.581	1862.23
533.787	1912.41
533.992	1943.41
534.197	1928.69
534.402	1968.99
534.607	1965.31
534.813	2034.48
535.018	1958.53
535.223	1969.38
535.428	1959.88
535.633	2073.22
535.838	2035.83
536.043	2014.13
536.249	2122.82
536.454	2017.81
536.659	2047.26
536.864	2024.21
537.069	2005.03
537.274	2047.07
537.479	2014.71
537.684	1996.5
537.889	1954.07
538.094	2135.61
538.299	2034.09
538.504	2026.14
538.708	2059.08
538.913	2101.9
539.118	2062.57
539.323	2091.44
539.528	2051.91
539.733	2054.43
539.938	2059.47
540.142	2069.35
540.347	2045.52
540.552	1980.61
540.757	2006.19
540.962	1966.47
541.166	1923.85
541.371	1912.61
541.576	2006.19
541.781	1896.33
541.985	2024.98
542.19	2024.4
542.395	2110.42
542.599	2132.9
542.804	2062.76
543.008	2102.29
543.213	2080.78
543.418	1982.16
543.622	2104.22
543.827	2011.42
544.031	2076.71
544.236	2120.89
544.44	2086.59
544.645	2177.46
544.849	2088.34
545.054	2154.4
545.258	2199.94
545.463	2139.87
545.667	2085.82
545.872	2185.02
546.076	2133.09
546.281	2106.55
546.485	2100.35
546.689	2151.89
546.894	2167.58
547.098	2112.56
547.302	2100.74
547.507	2106.94
547.711	2176.49
547.915	2131.35
548.119	2063.92
548.324	2112.36
548.528	2158.47
548.732	2097.64
548.936	2107.32
549.141	2156.92
549.345	2101.12
549.549	2163.9
549.753	2170.1
549.957	2219.31
550.161	2219.31
550.366	2159.44
550.57	2146.27
550.774	2145.49
550.978	2123.02
551.182	2150.14
551.386	2160.99
551.59	2143.55
551.794	2131.35
551.998	2129.99
552.202	2125.54
552.406	2097.64
552.61	2190.64
552.814	2159.83
553.018	2200.32
553.222	2133.67
553.426	2149.56
553.63	2255.35
553.833	2144.52
554.037	2124.76
554.241	2210.79
554.445	2164.67
554.649	2136
554.853	2128.83
555.056	2213.3
555.26	2195.87
555.464	2187.92
555.668	2164.67
555.871	2204.2
556.075	2226.28
556.279	2150.14
556.483	2113.14
556.686	2155.57
556.89	2121.27
557.094	2167.97
557.297	2054.43
557.501	2167.39
557.704	2044.16
557.908	2149.75
558.112	2056.56
558.315	2179.01
558.519	2101.51
558.722	2116.24
558.926	2064.7
559.129	2010.06
559.333	1984.29
559.536	1998.24
559.74	1986.62
559.943	1959.88
560.147	1967.24
560.35	2040.48
560.553	1999.99
560.757	1966.08
560.96	2077.1
561.164	2000.57
561.367	2109.46
561.57	2009.09
561.774	2071.29
561.977	2020.53
562.18	1992.43
562.384	2127.09
562.587	2008.51
562.79	1962.79
562.993	1942.83
563.197	2036.03
563.4	2045.71
563.603	2042.61
563.806	2081.56
564.009	1972.67
564.212	2014.13
564.416	1903.89
564.619	2008.51
564.822	1939.93
565.025	2011.42
565.228	1993.4
565.431	1950.58
565.634	1892.07
565.837	1929.85
566.04	1893.23
566.243	1882
566.446	1826.2
566.649	1900.79
566.852	1852.35
567.055	1855.07
567.258	1901.37
567.461	1956.39
567.664	1916.68
567.867	1789.97
568.07	1885.1
568.273	1910.28
568.475	1927.33
568.678	1860.3
568.881	1836.66
569.084	1847.9
569.287	1757.22
569.489	1794.42
569.692	1814.77
569.895	1846.35
570.098	1776.02
570.3	1793.84
570.503	1748.5
570.706	1738.82
570.909	1740.17
571.111	1656.09
571.314	1697.94
571.516	1738.24
571.719	1735.91
571.922	1651.44
572.124	1675.66
572.327	1730.49
572.529	1668.29
572.732	1622.76
572.935	1709.95
573.137	1786.48
573.34	1683.79
573.542	1754.32
573.745	1701.23
573.947	1702.39
574.15	1697.94
574.352	1666.74
574.554	1762.65
574.757	1671.01
574.959	1651.05
575.162	1640.01
575.364	1663.06
575.566	1759.16
575.769	1627.02
575.971	1641.17
576.173	1543.52
576.376	1623.34
576.578	1660.74
576.78	1718.67
576.982	1551.46
577.185	1606.87
577.387	1574.13
577.589	1573.36
577.791	1664.61
577.993	1603
578.196	1612.11
578.398	1606.68
578.6	1667.71
578.802	1511.36
579.004	1508.45
579.206	1565.8
579.408	1603
579.61	1524.34
579.812	1597.19
580.014	1534.22
580.216	1547.2
580.418	1537.51
580.62	1538.29
580.822	1501.09
581.024	1561.54
581.226	1579.94
581.428	1547.2
581.63	1655.89
581.832	1523.37
582.034	1609.97
582.236	1553.21
582.438	1573.16
582.64	1595.83
582.841	1602.22
583.043	1653.57
583.245	1581.49
583.447	1564.25
583.649	1564.06
583.85	1577.81
584.052	1588.08
584.254	1526.08
584.456	1589.05
584.657	1497.41
584.859	1532.28
585.061	1516.98
585.262	1493.15
585.464	1489.66
585.666	1563.48
585.867	1462.92
586.069	1573.94
586.27	1523.37
586.472	1496.25
586.674	1476.48
586.875	1510.78
587.077	1466.21
587.278	1526.66
587.48	1495.28
587.681	1603.58
587.883	1491.21
588.084	1417.58
588.285	1479.78
588.487	1466.99
588.688	1498.96
588.89	1412.16
589.091	1367.6
589.292	1408.67
589.494	1374.18
589.695	1313.35
589.896	1256.77
590.098	1276.15
590.299	1285.06
590.5	1279.44
590.702	1321.68
590.903	1346.67
591.104	1380.19
591.305	1383.29
591.507	1427.46
591.708	1391.04
591.909	1365.27
592.11	1458.08
592.311	1409.64
592.512	1336.02
592.714	1332.92
592.915	1363.14
593.116	1342.02
593.317	1370.89
593.518	1385.62
593.719	1395.11
593.92	1413.32
594.121	1429.21
594.322	1376.12
594.523	1413.71
594.724	1332.34
594.925	1344.15
595.126	1383.29
595.327	1400.53
595.528	1394.72
595.729	1369.92
595.929	1344.15
596.13	1362.56
596.331	1382.13
596.532	1377.28
596.733	1435.8
596.934	1414.68
597.135	1416.03
597.335	1399.37
597.536	1323.62
597.737	1381.55
597.938	1347.06
598.138	1398.21
598.339	1379.03
598.54	1342.99
598.74	1339.7
598.941	1367.6
599.142	1404.8
599.342	1365.47
599.543	1322.45
599.744	1343.18
599.944	1352.68
600.145	1332.92
600.345	1361.98
600.546	1435.8
600.746	1415.07
600.947	1447.23
601.147	1328.07
601.348	1369.92
601.548	1323.04
601.749	1350.55
601.949	1336.21
602.15	1308.31
602.35	1298.24
602.551	1382.9
602.751	1300.75
602.951	1322.84
603.152	1262.2
603.352	1351.52
603.552	1310.44
603.753	1354.62
603.953	1372.05
604.153	1380
604.354	1340.08
604.554	1315.29
604.754	1334.47
604.954	1304.63
605.155	1329.62
605.355	1312.57
605.555	1368.37
605.755	1382.52
605.955	1377.48
606.155	1349
606.356	1333.89
606.556	1369.92
606.756	1353.65
606.956	1246.12
607.156	1388.72
607.356	1268.98
607.556	1336.4
607.756	1310.25
607.956	1352.48
608.156	1312.38
608.356	1305.21
608.556	1321.68
608.756	1302.3
608.956	1249.99
609.156	1301.92
609.356	1276.34
609.556	1273.82
609.755	1300.37
609.955	1286.8
610.155	1291.07
610.355	1288.35
610.555	1213.76
610.755	1247.67
610.954	1201.94
611.154	1262.97
611.354	1265.49
611.554	1229.84
611.753	1229.46
611.953	1209.5
612.153	1284.48
612.352	1243.79
612.552	1201.36
612.752	1148.66
612.951	1231.78
613.151	1247.86
613.351	1197.68
613.55	1214.92
613.75	1241.27
613.949	1198.46
614.149	1242.44
614.348	1176.17
614.548	1173.27
614.747	1132.78
614.947	1186.83
615.146	1124.64
615.346	1231.59
