Data from gum_old_FLMT105791__92__15-44-20-256.txt Node

Date: Mon Mar 20 15:44:20 GMT 2023
User: antho
Spectrometer: FLMT10579
Trigger mode: 0
Integration Time (sec): 1.000000E-1
Scans to average: 10
Electric dark correction enabled: true
Nonlinearity correction enabled: false
Boxcar width: 0
XAxis mode: Wavelengths
Number of Pixels in Spectrum: 3648
>>>>>Begin Spectral Data<<<<<
345.248	-144.1
345.464	-144.1
345.681	-144.1
345.898	-161.54
346.114	-163.09
346.331	-16.23
346.548	30.27
346.764	-4.41
346.981	-14.1
347.197	-10.22
347.414	32.6
347.631	-49.36
347.847	51.59
348.064	8.38
348.28	32.21
348.497	-42.77
348.713	-17.97
348.93	20
349.146	22.91
349.363	14.19
349.579	12.84
349.796	23.1
350.012	11.09
350.229	59.72
350.445	34.34
350.661	2.18
350.878	21.36
351.094	39.96
351.311	22.91
351.527	46.35
351.743	28.14
351.96	62.24
352.176	56.43
352.392	51.59
352.609	61.08
352.825	29.3
353.041	23.1
353.257	9.93
353.474	32.6
353.69	31.63
353.906	28.14
354.122	-1.11
354.339	88.98
354.555	11.87
354.771	6.64
354.987	74.83
355.203	103.51
355.42	32.21
355.636	40.74
355.852	2.95
356.068	51
356.284	-33.47
356.5	104.48
356.716	47.13
356.932	8.96
357.148	74.25
357.364	-18.55
357.58	68.25
357.796	82.39
358.012	98.47
358.228	52.17
358.444	-14.68
358.66	49.65
358.876	46.55
359.092	21.36
359.308	41.9
359.524	50.81
359.74	31.63
359.956	25.43
360.172	54.3
360.388	69.02
360.604	27.75
360.819	97.12
361.035	45.58
361.251	54.3
361.467	7.41
361.683	61.47
361.898	66.31
362.114	93.63
362.33	34.92
362.546	71.35
362.762	23.3
362.977	57.59
363.193	27.75
363.409	76.38
363.624	18.45
363.84	43.45
364.056	34.15
364.271	66.7
364.487	65.73
364.703	37.83
364.918	24.85
365.134	50.62
365.35	39.96
365.565	161.44
365.781	76.19
365.996	85.49
366.212	125.4
366.427	86.46
366.643	49.65
366.858	74.25
367.074	37.05
367.289	108.93
367.505	174.23
367.72	21.55
367.936	42.09
368.151	100.41
368.367	97.31
368.582	67.67
368.798	36.09
369.013	99.83
369.228	74.25
369.444	95.18
369.659	122.88
369.874	86.85
370.09	101.38
370.305	5.28
370.52	49.26
370.736	121.14
370.951	65.15
371.166	113.78
371.381	120.37
371.597	88.01
371.812	24.65
372.027	40.35
372.242	66.7
372.458	145.75
372.673	53.33
372.888	62.63
373.103	85.88
373.318	150.01
373.533	97.31
373.749	87.43
373.964	24.85
374.179	119.2
374.394	11.09
374.609	102.15
374.824	22.52
375.039	108.35
375.254	36.47
375.469	134.51
375.684	79.68
375.899	117.27
376.114	70.96
376.329	60.89
376.544	122.5
376.759	112.62
376.974	55.46
377.189	71.54
377.404	70.38
377.619	128.5
377.834	46.74
378.049	41.7
378.264	45.97
378.478	124.05
378.693	65.92
378.908	140.52
379.123	95.76
379.338	147.49
379.553	109.9
379.767	110.87
379.982	118.82
380.197	109.71
380.412	72.51
380.626	95.57
380.841	164.35
381.056	127.34
381.271	154.46
381.485	88.59
381.7	76.77
381.915	109.9
382.129	75.61
382.344	76.58
382.559	87.23
382.773	107.38
382.988	-4.6
383.202	72.7
383.417	54.1
383.632	149.62
383.846	96.53
384.061	87.04
384.275	65.15
384.49	83.75
384.704	119.01
384.919	105.64
385.133	96.53
385.348	124.82
385.562	72.12
385.777	126.57
385.991	123.66
386.206	95.18
386.42	88.98
386.634	142.65
386.849	125.4
387.063	134.32
387.277	81.62
387.492	79.87
387.706	104.48
387.92	65.34
388.135	119.59
388.349	139.55
388.563	110.68
388.778	125.98
388.992	148.85
389.206	140.32
389.42	202.13
389.635	133.93
389.849	171.32
390.063	163.57
390.277	150.2
390.491	218.01
390.706	175.97
390.92	185.85
391.134	129.86
391.348	198.83
391.562	124.43
391.776	155.05
391.99	119.98
392.205	172.68
392.419	144.58
392.633	151.17
392.847	177.33
393.061	88.98
393.275	179.85
393.489	122.3
393.703	110.87
393.917	140.52
394.131	92.08
394.345	120.75
394.559	148.07
394.773	123.08
394.986	155.82
395.2	154.85
395.414	165.12
395.628	139.16
395.842	169.58
396.056	164.35
396.27	104.09
396.484	177.13
396.697	143.62
396.911	174.61
397.125	117.46
397.339	152.91
397.553	127.53
397.766	189.34
397.98	179.85
398.194	191.86
398.408	178.88
398.621	244.36
398.835	226.73
399.049	234.68
399.262	244.75
399.476	274.78
399.69	237.78
399.903	312.95
400.117	258.7
400.331	263.16
400.544	205.81
400.758	384.44
400.971	278.85
401.185	267.23
401.398	219.56
401.612	301.91
401.826	283.31
402.039	274.39
402.253	250.95
402.466	289.31
402.68	254.83
402.893	285.63
403.106	298.03
403.32	295.51
403.533	306.94
403.747	284.47
403.96	303.07
404.174	300.36
404.387	246.88
404.6	270.52
404.814	323.8
405.027	273.04
405.24	287.76
405.454	287.38
405.667	325.35
405.88	225.76
406.094	280.01
406.307	318.38
406.52	299.39
406.733	247.46
406.947	245.91
407.16	358.29
407.373	332.32
407.586	272.65
407.799	313.34
408.012	358.09
408.226	298.42
408.439	360.81
408.652	278.46
408.865	319.73
409.078	376.31
409.291	358.48
409.504	305.98
409.717	366.42
409.93	342.4
410.143	332.52
410.357	267.03
410.57	260.83
410.783	290.67
410.996	304.23
411.209	292.99
411.421	353.44
411.634	349.57
411.847	308.49
412.06	341.43
412.273	386.38
412.486	361.58
412.699	473.37
412.912	334.65
413.125	381.54
413.338	343.17
413.55	377.08
413.763	353.44
413.976	374.17
414.189	327.29
414.402	352.47
414.615	418.74
414.827	327.68
415.04	411.76
415.253	370.3
415.466	423.97
415.678	451.87
415.891	367.01
416.104	373.21
416.316	349.96
416.529	367.39
416.742	399.17
416.954	422.03
417.167	397.62
417.38	359.45
417.592	424.94
417.805	385.02
418.017	324.38
418.23	397.81
418.442	352.47
418.655	360.03
418.868	366.81
419.08	414.86
419.293	430.94
419.505	391.42
419.718	382.12
419.93	432.49
420.142	384.64
420.355	452.84
420.567	445.47
420.78	403.04
420.992	366.23
421.205	463.1
421.417	385.99
421.629	416.6
421.842	384.83
422.054	391.22
422.266	429.59
422.479	472.99
422.691	379.21
422.903	438.3
423.115	366.62
423.328	394.91
423.54	401.11
423.752	419.7
423.964	415.44
424.177	418.35
424.389	393.16
424.601	539.44
424.813	426.1
425.025	453.22
425.238	460.2
425.45	416.02
425.662	414.47
425.874	727.57
426.086	413.12
426.298	429.78
426.51	418.93
426.722	413.7
426.934	389.29
427.146	465.62
427.358	405.37
427.57	446.64
427.782	416.02
427.994	435.01
428.206	383.67
428.418	393.36
428.63	458.84
428.842	497.79
429.054	430.36
429.266	449.15
429.478	429
429.69	428.23
429.902	383.86
430.114	444.12
430.325	406.53
430.537	382.89
430.749	381.92
430.961	304.04
431.173	328.06
431.384	378.05
431.596	299.78
431.808	392
432.02	447.02
432.231	498.37
432.443	529.75
432.655	487.32
432.867	452.84
433.078	486.94
433.29	537.31
433.502	510.18
433.713	540.8
433.925	514.25
434.136	558.62
434.348	448.57
434.56	436.95
434.771	563.85
434.983	411.57
435.194	462.14
435.406	493.91
435.617	565.21
435.829	593.11
436.04	568.12
436.252	546.8
436.463	610.74
436.675	592.53
436.886	568.7
437.098	583.03
437.309	637.48
437.521	581.1
437.732	576.83
437.943	573.54
438.155	530.53
438.366	503.02
438.578	588.07
438.789	545.64
439	558.82
439.211	508.63
439.423	549.71
439.634	576.45
439.845	579.35
440.057	543.12
440.268	626.05
440.479	560.37
440.69	569.47
440.902	567.53
441.113	574.9
441.324	566.95
441.535	582.26
441.746	637.28
441.957	569.67
442.168	616.94
442.38	643.68
442.591	627.01
442.802	601.63
443.013	624.5
443.224	621.01
443.435	635.54
443.646	623.91
443.857	622.75
444.068	606.67
444.279	572.96
444.49	695.79
444.701	617.33
444.912	757.99
445.123	716.91
445.334	671.58
445.545	673.9
445.756	631.08
445.967	616.75
446.178	623.14
446.388	661.11
446.599	639.03
446.81	633.8
447.021	617.52
447.232	682.81
447.443	706.26
447.653	640
447.864	724.86
448.075	702.77
448.286	736.09
448.496	687.66
448.707	744.23
448.918	687.66
449.129	760.89
449.339	647.36
449.55	720.59
449.761	728.34
449.971	751.4
450.182	684.75
450.393	745.39
450.603	720.59
450.814	770.39
451.024	757.79
451.235	797.71
451.446	816.31
451.656	797.32
451.867	749.46
452.077	746.75
452.288	837.04
452.498	799.64
452.709	711.88
452.919	747.53
453.13	690.56
453.34	699.09
453.55	668.86
453.761	773.87
453.971	720.01
454.182	745.2
454.392	751.01
454.602	796.54
454.813	769.03
455.023	743.65
455.233	714.01
455.444	764.96
455.654	678.16
455.864	735.51
456.075	741.91
456.285	720.79
456.495	731.44
456.705	779.11
456.916	778.72
457.126	817.08
457.336	783.56
457.546	697.93
457.756	748.88
457.967	785.5
458.177	756.05
458.387	760.7
458.597	719.24
458.807	775.81
459.017	731.64
459.227	738.42
459.437	719.43
459.647	779.3
459.857	795.19
460.068	726.02
460.278	833.16
460.488	789.18
460.698	838.39
460.908	764.19
461.117	732.61
461.327	761.86
461.537	826.38
461.747	822.7
461.957	804.29
462.167	918.99
462.377	848.66
462.587	798.29
462.797	865.32
463.007	836.84
463.216	874.24
463.426	918.8
463.636	884.31
463.846	794.61
464.056	825.99
464.265	843.24
464.475	796.16
464.685	860.29
464.895	844.4
465.104	798.87
465.314	826.96
465.524	821.15
465.733	808.75
465.943	913.18
466.153	919.77
466.362	903.88
466.572	886.44
466.782	839.75
466.991	856.02
467.201	920.54
467.41	802.36
467.62	860.87
467.829	834.32
468.039	900.97
468.249	840.72
468.458	899.23
468.668	908.92
468.877	903.3
469.086	985.06
469.296	926.35
469.505	881.6
469.715	983.51
469.924	938.95
470.134	980.41
470.343	959.68
470.552	892.25
470.762	892.25
470.971	890.7
471.18	922.67
471.39	939.53
471.599	883.73
471.808	945.92
472.018	912.79
472.227	1024.78
472.436	1022.07
472.645	979.05
472.855	945.15
473.064	1037.56
473.273	1022.45
473.482	1010.44
473.691	1029.04
473.901	1038.15
474.11	1026.91
474.319	1098.21
474.528	1030.2
474.737	1109.06
474.946	1072.83
475.155	1068.56
475.364	1133.66
475.573	1117.58
475.783	1119.33
475.992	1133.08
476.201	1116.81
476.41	1101.7
476.619	1037.76
476.828	1090.46
477.037	1056.94
477.245	1079.22
477.454	1127.08
477.663	1122.23
477.872	1141.61
478.081	1247.59
478.29	1099.37
478.499	1254.95
478.708	1184.04
478.917	1237.9
479.125	1187.91
479.334	1216.39
479.543	1168.93
479.752	1212.91
479.961	1263.47
480.169	1256.5
480.378	1261.34
480.587	1397.16
480.796	1270.26
481.004	1279.75
481.213	1289.63
481.422	1264.83
481.63	1299.9
481.839	1312.88
482.048	1394.83
482.256	1317.34
482.465	1333.8
482.674	1385.73
482.882	1373.72
483.091	1421.96
483.299	1364.03
483.508	1392.12
483.716	1385.73
483.925	1395.22
484.134	1364.03
484.342	1378.56
484.551	1427.38
484.759	1401.23
484.967	1443.85
485.176	1425.64
485.384	1458.38
485.593	1423.51
485.801	1393.67
486.01	1357.05
486.218	1307.45
486.426	1229.57
486.635	1218.52
486.843	1190.43
487.051	1292.73
487.26	1232.47
487.468	1314.62
487.676	1357.25
487.885	1351.24
488.093	1347.17
488.301	1412.27
488.509	1424.67
488.717	1454.9
488.926	1459.55
489.134	1451.99
489.342	1452.77
489.55	1399.1
489.758	1474.66
489.967	1487.06
490.175	1559.52
490.383	1536.66
490.591	1616.48
490.799	1516.9
491.007	1591.29
491.215	1551.77
491.423	1545.76
491.631	1569.01
491.839	1557.39
492.047	1566.11
492.255	1510.31
492.463	1465.36
492.671	1465.55
492.879	1536.85
493.087	1535.11
493.295	1546.54
493.503	1609.31
493.711	1615.32
493.919	1634.69
494.127	1623.26
494.334	1662.21
494.542	1568.82
494.75	1606.21
494.958	1581.41
495.166	1704.25
495.374	1679.84
495.581	1714.71
495.789	1698.82
495.997	1735.05
496.205	1671.51
496.412	1646.71
496.62	1647.48
496.828	1657.17
497.035	1677.71
497.243	1719.94
497.451	1678.87
497.658	1679.45
497.866	1680.22
498.074	1739.12
498.281	1650.77
498.489	1793.95
498.696	1671.31
498.904	1640.7
499.112	1625.98
499.319	1729.05
499.527	1709.09
499.734	1750.55
499.942	1619.39
500.149	1664.72
500.357	1737.96
500.564	1651.74
500.771	1711.81
500.979	1622.68
501.186	1642.25
501.394	1682.16
501.601	1651.16
501.808	1670.92
502.016	1667.05
502.223	1658.72
502.43	1687.78
502.638	1615.32
502.845	1653.1
503.052	1747.07
503.26	1684.49
503.467	1762.76
503.674	1712.58
503.881	1709.67
504.089	1816.43
504.296	1774.97
504.503	1689.52
504.71	1683.91
504.917	1669.18
505.125	1742.42
505.332	1734.67
505.539	1766.83
505.746	1821.47
505.953	1843.55
506.16	1793.95
506.367	1887.92
506.574	1896.06
506.781	1906.71
506.988	1788.92
507.195	1831.15
507.402	1774.97
507.609	1850.33
507.816	1774.19
508.023	1786.79
508.23	1756.17
508.437	1736.41
508.644	1786.98
508.851	1841.03
509.058	1834.83
509.265	1820.11
509.472	1844.52
509.679	1936.55
509.885	1840.65
510.092	1863.12
510.299	1893.35
510.506	1844.52
510.713	1833.67
510.92	1873
511.126	1839.68
511.333	1927.06
511.54	1916.79
511.746	1935
511.953	1955.73
512.16	1971.04
512.367	1898.38
512.573	1888.12
512.78	1904.58
512.987	1869.9
513.193	1898.58
513.4	1808.87
513.606	1832.51
513.813	1901.68
514.02	1870.48
514.226	1917.95
514.433	1899.55
514.639	1825.92
514.846	1856.73
515.052	1827.47
515.259	1874.75
515.465	1880.37
515.672	1900.52
515.878	2027.42
516.085	1904.97
516.291	1976.27
516.497	1917.37
516.704	1873.58
516.91	1828.05
517.117	1730.4
517.323	1688.56
517.529	1720.72
517.736	1675.57
517.942	1675.96
518.148	1732.73
518.354	1804.61
518.561	1792.99
518.767	1748.62
518.973	1811.78
519.179	1879.4
519.386	1861.18
519.592	1804.61
519.798	1830.57
520.004	1962.71
520.21	1915.24
520.417	1980.53
520.623	1976.08
520.829	2001.65
521.035	2023.54
521.241	1995.64
521.447	2054.35
521.653	2108.21
521.859	2011.34
522.065	2057.64
522.271	2137.66
522.477	2109.37
522.683	2160.33
522.889	2077.79
523.095	2108.79
523.301	2078.18
523.507	2069.85
523.713	2081.67
523.919	2029.16
524.125	2156.26
524.331	2090.58
524.537	2209.15
524.742	2220.2
524.948	2190.55
525.154	2241.9
525.36	2352.91
525.566	2219.23
525.772	2291.11
525.977	2185.13
526.183	2244.61
526.389	2288.01
526.595	2183.39
526.8	2146.38
527.006	2053.77
527.212	2003.39
527.417	1997.39
527.623	1998.16
527.829	2080.89
528.034	2151.61
528.24	2139.41
528.446	2159.36
528.651	2243.64
528.857	2208.38
529.062	2303.51
529.268	2287.82
529.473	2283.55
529.679	2277.93
529.884	2379.07
530.09	2338.96
530.295	2352.91
530.501	2348.26
530.706	2345.36
530.912	2309.9
531.117	2333.35
531.323	2364.73
531.528	2409.3
531.733	2449.59
531.939	2373.65
532.144	2400.38
532.35	2399.8
532.555	2416.08
532.76	2396.9
532.966	2307
533.171	2276.77
533.376	2270.77
533.581	2234.73
533.787	2321.14
533.992	2366.09
534.197	2381.59
534.402	2355.82
534.607	2368.8
534.813	2476.33
535.018	2336.45
535.223	2408.13
535.428	2400.58
535.633	2423.25
535.838	2457.93
536.043	2473.62
536.249	2595.49
536.454	2485.44
536.659	2483.89
536.864	2436.81
537.069	2488.73
537.274	2491.25
537.479	2461.99
537.684	2441.07
537.889	2370.16
538.094	2539.11
538.299	2477.49
538.504	2488.54
538.708	2487.76
538.913	2526.71
539.118	2489.31
539.323	2503.07
539.528	2469.16
539.733	2439.52
539.938	2488.73
540.142	2451.73
540.347	2430.61
540.552	2408.13
540.757	2408.13
540.962	2417.24
541.166	2332.57
541.371	2362.41
541.576	2357.37
541.781	2337.03
541.985	2466.84
542.19	2423.44
542.395	2529.81
542.599	2535.42
542.804	2505.2
543.008	2513.92
543.213	2444.56
543.418	2433.13
543.622	2501.33
543.827	2405.03
544.031	2512.37
544.236	2542.21
544.44	2520.31
544.645	2572.62
544.849	2523.8
545.054	2574.95
545.258	2605.37
545.463	2603.82
545.667	2531.94
545.872	2561.77
546.076	2553.06
546.281	2556.16
546.485	2552.67
546.689	2571.66
546.894	2539.88
547.098	2550.92
547.302	2489.31
547.507	2545.11
547.711	2543.76
547.915	2606.72
548.119	2487.57
548.324	2526.9
548.528	2596.07
548.732	2548.79
548.936	2542.21
549.141	2573.59
549.345	2528.26
549.549	2543.56
549.753	2549.18
549.957	2655.35
550.161	2648.19
550.366	2551.51
550.57	2572.62
550.774	2514.69
550.978	2584.06
551.182	2571.07
551.386	2511.79
551.59	2531.36
551.794	2520.89
551.998	2569.72
552.202	2542.98
552.406	2522.25
552.61	2579.41
552.814	2585.99
553.018	2608.08
553.222	2521.86
553.426	2522.83
553.63	2630.36
553.833	2533.87
554.037	2494.93
554.241	2568.36
554.445	2524.96
554.649	2559.06
554.853	2559.06
555.056	2633.27
555.26	2629.78
555.464	2586.19
555.668	2610.21
555.871	2615.44
556.075	2630.36
556.279	2553.83
556.483	2525.16
556.686	2564.1
556.89	2528.64
557.094	2561.39
557.297	2463.74
557.501	2565.46
557.704	2446.88
557.908	2561.39
558.112	2466.26
558.315	2612.15
558.519	2512.56
558.722	2497.06
558.926	2465.68
559.129	2391.47
559.333	2400.58
559.536	2403.87
559.74	2398.83
559.943	2372.29
560.147	2367.83
560.35	2395.15
560.553	2427.31
560.757	2341.48
560.96	2490.86
561.164	2444.75
561.367	2526.51
561.57	2434.87
561.774	2485.44
561.977	2447.85
562.18	2407.36
562.384	2503.65
562.587	2402.9
562.79	2391.47
562.993	2405.61
563.197	2449.98
563.4	2493.19
563.603	2486.02
563.806	2517.6
564.009	2384.88
564.212	2482.34
564.416	2337.8
564.619	2417.63
564.822	2365.51
565.025	2445.53
565.228	2367.64
565.431	2426.15
565.634	2295.18
565.837	2355.43
566.04	2296.92
566.243	2343.61
566.446	2271.54
566.649	2358.73
566.852	2270.38
567.055	2288.2
567.258	2338.58
567.461	2376.55
567.664	2404.65
567.867	2290.33
568.07	2311.65
568.273	2327.15
568.475	2375.97
568.678	2298.08
568.881	2280.84
569.084	2308.93
569.287	2186.49
569.489	2198.69
569.692	2288.59
569.895	2273.28
570.098	2197.92
570.3	2184.16
570.503	2163.24
570.706	2155.29
570.909	2144.64
571.111	2127.59
571.314	2077.79
571.516	2127.01
571.719	2145.99
571.922	2080.12
572.124	2141.92
572.327	2187.26
572.529	2086.51
572.732	2119.26
572.935	2178.15
573.137	2226.2
573.34	2114.02
573.542	2174.28
573.745	2175.44
573.947	2159.94
574.15	2111.31
574.352	2115.77
574.554	2233.95
574.757	2085.35
574.959	2080.89
575.162	2112.67
575.364	2094.84
575.566	2187.84
575.769	2051.06
575.971	2058.61
576.173	1956.7
576.376	2053.77
576.578	2110.15
576.78	2135.34
576.982	2012.5
577.185	2074.11
577.387	1999.33
577.589	2030.33
577.791	2102.01
577.993	2072.76
578.196	2068.88
578.398	2037.3
578.6	2063.26
578.802	1952.25
579.004	1959.22
579.206	1999.91
579.408	2058.42
579.61	1963.48
579.812	2052.8
580.014	2010.37
580.216	1992.54
580.418	1995.84
580.62	1966
580.822	1964.65
581.024	1991.77
581.226	2036.72
581.428	2012.5
581.63	2102.21
581.832	1964.65
582.034	2038.66
582.236	1981.31
582.438	2045.44
582.64	2073.73
582.841	2102.21
583.043	2111.7
583.245	2038.66
583.447	2102.01
583.649	2026.06
583.85	2030.13
584.052	2116.93
584.254	1994.29
584.456	2035.17
584.657	1974.33
584.859	2023.93
585.061	1997.39
585.262	2015.79
585.464	1928.8
585.666	2034.59
585.867	1935.39
586.069	2046.02
586.27	1969.3
586.472	1963.68
586.674	1983.25
586.875	1952.83
587.077	1951.28
587.278	1951.08
587.48	1922.41
587.681	2080.31
587.883	1971.43
588.084	1939.85
588.285	1933.65
588.487	1900.52
588.688	1910.01
588.89	1846.85
589.091	1825.92
589.292	1806.35
589.494	1769.15
589.695	1712.77
589.896	1657.17
590.098	1678.29
590.299	1736.6
590.5	1682.74
590.702	1717.23
590.903	1754.62
591.104	1830.57
591.305	1812.17
591.507	1853.43
591.708	1817.4
591.909	1815.65
592.11	1877.07
592.311	1852.08
592.512	1758.89
592.714	1730.79
592.915	1730.99
593.116	1764.31
593.317	1796.47
593.518	1807.52
593.719	1789.3
593.92	1817.59
594.121	1840.65
594.322	1792.99
594.523	1807.52
594.724	1737.77
594.925	1794.92
595.126	1775.74
595.327	1798.99
595.528	1839.68
595.729	1782.52
595.929	1772.06
596.13	1784.07
596.331	1773.61
596.532	1821.27
596.733	1878.43
596.934	1865.25
597.135	1847.43
597.335	1886.95
597.536	1784.07
597.737	1811.78
597.938	1752.88
598.138	1802.09
598.339	1772.64
598.54	1791.63
598.74	1755.98
598.941	1749.97
599.142	1821.08
599.342	1814.3
599.543	1758.89
599.744	1791.82
599.944	1759.85
600.145	1776.13
600.345	1783.49
600.546	1862.54
600.746	1844.13
600.947	1908.07
601.147	1803.25
601.348	1807.9
601.548	1785.43
601.749	1756.95
601.949	1738.93
602.15	1746.1
602.35	1753.85
602.551	1786.2
602.751	1749.2
602.951	1758.5
603.152	1678.29
603.352	1855.57
603.552	1730.6
603.753	1802.48
603.953	1838.71
604.153	1778.07
604.354	1757.14
604.554	1717.23
604.754	1773.03
604.954	1741.45
605.155	1795.5
605.355	1753.65
605.555	1816.62
605.755	1834.25
605.955	1775.74
606.155	1790.85
606.356	1767.02
606.556	1785.43
606.756	1776.71
606.956	1708.12
607.156	1799.96
607.356	1718.97
607.556	1776.9
607.756	1743.19
607.956	1779.04
608.156	1770.32
608.356	1724.59
608.556	1768.38
608.756	1721.3
608.956	1709.09
609.156	1734.47
609.356	1703.28
609.556	1678.29
609.755	1694.56
609.955	1645.74
610.155	1672.09
610.355	1704.25
610.555	1642.06
610.755	1671.51
610.954	1584.13
611.154	1681.58
611.354	1681
611.554	1650.58
611.753	1628.3
611.953	1606.41
612.153	1666.47
612.352	1676.35
612.552	1591.49
612.752	1586.84
612.951	1618.81
613.151	1635.47
613.351	1590.33
613.55	1629.66
613.75	1670.73
613.949	1611.44
