Data from gum_old_FLMT105791__166__15-47-53-250.txt Node

Date: Mon Mar 20 15:47:53 GMT 2023
User: antho
Spectrometer: FLMT10579
Trigger mode: 0
Integration Time (sec): 1.000000E-1
Scans to average: 10
Electric dark correction enabled: true
Nonlinearity correction enabled: false
Boxcar width: 0
XAxis mode: Wavelengths
Number of Pixels in Spectrum: 3648
>>>>>Begin Spectral Data<<<<<
345.248	-215.61
345.464	-215.61
345.681	-215.61
345.898	-198.36
346.114	-196.23
346.331	-38.52
346.548	28.71
346.764	-10.82
346.981	-29.61
347.197	-3.26
347.414	17.47
347.631	-31.94
347.847	80.24
348.064	2.74
348.28	39.75
348.497	-40.85
348.713	-13.92
348.93	18.05
349.146	19.02
349.363	-18.37
349.579	39.56
349.796	7.39
350.012	10.49
350.229	36.26
350.445	27.54
350.661	-8.69
350.878	1
351.094	40.14
351.311	29.68
351.527	29.09
351.743	-17.21
351.96	35.29
352.176	57.96
352.392	54.86
352.609	41.11
352.825	-7.91
353.041	15.34
353.257	3.52
353.474	14.56
353.69	47.89
353.906	3.91
354.122	-18.95
354.339	66.29
354.555	19.99
354.771	7.39
354.987	66.68
355.203	97.49
355.42	1.58
355.636	7.2
355.852	-5.39
356.068	33.16
356.284	-34.84
356.5	82.76
356.716	29.09
356.932	14.76
357.148	57.58
357.364	35.1
357.58	82.37
357.796	64.94
358.012	51.38
358.228	56.41
358.444	-55.19
358.66	53.31
358.876	16.31
359.092	-6.56
359.308	43.82
359.524	34.71
359.74	28.13
359.956	-1.71
360.172	27.35
360.388	61.26
360.604	15.14
360.819	102.33
361.035	54.28
361.251	45.76
361.467	-15.85
361.683	67.65
361.898	24.25
362.114	46.14
362.33	53.51
362.546	52.54
362.762	52.93
362.977	32
363.193	7.2
363.409	56.03
363.624	8.56
363.84	13.21
364.056	23.28
364.271	44.21
364.487	54.28
364.703	27.93
364.918	15.34
365.134	26.38
365.35	21.34
365.565	143.79
365.781	49.05
365.996	62.61
366.212	112.21
366.427	66.68
366.643	21.34
366.858	11.08
367.074	13.21
367.289	94.39
367.505	176.34
367.72	-1.91
367.936	23.86
368.151	100.2
368.367	85.28
368.582	53.89
368.798	24.44
369.013	90.12
369.228	51.38
369.444	59.51
369.659	82.57
369.874	77.72
370.09	109.5
370.305	-21.67
370.52	28.71
370.736	123.26
370.951	36.46
371.166	105.82
371.381	127.13
371.597	76.95
371.812	42.08
372.027	34.91
372.242	70.94
372.458	123.84
372.673	56.03
372.888	67.07
373.103	89.35
373.318	148.83
373.533	87.22
373.749	52.73
373.964	24.06
374.179	107.37
374.394	6.62
374.609	113.37
374.824	11.85
375.039	95.94
375.254	19.02
375.469	96.52
375.684	59.13
375.899	99.04
376.114	55.64
376.329	50.41
376.544	75.21
376.759	66.49
376.974	49.24
377.189	46.73
377.404	48.86
377.619	99.04
377.834	21.54
378.049	0.81
378.264	12.63
378.478	80.24
378.693	42.08
378.908	98.65
379.123	69.98
379.338	116.28
379.553	71.72
379.767	66.68
379.982	115.89
380.197	100.01
380.412	50.21
380.626	93.03
380.841	162.78
381.056	79.08
381.271	160.07
381.485	43.24
381.7	38.59
381.915	81.79
382.129	47.69
382.344	63.19
382.559	54.09
382.773	94.39
382.988	1
383.202	81.41
383.417	51.18
383.632	171.5
383.846	69.39
384.061	27.54
384.275	47.31
384.49	84.12
384.704	92.06
384.919	83.15
385.133	70.17
385.348	121.9
385.562	41.3
385.777	118.22
385.991	68.43
386.206	74.04
386.42	69.78
386.634	115.7
386.849	139.92
387.063	102.72
387.277	48.08
387.492	62.03
387.706	28.32
387.92	30.26
388.135	117.44
388.349	105.62
388.563	92.84
388.778	82.37
388.992	104.27
389.206	134.69
389.42	163.17
389.635	90.32
389.849	134.69
390.063	162.2
390.277	116.86
390.491	169.56
390.706	142.82
390.92	163.17
391.134	111.05
391.348	150.96
391.562	77.72
391.776	119.19
391.99	108.92
392.205	164.14
392.419	83.54
392.633	119.96
392.847	162.97
393.061	68.62
393.275	129.84
393.489	88.77
393.703	113.96
393.917	135.85
394.131	62.42
394.345	120.74
394.559	125.77
394.773	102.33
394.986	144.96
395.2	117.64
395.414	159.87
395.628	115.51
395.842	137.79
396.056	133.14
396.27	91.87
396.484	142.82
396.697	113.57
396.911	141.27
397.125	123.45
397.339	145.34
397.553	104.46
397.766	175.57
397.98	140.69
398.194	170.92
398.408	133.52
398.621	198.04
398.835	203.27
399.049	186.8
399.262	222.26
399.476	209.86
399.69	207.73
399.903	265.27
400.117	208.5
400.331	226.52
400.544	179.64
400.758	295.11
400.971	216.06
401.185	252.48
401.398	187.19
401.612	268.18
401.826	228.07
402.039	253.65
402.253	200.17
402.466	220.13
402.68	224.97
402.893	252.29
403.106	241.44
403.32	235.44
403.533	233.3
403.747	233.3
403.96	249.19
404.174	271.86
404.387	185.84
404.6	236.99
404.814	290.65
405.027	244.15
405.24	228.85
405.454	227.88
405.667	285.03
405.88	190.1
406.094	267.02
406.307	291.04
406.52	255.97
406.733	174.79
406.947	197.27
407.16	303.05
407.373	292.01
407.586	226.72
407.799	213.74
408.012	309.06
408.226	256.36
408.439	321.46
408.652	206.18
408.865	271.28
409.078	344.51
409.291	272.05
409.504	233.3
409.717	304.22
409.93	309.06
410.143	288.13
410.357	203.47
410.57	214.12
410.783	234.66
410.996	255.39
411.209	245.12
411.421	319.52
411.634	281.55
411.847	279.03
412.06	293.75
412.273	297.82
412.486	307.7
412.699	382.68
412.912	289.88
413.125	355.17
413.338	326.69
413.55	354.2
413.763	291.82
413.976	313.71
414.189	283.1
414.402	277.28
414.615	381.33
414.827	300.73
415.04	355.56
415.253	348.97
415.466	374.93
415.678	374.16
415.891	323.78
416.104	331.53
416.316	285.62
416.529	291.82
416.742	310.8
416.954	371.06
417.167	339.28
417.38	322.82
417.592	360.01
417.805	300.34
418.017	287.94
418.23	360.6
418.442	291.82
418.655	324.37
418.868	325.53
419.08	368.54
419.293	377.45
419.505	369.31
419.718	380.36
419.93	397.6
420.142	323.59
420.355	392.37
420.567	378.81
420.78	367.18
420.992	335.6
421.205	418.91
421.417	335.21
421.629	366.99
421.842	344.51
422.054	336.18
422.266	413.1
422.479	418.91
422.691	326.5
422.903	388.69
423.115	369.12
423.328	346.65
423.54	349.94
423.752	377.26
423.964	333.08
424.177	383.46
424.389	371.64
424.601	471.81
424.813	379.2
425.025	414.07
425.238	403.03
425.45	375.9
425.662	375.51
425.874	703.33
426.086	372.8
426.298	393.53
426.51	382.3
426.722	376.29
426.934	367.18
427.146	414.07
427.358	364.47
427.57	407.48
427.782	358.85
427.994	366.02
428.206	357.5
428.418	339.67
428.63	411.36
428.842	438.29
429.054	408.45
429.266	418.72
429.478	358.27
429.69	377.06
429.902	319.33
430.114	386.36
430.325	390.24
430.537	357.11
430.749	340.45
430.961	256.94
431.173	306.93
431.384	330.76
431.596	271.86
431.808	370.28
432.02	401.09
432.231	436.54
432.443	506.88
432.655	437.71
432.867	407.48
433.078	477.04
433.29	476.46
433.502	451.46
433.713	501.06
433.925	476.07
434.136	500.29
434.348	412.13
434.56	372.03
434.771	511.14
434.983	389.66
435.194	441.78
435.406	460.38
435.617	525.67
435.829	563.06
436.04	494.67
436.252	521.6
436.463	534.39
436.675	556.86
436.886	536.52
437.098	526.64
437.309	585.54
437.521	528.77
437.732	540.78
437.943	517.14
438.155	530.9
438.366	448.17
438.578	572.94
438.789	490.79
439	515.01
439.211	485.95
439.423	491.18
439.634	542.72
439.845	552.41
440.057	550.08
440.268	573.33
440.479	528.77
440.69	562.67
440.902	514.62
441.113	531.48
441.324	499.13
441.535	557.64
441.746	643.08
441.957	528.77
442.168	535.36
442.38	608.01
442.591	610.34
442.802	540.97
443.013	567.52
443.224	598.52
443.435	565
443.646	596.39
443.857	565
444.068	552.41
444.279	577.79
444.49	669.62
444.701	602
444.912	726.78
445.123	652.77
445.334	633.97
445.545	638.62
445.756	599.29
445.967	583.02
446.178	625.25
446.388	614.4
446.599	637.46
446.81	627.39
447.021	585.15
447.232	659.55
447.443	668.07
447.653	603.75
447.864	678.92
448.075	641.92
448.286	675.44
448.496	630.1
448.707	681.64
448.918	630.29
449.129	724.07
449.339	638.82
449.55	689
449.761	662.26
449.971	696.36
450.182	657.61
450.393	684.93
450.603	651.02
450.814	719.61
451.024	706.24
451.235	721.55
451.446	793.23
451.656	769.6
451.867	698.88
452.077	693.45
452.288	777.93
452.498	754.29
452.709	667.69
452.919	686.09
453.13	673.3
453.34	720
453.55	634.36
453.761	717.28
453.971	713.02
454.182	712.63
454.392	744.8
454.602	789.75
454.813	734.53
455.023	726.2
455.233	693.84
455.444	712.83
455.654	657.03
455.864	684.15
456.075	728.72
456.285	681.64
456.495	689.38
456.705	755.26
456.916	798.27
457.126	784.51
457.336	742.47
457.546	665.55
457.756	733.75
457.967	781.03
458.177	735.11
458.387	749.06
458.597	698.49
458.807	720.19
459.017	693.45
459.227	743.44
459.437	742.08
459.647	763.59
459.857	778.12
460.068	732.59
460.278	807.96
460.488	748.48
460.698	824.04
460.908	723.1
461.117	718.06
461.327	744.8
461.537	744.22
461.747	758.36
461.957	788
462.167	903.67
462.377	811.25
462.587	773.47
462.797	815.32
463.007	803.31
463.216	847.68
463.426	858.72
463.636	864.53
463.846	758.17
464.056	805.25
464.265	826.75
464.475	766.88
464.685	812.22
464.895	848.65
465.104	803.7
465.314	819
465.524	777.15
465.733	759.13
465.943	849.42
466.153	883.91
466.362	854.65
466.572	846.71
466.782	830.43
466.991	856.01
467.201	874.61
467.41	764.75
467.62	829.27
467.829	856.78
468.039	858.53
468.249	853.88
468.458	842.64
468.668	841.48
468.877	896.31
469.086	920.72
469.296	921.69
469.505	894.76
469.715	918.59
469.924	889.72
470.134	942.03
470.343	965.86
470.552	866.86
470.762	871.89
470.971	849.03
471.18	883.71
471.39	868.21
471.599	862.98
471.808	918.2
472.018	888.56
472.227	953.07
472.436	979.42
472.645	945.33
472.855	924.21
473.064	1040.45
473.273	998.8
473.482	997.06
473.691	1022.63
473.901	1004.61
474.11	931.76
474.319	1063.32
474.528	990.47
474.737	1079.01
474.946	1032.12
475.155	1046.07
475.364	1111.17
475.573	1064.09
475.783	1086.57
475.992	1106.72
476.201	1134.42
476.41	1058.09
476.619	1017.59
476.828	1043.17
477.037	1013.52
477.245	1068.74
477.454	1100.9
477.663	1101.29
477.872	1085.6
478.081	1200.68
478.29	1103.04
478.499	1239.43
478.708	1185.77
478.917	1221.61
479.125	1161.74
479.334	1174.33
479.543	1169.49
479.752	1207.47
479.961	1180.15
480.169	1228.78
480.378	1184.6
480.587	1340.76
480.796	1259.78
481.004	1221.03
481.213	1258.42
481.422	1261.33
481.63	1263.07
481.839	1299.88
482.048	1358.39
482.256	1298.91
482.465	1297.36
482.674	1323.71
482.882	1350.06
483.091	1395.98
483.299	1340.38
483.508	1375.44
483.716	1368.66
483.925	1360.53
484.134	1299.3
484.342	1319.64
484.551	1376.99
484.759	1340.96
484.967	1369.63
485.176	1381.45
485.384	1375.06
485.593	1383.97
485.801	1363.63
486.01	1349.48
486.218	1262.49
486.426	1179.37
486.635	1201.27
486.843	1163.29
487.051	1222.96
487.26	1184.6
487.468	1268.5
487.676	1328.75
487.885	1318.09
488.093	1345.41
488.301	1402.76
488.509	1412.26
488.717	1464.37
488.926	1411.29
489.134	1427.56
489.342	1403.15
489.55	1369.24
489.758	1427.95
489.967	1421.17
490.175	1542.84
490.383	1494.4
490.591	1592.83
490.799	1467.86
491.007	1606.58
491.215	1527.54
491.423	1503.32
491.631	1505.06
491.839	1515.33
492.047	1548.07
492.255	1446.36
492.463	1426.4
492.671	1453.91
492.879	1556.02
493.087	1494.4
493.295	1514.17
493.503	1585.08
493.711	1597.28
493.919	1602.52
494.127	1612.78
494.334	1603.68
494.542	1524.44
494.75	1631.97
494.958	1586.43
495.166	1674.59
495.374	1672.46
495.581	1668.97
495.789	1677.11
495.997	1702.68
496.205	1604.07
496.412	1591.86
496.62	1628.28
496.828	1624.8
497.035	1655.41
497.243	1673.04
497.451	1669.55
497.658	1688.35
497.866	1659.67
498.074	1741.24
498.281	1646.88
498.489	1744.73
498.696	1670.52
498.904	1629.06
499.112	1622.86
499.319	1729.81
499.527	1687.57
499.734	1736.39
499.942	1634.87
500.149	1677.69
500.357	1730.58
500.564	1658.7
500.771	1686.41
500.979	1630.42
501.186	1626.93
501.394	1667.81
501.601	1664.9
501.808	1660.83
502.016	1675.17
502.223	1624.6
502.43	1632.55
502.638	1662.58
502.845	1696.29
503.052	1717.41
503.26	1668.2
503.467	1770.69
503.674	1729.03
503.881	1753.64
504.089	1833.85
504.296	1764.1
504.503	1680.79
504.71	1724.77
504.917	1669.94
505.125	1721.28
505.332	1756.93
505.539	1744.92
505.746	1836.17
505.953	1805.56
506.16	1806.34
506.367	1853.81
506.574	1884.61
506.781	1888.87
506.988	1791.23
507.195	1845.28
507.402	1823.77
507.609	1881.9
507.816	1796.84
508.023	1790.45
508.23	1804.4
508.437	1741.82
508.644	1810.99
508.851	1852.26
509.058	1865.24
509.265	1872.79
509.472	1881.9
509.679	1958.82
509.885	1848.96
510.092	1846.83
510.299	1840.24
510.506	1876.28
510.713	1882.87
510.92	1866.59
511.126	1931.11
511.333	1892.75
511.54	1891.78
511.746	1964.63
511.953	1952.42
512.16	1973.35
512.367	1964.44
512.573	1921.04
512.78	1956.3
512.987	1908.64
513.193	1894.69
513.4	1826.68
513.606	1900.31
513.813	1934.4
514.02	1931.3
514.226	1994.85
514.433	1940.99
514.639	1865.82
514.846	1895.07
515.052	1846.06
515.259	1924.52
515.465	1942.74
515.672	1911.15
515.878	2034.38
516.085	1962.11
516.291	2002.99
516.497	1977.61
516.704	1922.78
516.91	1865.43
517.117	1782.7
517.323	1755.58
517.529	1758.68
517.736	1713.73
517.942	1748.79
518.148	1801.88
518.354	1844.89
518.561	1867.56
518.767	1874.54
518.973	1934.21
519.179	1895.07
519.386	1894.88
519.592	1871.44
519.798	1894.88
520.004	2024.11
520.21	1993.11
520.417	2027.4
520.623	2067.51
520.829	2089.98
521.035	2086.3
521.241	2092.89
521.447	2093.47
521.653	2196.16
521.859	2049.1
522.065	2147.53
522.271	2224.06
522.477	2161.48
522.683	2249.44
522.889	2171.94
523.095	2143.26
523.301	2161.48
523.507	2094.05
523.713	2155.86
523.919	2116.53
524.125	2241.88
524.331	2175.81
524.537	2313.76
524.742	2293.42
524.948	2292.64
525.154	2313.96
525.36	2399.98
525.566	2306.21
525.772	2336.24
525.977	2250.41
526.183	2326.16
526.389	2345.34
526.595	2230.45
526.8	2234.52
527.006	2152.37
527.212	2091.92
527.417	2075.84
527.623	2062.47
527.829	2164.77
528.034	2217.08
528.24	2207.59
528.446	2185.69
528.651	2334.3
528.857	2349.8
529.062	2374.02
529.268	2368.2
529.473	2392.42
529.679	2411.02
529.884	2469.73
530.09	2429.82
530.295	2435.82
530.501	2453.84
530.706	2435.05
530.912	2357.94
531.117	2452.48
531.323	2421.1
531.528	2511.97
531.733	2507.51
531.939	2478.83
532.144	2517.39
532.35	2493.37
532.555	2520.3
532.76	2458.68
532.966	2483.29
533.171	2426.14
533.376	2407.34
533.581	2330.62
533.787	2412.57
533.992	2451.9
534.197	2509.45
534.402	2429.82
534.607	2500.92
534.813	2579.78
535.018	2468.57
535.223	2521.46
535.428	2520.88
535.633	2523.4
535.838	2551.49
536.043	2569.12
536.249	2667.74
536.454	2572.41
536.659	2612.33
536.864	2599.73
537.069	2568.93
537.274	2550.52
537.479	2557.69
537.684	2594.11
537.889	2509.45
538.094	2658.83
538.299	2537.93
538.504	2594.5
538.708	2586.56
538.913	2615.62
539.118	2590.43
539.323	2638.09
539.528	2552.65
539.733	2582.49
539.938	2625.5
540.142	2567.96
540.347	2617.94
540.552	2539.67
540.757	2532.31
540.962	2527.46
541.166	2462.56
541.371	2461.4
541.576	2506.54
541.781	2388.55
541.985	2606.71
542.19	2551.88
542.395	2670.45
542.599	2666.19
542.804	2589.46
543.008	2708.62
543.213	2589.66
543.418	2591.98
543.622	2618.33
543.827	2536.38
544.031	2638.48
544.236	2653.21
544.44	2684.98
544.645	2714.82
544.849	2645.07
545.054	2726.06
545.258	2757.25
545.463	2747.37
545.667	2671.23
545.872	2700.67
546.076	2645.65
546.281	2674.33
546.485	2629.38
546.689	2705.32
546.894	2731.87
547.098	2677.23
547.302	2655.34
547.507	2721.02
547.711	2702.81
547.915	2714.82
548.119	2639.06
548.324	2643.13
548.528	2697.96
548.732	2665.8
548.936	2716.76
549.141	2706.49
549.345	2692.15
549.549	2684.79
549.753	2692.73
549.957	2818.09
550.161	2784.57
550.366	2729.74
550.57	2669.87
550.774	2717.72
550.978	2697.96
551.182	2729.35
551.386	2700.48
551.59	2737.68
551.794	2678.2
551.998	2687.11
552.202	2686.34
552.406	2673.74
552.61	2731.09
552.814	2742.14
553.018	2789.22
553.222	2706.49
553.426	2717.72
553.63	2774.69
553.833	2699.12
554.037	2652.82
554.241	2717.53
554.445	2736.71
554.649	2685.76
554.853	2701.64
555.056	2699.71
555.26	2756.67
555.464	2752.99
555.668	2740.78
555.871	2762.87
556.075	2767.91
556.279	2689.44
556.483	2659.02
556.686	2674.52
556.89	2684.98
557.094	2688.08
557.297	2605.35
557.501	2702.22
557.704	2554.01
557.908	2708.42
558.112	2610.97
558.315	2687.11
558.519	2609.42
558.722	2643.13
558.926	2596.44
559.129	2540.25
559.333	2482.9
559.536	2519.52
559.74	2507.7
559.943	2514.1
560.147	2463.14
560.35	2510.8
560.553	2553.23
560.757	2472.25
560.96	2645.65
561.164	2534.05
561.367	2642.36
561.57	2560.01
561.774	2579.2
561.977	2539.28
562.18	2508.48
562.384	2629.38
562.587	2510.22
562.79	2513.71
562.993	2526.88
563.197	2515.07
563.4	2618.91
563.603	2624.14
563.806	2646.62
564.009	2501.31
564.212	2565.05
564.416	2461.4
564.619	2504.02
564.822	2475.54
565.025	2562.34
565.228	2461.01
565.431	2528.63
565.634	2424.97
565.837	2441.83
566.04	2415.87
566.243	2426.91
566.446	2327.91
566.649	2449.97
566.852	2342.05
567.055	2397.65
567.258	2446.28
567.461	2511
567.664	2511.77
567.867	2361.81
568.07	2422.84
568.273	2478.83
568.475	2480.38
568.678	2387.77
568.881	2403.08
569.084	2363.55
569.287	2236.84
569.489	2296.71
569.692	2401.53
569.895	2393.39
570.098	2323.06
570.3	2288.96
570.503	2247.31
570.706	2263.19
570.909	2247.69
571.111	2225.99
571.314	2177.56
571.516	2209.72
571.719	2214.95
571.922	2197.71
572.124	2198.29
572.327	2294.97
572.529	2228.51
572.732	2231.42
572.935	2253.12
573.137	2349.41
573.34	2215.73
573.542	2325.77
573.745	2273.07
573.947	2275.4
574.15	2215.14
574.352	2203.91
574.554	2310.47
574.757	2196.35
574.959	2176.01
575.162	2183.95
575.364	2161.09
575.566	2303.88
575.769	2141.52
575.971	2170.97
576.173	2049.1
576.376	2141.13
576.578	2159.54
576.78	2234.71
576.982	2089.4
577.185	2159.15
577.387	2087.66
577.589	2122.15
577.791	2171.16
577.993	2129.31
578.196	2164.38
578.398	2140.36
578.6	2130.86
578.802	2046.39
579.004	2041.74
579.206	2071.58
579.408	2102.77
579.61	2033.99
579.812	2129.9
580.014	2079.91
580.216	2077.39
580.418	2073.13
580.62	2012.68
580.822	2021.01
581.024	2078.94
581.226	2129.9
581.428	2048.33
581.63	2181.04
581.832	2036.32
582.034	2144.43
582.236	2098.51
582.438	2110.33
582.64	2096.96
582.841	2132.41
583.043	2185.31
583.245	2095.6
583.447	2111.1
583.649	2082.62
583.85	2112.65
584.052	2120.6
584.254	2058.02
584.456	2075.65
584.657	2034.96
584.859	2092.89
585.061	2064.99
585.262	2035.93
585.464	2014.03
585.666	2058.79
585.867	2010.35
586.069	2074.68
586.27	2033.99
586.472	2020.62
586.674	2004.35
586.875	1984.2
587.077	1989.04
587.278	2042.9
587.48	1987.88
587.681	2127.76
587.883	2024.88
588.084	1948.16
588.285	1982.65
588.487	1946.8
588.688	1975.87
588.89	1911.15
589.091	1860.59
589.292	1899.34
589.494	1815.44
589.695	1806.14
589.896	1721.28
590.098	1699
590.299	1789.68
590.5	1743.37
590.702	1791.61
590.903	1805.76
591.104	1884.81
591.305	1863.49
591.507	1920.45
591.708	1878.22
591.909	1895.27
592.11	1943.51
592.311	1930.14
592.512	1857.68
592.714	1827.07
592.915	1849.93
593.116	1853.42
593.317	1865.04
593.518	1858.07
593.719	1880.93
593.92	1907.47
594.121	1937.12
594.322	1888.29
594.523	1895.66
594.724	1843.34
594.925	1900.11
595.126	1898.17
595.327	1901.08
595.528	1857.49
595.729	1872.79
595.929	1842.37
596.13	1854.77
596.331	1889.65
596.532	1873.57
596.733	1955.14
596.934	1964.05
597.135	1893.72
597.335	1895.85
597.536	1843.92
597.737	1872.99
597.938	1845.47
598.138	1913.29
598.339	1811.18
598.54	1869.11
598.74	1838.89
598.941	1852.26
599.142	1900.89
599.342	1875.51
599.543	1846.06
599.744	1822.61
599.944	1868.72
600.145	1840.24
600.345	1849.16
600.546	1953.97
600.746	1915.42
600.947	1936.73
601.147	1854.39
601.348	1879.19
601.548	1826.1
601.749	1858.65
601.949	1767.98
602.15	1804.21
602.35	1800.91
602.551	1878.02
602.751	1761.97
602.951	1809.83
603.152	1773.79
603.352	1836.95
603.552	1850.9
603.753	1863.88
603.953	1841.99
604.153	1868.72
604.354	1822.81
604.554	1819.51
604.754	1837.53
604.954	1837.72
605.155	1824.16
605.355	1816.03
605.555	1876.09
605.755	1913.48
605.955	1821.26
606.155	1871.82
606.356	1800.91
606.556	1838.31
606.756	1826.49
606.956	1777.28
607.156	1867.56
607.356	1810.99
607.556	1813.31
607.756	1825.13
607.956	1878.02
608.156	1798.01
608.356	1743.18
608.556	1820.29
608.756	1780.38
608.956	1758.68
609.156	1792.58
609.356	1743.76
609.556	1751.7
609.755	1782.51
609.955	1743.18
610.155	1742.59
610.355	1755.77
610.555	1717.21
610.755	1707.33
610.954	1681.95
611.154	1767.59
611.354	1742.79
611.554	1687.18
611.753	1731.94
611.953	1683.11
612.153	1772.04
612.352	1749.76
612.552	1688.35
612.752	1618.98
612.951	1671.1
613.151	1697.26
613.351	1631.58
613.55	1702.68
613.75	1696.87
613.949	1647.08
614.149	1707.53
614.348	1667.42
