Data from gum_old_FLMT105791__159__15-47-46-250.txt Node

Date: Mon Mar 20 15:47:46 GMT 2023
User: antho
Spectrometer: FLMT10579
Trigger mode: 0
Integration Time (sec): 1.000000E-1
Scans to average: 10
Electric dark correction enabled: true
Nonlinearity correction enabled: false
Boxcar width: 0
XAxis mode: Wavelengths
Number of Pixels in Spectrum: 3648
>>>>>Begin Spectral Data<<<<<
345.248	-187.97
345.464	-187.97
345.681	-187.97
345.898	-168.4
346.114	-189.13
346.331	-28.32
346.548	26.12
346.764	-17.86
346.981	5.39
347.197	-7.59
347.414	15.08
347.631	-14.37
347.847	40.85
348.064	1.91
348.28	35.04
348.497	-45.95
348.713	-10.3
348.93	36
349.146	45.3
349.363	20.89
349.579	-4.49
349.796	19.73
350.012	1.13
350.229	53.83
350.445	16.05
350.661	-7.2
350.878	21.47
351.094	60.22
351.311	30.39
351.527	51.7
351.743	14.89
351.96	48.21
352.176	58.67
352.392	39.69
352.609	58.67
352.825	19.15
353.041	14.31
353.257	9.46
353.474	13.92
353.69	51.5
353.906	18.95
354.122	-38.01
354.339	67.39
354.555	36.59
354.771	36.2
354.987	80.95
355.203	107.69
355.42	-1.58
355.636	11.21
355.852	-2.55
356.068	35.04
356.284	-25.8
356.5	82.7
356.716	75.72
356.932	46.27
357.148	65.26
357.364	14.5
357.58	66.81
357.796	75.53
358.012	80.76
358.228	65.07
358.444	-19.99
358.66	83.67
358.876	60.61
359.092	5.2
359.308	57.32
359.524	56.15
359.74	24.96
359.956	22.44
360.172	20.12
360.388	62.94
360.604	20.89
360.819	124.74
361.035	34.45
361.251	63.32
361.467	9.85
361.683	73.79
361.898	58.29
362.114	89.67
362.33	48.6
362.546	76.69
362.762	54.8
362.977	38.72
363.193	10.04
363.409	82.12
363.624	19.73
363.84	16.05
364.056	23.8
364.271	58.87
364.487	85.8
364.703	35.81
364.918	10.24
365.134	7.91
365.35	49.37
365.565	143.92
365.781	69.72
365.996	60.03
366.212	117.38
366.427	79.02
366.643	24.19
366.858	37.75
367.074	50.15
367.289	99.94
367.505	179.18
367.72	34.84
367.936	64.49
368.151	86.77
368.367	82.31
368.582	58.48
368.798	47.63
369.013	112.15
369.228	68.75
369.444	54.02
369.659	130.17
369.874	80.76
370.09	128.42
370.305	19.92
370.52	33.68
370.736	107.69
370.951	68.94
371.166	121.06
371.381	121.25
371.597	96.07
371.812	43.75
372.027	24.38
372.242	64.1
372.458	135.2
372.673	34.45
372.888	64.29
373.103	80.57
373.318	152.25
373.533	78.44
373.749	95.87
373.964	7.72
374.179	88.7
374.394	44.53
374.609	123.77
374.824	27.29
375.039	108.08
375.254	25.93
375.469	129
375.684	91.03
375.899	122.03
376.114	74.17
376.329	82.7
376.544	104.59
376.759	94.32
376.974	43.75
377.189	55.96
377.404	54.8
377.619	115.05
377.834	42.4
378.049	31.16
378.264	60.42
378.478	95.29
378.693	54.02
378.908	73.98
379.123	63.52
379.338	101.49
379.553	101.1
379.767	65.65
379.982	118.54
380.197	105.37
380.412	92
380.626	128.42
380.841	173.57
381.056	106.53
381.271	159.03
381.485	84.25
381.7	46.85
381.915	85.6
382.129	96.65
382.344	69.52
382.559	60.22
382.773	114.47
382.988	-2.55
383.202	83.67
383.417	49.37
383.632	183.06
383.846	55.57
384.061	68.94
384.275	50.54
384.49	91.03
384.704	120.28
384.919	88.51
385.133	80.76
385.348	133.27
385.562	45.89
385.777	132.1
385.991	85.8
386.206	82.5
386.42	73.79
386.634	142.18
386.849	104.4
387.063	115.05
387.277	54.99
387.492	70.3
387.706	82.31
387.92	61.58
388.135	132.3
388.349	96.26
388.563	114.67
388.778	110.4
388.992	105.95
389.206	111.95
389.42	184.42
389.635	105.17
389.849	151.09
390.063	142.57
390.277	128.03
390.491	176.28
390.706	135.98
390.92	139.08
391.134	137.53
391.348	146.44
391.562	70.49
391.776	115.05
391.99	100.52
392.205	158.26
392.419	116.22
392.633	103.23
392.847	173.37
393.061	98.97
393.275	146.25
393.489	113.5
393.703	84.25
393.917	145.08
394.131	71.07
394.345	117.57
394.559	135.01
394.773	110.21
394.986	156.32
395.2	123.38
395.414	168.72
395.628	113.89
395.842	153.61
396.056	141.98
396.27	85.8
396.484	151.28
396.697	130.17
396.911	166.59
397.125	130.75
397.339	178.41
397.553	128.42
397.766	190.23
397.98	172.21
398.194	168.14
398.408	157.48
398.621	206.31
398.835	197.98
399.049	175.31
399.262	231.5
399.476	234.21
399.69	259.01
399.903	268.31
400.117	210.96
400.331	215.03
400.544	196.23
400.758	323.72
400.971	241.76
401.185	279.16
401.398	198.75
401.612	259.98
401.826	259.78
402.039	254.16
402.253	220.84
402.466	254.16
402.68	215.61
402.893	244.48
403.106	280.51
403.32	232.66
403.533	269.47
403.747	252.42
403.96	242.73
404.174	263.08
404.387	183.83
404.6	251.65
404.814	283.42
405.027	254.16
405.24	257.85
405.454	245.06
405.667	301.24
405.88	223.75
406.094	283.61
406.307	314.42
406.52	264.82
406.733	215.61
406.947	199.33
407.16	301.05
407.373	308.41
407.586	251.65
407.799	233.43
408.012	323.72
408.226	307.64
408.439	338.25
408.652	267.15
408.865	287.88
409.078	320.23
409.291	309.38
409.504	246.8
409.717	353.75
409.93	295.04
410.143	284.97
410.357	231.69
410.57	242.35
410.783	247.19
410.996	285.36
411.209	281.48
411.421	316.55
411.634	310.93
411.847	275.09
412.06	280.13
412.273	329.53
412.486	309.19
412.699	420.79
412.912	298.73
413.125	339.8
413.338	336.89
413.55	320.62
413.763	318.1
413.976	349.29
414.189	303.57
414.402	300.66
414.615	385.72
414.827	307.64
415.04	362.08
415.253	348.52
415.466	390.56
415.678	414.97
415.891	352.39
416.104	313.26
416.316	310.16
416.529	300.66
416.742	370.99
416.954	383.39
417.167	347.36
417.38	317.91
417.592	405.67
417.805	307.06
418.017	280.13
418.23	363.83
418.442	326.43
418.655	334.57
418.868	368.28
419.08	396.18
419.293	381.46
419.505	362.28
419.718	396.37
419.93	405.87
420.142	331.86
420.355	393.27
420.567	395.02
420.78	379.32
420.992	353.36
421.205	443.65
421.417	321.78
421.629	374.87
421.842	351.81
422.054	328.37
422.266	400.25
422.479	446.17
422.691	355.69
422.903	408.19
423.115	353.94
423.328	358.79
423.54	379.32
423.752	359.37
423.964	353.17
424.177	392.5
424.389	371.19
424.601	514.37
424.813	408.77
425.025	428.73
425.238	424.47
425.45	425.82
425.662	367.51
425.874	703.27
426.086	409.16
426.298	442.1
426.51	401.61
426.722	399.67
426.934	381.65
427.146	442.49
427.358	363.05
427.57	436.67
427.782	373.71
427.994	392.69
428.206	369.64
428.418	373.32
428.63	432.41
428.842	439.19
429.054	406.84
429.266	469.03
429.478	349.68
429.69	433.19
429.902	329.14
430.114	410.91
430.325	401.61
430.537	358.4
430.749	338.44
430.961	289.04
431.173	327.4
431.384	344.45
431.596	288.84
431.808	344.84
432.02	387.85
432.231	476.39
432.443	490.92
432.655	498.67
432.867	458.95
433.078	476
433.29	516.89
433.502	497.51
433.713	495.19
433.925	506.81
434.136	510.49
434.348	400.83
434.56	419.82
434.771	522.89
434.983	397.15
435.194	462.25
435.406	470.19
435.617	529.29
435.829	561.25
436.04	533.16
436.252	530.84
436.463	585.28
436.675	581.02
436.886	550.02
437.098	582.95
437.309	631.39
437.521	534.9
437.732	550.6
437.943	547.69
438.155	548.27
438.366	464.19
438.578	556.22
438.789	520.76
439	534.32
439.211	495.57
439.423	522.89
439.634	533.16
439.845	545.17
440.057	594.19
440.268	598.84
440.479	569.97
440.69	560.67
440.902	536.84
441.113	527.15
441.324	538.97
441.535	583.92
441.746	645.34
441.957	567.84
442.168	584.89
442.38	615.31
442.591	645.34
442.802	559.9
443.013	606.98
443.224	637.98
443.435	581.79
443.646	584.89
443.857	597.87
444.068	593.61
444.279	558.54
444.49	695.33
444.701	620.15
444.912	735.82
445.123	682.54
445.334	632.36
445.545	651.54
445.756	599.42
445.967	617.05
446.178	630.03
446.388	655.8
446.599	646.31
446.81	666.46
447.021	598.65
447.232	670.53
447.443	697.07
447.653	618.8
447.864	713.93
448.075	664.13
448.286	708.5
448.496	668.78
448.707	702.5
448.918	673.63
449.129	767.21
449.339	630.42
449.55	730.39
449.761	697.26
449.971	739.31
450.182	689.71
450.393	723.03
450.603	694.75
450.814	756.74
451.024	726.91
451.235	768.76
451.446	786
451.656	786.97
451.867	707.15
452.077	741.05
452.288	784.45
452.498	810.8
452.709	701.91
452.919	743.18
453.13	689.32
453.34	730.59
453.55	671.3
453.761	733.69
453.971	715.48
454.182	737.37
454.392	740.08
454.602	822.42
454.813	775.54
455.023	770.31
455.233	674.79
455.444	741.44
455.654	642.24
455.864	732.53
456.075	756.74
456.285	680.6
456.495	719.74
456.705	765.46
456.916	784.26
457.126	823.39
457.336	785.23
457.546	665.3
457.756	739.31
457.967	812.74
458.177	774.57
458.387	756.74
458.597	722.84
458.807	721.09
459.017	736.98
459.227	758.1
459.437	744.73
459.647	783.68
459.857	780.96
460.068	736.79
460.278	807.89
460.488	791.43
460.698	851.68
460.908	757.33
461.117	724.78
461.327	755.19
461.537	800.14
461.747	808.67
461.957	792.98
462.167	906.51
462.377	870.47
462.587	828.24
462.797	850.32
463.007	819.32
463.216	839.09
463.426	879.39
463.636	859.24
463.846	776.7
464.056	806.15
464.265	832.69
464.475	784.84
464.685	819.13
464.895	835.41
465.104	808.47
465.314	837.34
465.524	817.97
465.733	788.71
465.943	872.02
466.153	892.75
466.362	891.59
466.572	872.99
466.782	827.27
466.991	821.46
467.201	922.79
467.41	760.43
467.62	823.59
467.829	835.21
468.039	867.37
468.249	845.67
468.458	846.45
468.668	911.16
468.877	881.91
469.086	908.06
469.296	933.05
469.505	892.95
469.715	973.16
469.924	928.6
470.134	923.56
470.343	941.77
470.552	875.71
470.762	892.17
470.971	879.19
471.18	903.22
471.39	947.59
471.599	871.25
471.808	910.97
472.018	925.3
472.227	991.95
472.436	1033.22
472.645	966.19
472.855	965.41
473.064	1046.78
473.273	1017.72
473.482	1026.05
473.691	1051.05
473.901	992.73
474.11	997.38
474.319	1066.93
474.528	1002.42
474.737	1084.37
474.946	1052.21
475.155	1052.79
475.364	1101.81
475.573	1074.49
475.783	1118.86
475.992	1106.07
476.201	1124.86
476.41	1090.96
476.619	1038.45
476.828	1071.78
477.037	1079.91
477.245	1055.5
477.454	1154.31
477.663	1102.58
477.872	1134.75
478.081	1193.06
478.29	1156.44
478.499	1236.46
478.708	1155.28
478.917	1245.96
479.125	1173.88
479.334	1188.03
479.543	1207.21
479.752	1221.54
479.961	1206.82
480.169	1269.79
480.378	1253.51
480.587	1363.75
480.796	1243.24
481.004	1252.93
481.213	1268.24
481.422	1284.71
481.63	1274.44
481.839	1330.43
482.048	1382.35
482.256	1322.49
482.465	1329.46
482.674	1324.62
482.882	1376.54
483.091	1422.07
483.299	1340.31
483.508	1397.47
483.716	1384.1
483.925	1399.6
484.134	1297.88
484.342	1343.6
484.551	1397.27
484.759	1368.6
484.967	1421.68
485.176	1404.05
485.384	1410.45
485.593	1449.2
485.801	1389.14
486.01	1340.89
486.218	1266.3
486.426	1190.74
486.635	1202.56
486.843	1179.69
487.051	1242.66
487.26	1226.19
487.468	1295.36
487.676	1364.14
487.885	1333.72
488.093	1395.92
488.301	1435.83
488.509	1423.43
488.717	1485.43
488.926	1451.13
489.134	1421.1
489.342	1445.71
489.55	1380.22
489.758	1422.85
489.967	1442.03
490.175	1586.18
490.383	1505.77
490.591	1610.78
490.799	1503.64
491.007	1585.01
491.215	1571.06
491.423	1520.11
491.631	1556.34
491.839	1551.3
492.047	1554.6
492.255	1509.65
492.463	1437.57
492.671	1476.71
492.879	1583.08
493.087	1532.12
493.295	1559.44
493.503	1576.3
493.711	1604.78
493.919	1675.11
494.127	1662.9
494.334	1626.67
494.542	1587.92
494.75	1637.91
494.958	1568.35
495.166	1730.52
495.374	1662.51
495.581	1675.49
495.789	1709.21
495.997	1742.14
496.205	1619.5
496.412	1664.84
496.62	1660.19
496.828	1677.43
497.035	1673.17
497.243	1743.5
497.451	1702.23
497.658	1688.09
497.866	1701.84
498.074	1775.08
498.281	1673.56
498.489	1765
498.696	1661.16
498.904	1622.79
499.112	1632.29
499.319	1734.78
499.527	1710.37
499.734	1738.85
499.942	1667.74
500.149	1704.94
500.357	1748.92
500.564	1654.96
500.771	1694.87
500.979	1704.56
501.186	1637.91
501.394	1695.64
501.601	1648.37
501.808	1709.01
502.016	1683.82
502.223	1677.43
502.43	1687.12
502.638	1680.34
502.845	1657.67
503.052	1776.44
503.26	1713.66
503.467	1794.65
503.674	1761.13
503.881	1797.75
504.089	1860.52
504.296	1783.41
504.503	1679.95
504.71	1709.01
504.917	1679.56
505.125	1781.86
505.332	1751.25
505.539	1766.55
505.746	1862.07
505.953	1852
506.16	1844.64
506.367	1935.12
506.574	1919.23
506.781	1910.51
506.988	1830.88
507.195	1899.66
507.402	1849.29
507.609	1886.29
507.816	1830.3
508.023	1813.83
508.23	1792.13
508.437	1801.24
508.644	1860.13
508.851	1874.28
509.058	1860.91
509.265	1872.15
509.472	1902.37
509.679	1973.28
509.885	1891.13
510.092	1896.75
510.299	1915.93
510.506	1864.78
510.713	1899.47
510.92	1921.17
511.126	1887.45
511.333	1927.17
511.54	1942.67
511.746	1956.81
511.953	1994.6
512.16	2053.88
512.367	1978.71
512.573	1978.9
512.78	1982.2
512.987	1914.38
513.193	1958.75
513.4	1815.57
513.606	1926.4
513.813	1949.65
514.02	1929.69
514.226	1972.51
514.433	1969.02
514.639	1889
514.846	1942.28
515.052	1906.25
515.259	1922.52
515.465	1946.35
515.672	1995.18
515.878	2046.71
516.085	1994.79
516.291	2008.93
516.497	1963.98
516.704	1959.33
516.91	1928.92
517.117	1871.95
517.323	1717.15
517.529	1812.86
517.736	1763.26
517.942	1787.67
518.148	1824.1
518.354	1885.13
518.561	1844.44
518.767	1881.83
518.973	1927.17
519.179	1922.91
519.386	1912.06
519.592	1888.03
519.798	1944.03
520.004	2044
520.21	1999.44
520.417	2074.23
520.623	2124.41
520.829	2118.79
521.035	2111.43
521.241	2127.31
521.447	2152.5
521.653	2272.62
521.859	2106.58
522.065	2145.91
522.271	2246.66
522.477	2234.07
522.683	2276.3
522.889	2181.56
523.095	2217.21
523.301	2177.88
523.507	2165.67
523.713	2201.32
523.919	2180.21
524.125	2263.52
524.331	2245.11
524.537	2343.53
524.742	2264.1
524.948	2314.28
525.154	2341.21
525.36	2458.43
525.566	2319.7
525.772	2397.01
525.977	2256.15
526.183	2384.8
526.389	2398.56
526.595	2313.12
526.8	2268.94
527.006	2171.68
527.212	2132.35
527.417	2081.78
527.623	2084.69
527.829	2191.06
528.034	2252.67
528.24	2225.54
528.446	2267
528.651	2413.28
528.857	2388.29
529.062	2428.78
529.268	2408.25
529.473	2430.72
529.679	2454.55
529.884	2569.83
530.09	2512.29
530.295	2489.04
530.501	2502.99
530.706	2502.6
530.912	2429.36
531.117	2471.99
531.323	2505.31
531.528	2538.83
531.733	2564.79
531.939	2526.63
532.144	2553.94
532.35	2547.74
532.555	2572.35
532.76	2506.67
532.966	2502.21
533.171	2482.64
533.376	2408.05
533.581	2373.37
533.787	2467.34
533.992	2514.81
534.197	2539.99
534.402	2546
534.607	2576.42
534.813	2628.54
535.018	2536.89
535.223	2526.63
535.428	2528.95
535.633	2575.84
535.838	2599.86
536.043	2618.66
536.249	2742.27
536.454	2652.17
536.659	2660.31
536.864	2606.06
537.069	2586.69
537.274	2634.74
537.479	2624.47
537.684	2589.21
537.889	2549.29
538.094	2701.97
538.299	2586.49
538.504	2612.84
538.708	2660.7
538.913	2692.86
539.118	2642.1
539.323	2678.33
539.528	2623.69
539.733	2621.76
539.938	2619.62
540.142	2628.34
540.347	2580.1
540.552	2534.18
540.757	2556.27
540.962	2576.61
541.166	2523.33
541.371	2503.96
541.576	2551.04
541.781	2480.51
541.985	2613.23
542.19	2578.74
542.395	2689.95
542.599	2731.61
542.804	2645.97
543.008	2730.06
543.213	2593.47
543.418	2591.92
543.622	2683.75
543.827	2589.98
544.031	2700.42
544.236	2722.12
544.44	2682.98
544.645	2787.02
544.849	2656.24
545.054	2703.13
545.258	2773.46
545.463	2800.97
545.667	2632.41
545.872	2721.15
546.076	2714.17
546.281	2691.89
546.485	2724.25
546.689	2692.67
546.894	2719.4
547.098	2727.54
547.302	2661.28
547.507	2698.09
547.711	2767.45
547.915	2743.82
548.119	2667.09
548.324	2650.62
548.528	2697.51
548.732	2647.91
548.936	2719.6
549.141	2734.9
549.345	2697.51
549.549	2689.76
549.753	2686.27
549.957	2801.17
550.161	2793.03
550.366	2760.67
550.57	2720.76
550.774	2721.73
550.978	2700.61
551.182	2790.7
551.386	2711.85
551.59	2693.83
551.794	2682.4
551.998	2756.8
552.202	2726.96
552.406	2709.91
552.61	2741.3
552.814	2786.05
553.018	2824.8
553.222	2732.19
553.426	2675.42
553.63	2830.61
553.833	2710.3
554.037	2652.95
554.241	2702.35
554.445	2810.47
554.649	2783.34
554.853	2669.61
555.056	2789.54
555.26	2783.92
555.464	2773.07
555.668	2741.1
555.871	2797.29
556.075	2812.4
556.279	2729.87
556.483	2662.25
556.686	2702.35
556.89	2700.22
557.094	2754.08
557.297	2624.47
557.501	2737.62
557.704	2619.04
557.908	2688.02
558.112	2618.46
558.315	2731.8
558.519	2645.2
558.722	2672.32
558.926	2643.45
559.129	2559.76
559.333	2538.06
559.536	2571.57
559.74	2524.88
559.943	2533.99
560.147	2530.89
560.35	2558.98
560.553	2566.73
560.757	2506.86
560.96	2640.74
561.164	2599.86
561.367	2717.47
561.57	2593.27
561.774	2630.09
561.977	2601.99
562.18	2566.34
562.384	2649.85
562.587	2563.63
562.79	2571.96
562.993	2539.99
563.197	2545.61
563.4	2624.66
563.603	2627.18
563.806	2643.07
564.009	2548.52
564.212	2566.15
564.416	2472.18
564.619	2571.57
564.822	2476.25
565.025	2620.59
565.228	2502.21
565.431	2534.76
565.634	2469.08
565.837	2477.22
566.04	2431.11
566.243	2487.1
566.446	2330.94
566.649	2502.79
566.852	2346.05
567.055	2403.79
567.258	2498.53
567.461	2505.12
567.664	2520.62
567.867	2430.91
568.07	2452.61
568.273	2447.38
568.475	2476.83
568.678	2391.97
568.881	2429.75
569.084	2422.97
569.287	2282.89
569.489	2323.97
569.692	2409.99
569.895	2407.66
570.098	2328.62
570.3	2309.82
570.503	2252.09
570.706	2262.16
570.909	2260.61
571.111	2248.79
571.314	2209.65
571.516	2220.12
571.719	2270.1
571.922	2215.27
572.124	2234.65
572.327	2243.17
572.529	2187.37
572.732	2199.97
572.935	2302.07
573.137	2359.81
573.34	2261
573.542	2330.55
573.745	2285.02
573.947	2277.47
574.15	2278.82
574.352	2208.88
574.554	2335.59
574.757	2211.4
574.959	2161.8
575.162	2234.26
575.364	2204.23
575.566	2328.42
575.769	2169.55
575.971	2198.61
576.173	2060.08
576.376	2147.85
576.578	2240.07
576.78	2252.47
576.982	2084.49
577.185	2143.97
577.387	2133.32
577.589	2146.49
577.791	2221.86
577.993	2206.75
578.196	2130.99
578.398	2164.51
578.6	2179.62
578.802	2103.68
579.004	2079.84
579.206	2092.63
579.408	2159.09
579.61	2096.31
579.812	2163.35
580.014	2070.93
580.216	2085.27
580.418	2124.6
580.62	2110.65
580.822	2034.89
581.024	2140.29
581.226	2099.41
581.428	2091.28
581.63	2198.81
581.832	2104.06
582.034	2124.79
582.236	2106.97
582.438	2150.95
582.64	2145.72
582.841	2169.74
583.043	2223.22
583.245	2131.96
583.447	2157.54
583.649	2114.52
583.85	2113.56
584.052	2189.7
584.254	2086.24
584.456	2108.33
584.657	2054.08
584.859	2097.28
585.061	2100.58
585.262	2088.76
585.464	2024.63
585.666	2094.18
585.867	2034.7
586.069	2132.93
586.27	2041.09
586.472	2054.08
586.674	1993.43
586.875	2017.07
587.077	2011.26
587.278	2034.51
587.48	2035.48
587.681	2154.44
587.883	2054.85
588.084	1958.75
588.285	2022.69
588.487	1982.2
588.688	2036.06
588.89	1892.88
589.091	1867.5
589.292	1891.33
589.494	1815.96
589.695	1825.07
589.896	1751.44
590.098	1715.79
590.299	1786.32
590.5	1761.13
590.702	1795.81
590.903	1834.17
591.104	1910.51
591.305	1873.31
591.507	1951.78
591.708	1943.83
591.909	1905.28
592.11	1940.15
592.311	1904.5
592.512	1862.07
592.714	1857.42
592.915	1863.82
593.116	1883.97
593.317	1905.08
593.518	1899.66
593.719	1885.52
593.92	1927.37
594.121	1952.16
594.322	1895.4
594.523	1920.39
594.724	1865.95
594.925	1870.98
595.126	1874.28
595.327	1913.8
595.528	1891.72
595.729	1854.71
595.929	1859.17
596.13	1884.55
596.331	1923.49
596.532	1885.32
596.733	1931.63
596.934	1940.93
597.135	1929.69
597.335	1916.71
597.536	1845.6
597.737	1907.41
597.938	1835.14
598.138	1912.83
598.339	1860.33
598.54	1851.03
598.74	1880.87
598.941	1877.96
599.142	1913.42
599.342	1870.21
599.543	1851.61
599.744	1832.82
599.944	1820.42
600.145	1845.99
600.345	1891.91
600.546	1930.08
600.746	1909.93
600.947	1938.21
601.147	1870.4
601.348	1910.12
601.548	1804.92
601.749	1873.12
601.949	1782.64
602.15	1810.34
602.35	1828.55
602.551	1856.07
602.751	1777.79
602.951	1813.64
603.152	1727.81
603.352	1829.72
603.552	1815.19
603.753	1887.45
603.953	1860.91
604.153	1857.81
604.354	1854.9
604.554	1837.47
604.754	1846.38
604.954	1795.42
605.155	1831.07
605.355	1833.2
605.555	1840.37
605.755	1893.65
605.955	1818.67
606.155	1867.11
606.356	1785.74
606.556	1836.11
606.756	1826.81
606.956	1808.4
607.156	1906.63
607.356	1765
607.556	1824.1
607.756	1817.12
607.956	1850.06
608.156	1831.46
608.356	1769.65
608.556	1841.92
608.756	1795.42
608.956	1794.45
609.156	1809.18
609.356	1738.27
609.556	1737.11
609.755	1785.35
609.955	1748.54
610.155	1774.69
610.355	1751.83
610.555	1713.27
610.755	1774.3
610.954	1648.95
611.154	1731.87
611.354	1801.82
611.554	1726.84
611.753	1729.74
611.953	1672.01
612.153	1759.39
612.352	1720.83
612.552	1678.4
612.752	1613.88
612.951	1699.32
613.151	1697.77
613.351	1673.36
613.55	1676.27
613.75	1740.21
613.949	1669.88
614.149	1673.17
614.348	1661.54
