Data from gum_old_FLMT105791__141__15-46-30-242.txt Node

Date: Mon Mar 20 15:46:30 GMT 2023
User: antho
Spectrometer: FLMT10579
Trigger mode: 0
Integration Time (sec): 1.000000E-1
Scans to average: 10
Electric dark correction enabled: true
Nonlinearity correction enabled: false
Boxcar width: 0
XAxis mode: Wavelengths
Number of Pixels in Spectrum: 3648
>>>>>Begin Spectral Data<<<<<
345.248	-194.07
345.464	-194.07
345.681	-194.07
345.898	-189.61
346.114	-208.21
346.331	-30.55
346.548	24.67
346.764	-14.47
346.981	-22.02
347.197	-16.02
347.414	14.01
347.631	-10.2
347.847	44.63
348.064	-14.08
348.28	25.45
348.497	-27.25
348.713	25.83
348.93	18.86
349.146	23.7
349.363	7.43
349.579	27.96
349.796	-10.01
350.012	-11.37
350.229	37.65
350.445	-11.56
350.661	2.58
350.878	4.71
351.094	37.65
351.311	24.86
351.527	27.19
351.743	-18.15
351.96	51.21
352.176	54.12
352.392	32.03
352.609	32.81
352.825	-26.48
353.041	20.21
353.257	8.4
353.474	19.05
353.69	29.13
353.906	10.72
354.122	0.65
354.339	72.33
354.555	6.26
354.771	-12.92
354.987	72.91
355.203	78.73
355.42	-11.17
355.636	-0.71
355.852	2
356.068	-3.62
356.284	-28.61
356.5	67.49
356.716	39.59
356.932	16.53
357.148	33.2
357.364	18.08
357.58	76.79
357.796	64.97
358.012	53.15
358.228	32.03
358.444	-49.92
358.66	66.33
358.876	37.85
359.092	0.65
359.308	25.06
359.524	48.89
359.74	11.11
359.956	0.45
360.172	27.38
360.388	54.7
360.604	-2.26
360.819	112.24
361.035	39.2
361.251	54.7
361.467	4.91
361.683	66.13
361.898	36.68
362.114	30.87
362.33	38.62
362.546	64.39
362.762	2.2
362.977	35.13
363.193	-20.67
363.409	72.91
363.624	-13.11
363.84	-1.29
364.056	25.45
364.271	35.52
364.487	43.85
364.703	1.03
364.918	4.91
365.134	26.22
365.35	53.54
365.565	114.38
365.781	43.08
365.996	73.3
366.212	87.25
366.427	48.31
366.643	22.73
366.858	44.63
367.074	-3.81
367.289	85.89
367.505	135.69
367.72	-13.89
367.936	3.75
368.151	95.58
368.367	78.92
368.582	46.95
368.798	9.95
369.013	77.76
369.228	49.86
369.444	74.85
369.659	87.64
369.874	47.92
370.09	82.02
370.305	3.75
370.52	40.17
370.736	70.98
370.951	57.03
371.166	77.37
371.381	125.81
371.597	53.54
371.812	-9.43
372.027	25.25
372.242	26.41
372.458	126
372.673	34.16
372.888	30.1
373.103	82.02
373.318	133.56
373.533	60.9
373.749	26.8
373.964	-5.94
374.179	79.69
374.394	40.56
374.609	100.43
374.824	-4.39
375.039	58.77
375.254	17.5
375.469	83.96
375.684	55.67
375.899	98.1
376.114	29.71
376.329	22.93
376.544	59.35
376.759	94.81
376.974	27.58
377.189	42.11
377.404	33.39
377.619	97.13
377.834	-1.68
378.049	-17.95
378.264	17.7
378.478	81.24
378.693	20.6
378.908	69.23
379.123	36.68
379.338	99.46
379.553	33.78
379.767	60.51
379.982	84.15
380.197	107.01
380.412	32.23
380.626	72.14
380.841	139.56
381.056	71.56
381.271	126.39
381.485	50.05
381.7	4.71
381.915	62.64
382.129	44.43
382.344	36.3
382.559	76.4
382.773	73.11
382.988	-0.71
383.202	56.64
383.417	19.25
383.632	150.02
383.846	31.06
384.061	58.77
384.275	37.85
384.49	66.91
384.704	81.63
384.919	73.69
385.133	65.55
385.348	95.39
385.562	31.84
385.777	99.84
385.991	51.21
386.206	31.45
386.42	27.77
386.634	123.09
386.849	73.49
387.063	80.08
387.277	53.35
387.492	38.81
387.706	38.62
387.92	34.16
388.135	93.45
388.349	88.41
388.563	64.39
388.778	78.73
388.992	91.32
389.206	93.26
389.42	151.19
389.635	68.84
389.849	99.07
390.063	111.08
390.277	81.05
390.491	142.08
390.706	98.49
390.92	122.13
391.134	88.8
391.348	101.78
391.562	56.06
391.776	77.18
391.99	56.25
392.205	132.01
392.419	29.13
392.633	78.14
392.847	132.98
393.061	78.92
393.275	150.41
393.489	46.18
393.703	83.96
393.917	101.39
394.131	51.6
394.345	85.7
394.559	120.96
394.773	56.83
394.986	111.47
395.2	95.39
395.414	118.83
395.628	71.75
395.842	108.37
396.056	99.07
396.27	59.16
396.484	109.34
396.697	96.74
396.911	130.26
397.125	102.36
397.339	91.71
397.553	79.31
397.766	146.34
397.98	121.16
398.194	125.23
398.408	96.16
398.621	145.57
398.835	156.22
399.049	144.79
399.262	167.66
399.476	161.84
399.69	165.33
399.903	208.15
400.117	144.6
400.331	161.84
400.544	123.09
400.758	239.15
400.971	162.23
401.185	214.16
401.398	127.16
401.612	235.08
401.826	174.82
402.039	166.69
402.253	156.42
402.466	194.39
402.68	148.86
402.893	189.74
403.106	187.81
403.32	151.96
403.533	175.21
403.747	149.83
403.96	179.09
404.174	211.06
404.387	151.57
404.6	183.93
404.814	202.92
405.027	194.59
405.24	168.43
405.454	143.44
405.667	208.15
405.88	96.55
406.094	191.1
406.307	229.07
406.52	212.99
406.733	126.78
406.947	117.48
407.16	246.7
407.373	212.8
407.586	170.17
407.799	158.55
408.012	208.54
408.226	180.83
408.439	255.42
408.652	150.41
408.865	221.91
409.078	245.15
409.291	199.04
409.504	167.46
409.717	212.41
409.93	244.57
410.143	211.06
410.357	140.73
410.57	130.07
410.783	170.56
410.996	172.5
411.209	210.28
411.421	231.01
411.634	195.75
411.847	190.32
412.06	223.65
412.273	210.09
412.486	220.74
412.699	323.62
412.912	232.37
413.125	240.7
413.338	229.46
413.55	258.14
413.763	225.01
413.976	221.91
414.189	187.81
414.402	218.81
414.615	314.13
414.827	158.74
415.04	262.4
415.253	223.07
415.466	276.93
415.678	307.74
415.891	238.37
416.104	232.56
416.316	231.4
416.529	193.62
416.742	262.01
416.954	281.39
417.167	239.73
417.38	242.64
417.592	273.05
417.805	202.53
418.017	179.86
418.23	247.09
418.442	219.97
418.655	207.18
418.868	252.52
419.08	279.06
419.293	282.55
419.505	248.45
419.718	253.29
419.93	265.11
420.142	207.37
420.355	275.19
420.567	302.12
420.78	268.79
420.992	227.14
421.205	309.48
421.417	216.29
421.629	241.86
421.842	229.07
422.054	207.76
422.266	274.6
422.479	318.59
422.691	239.92
422.903	329.43
423.115	227.14
423.328	244.77
423.54	255.04
423.752	269.95
423.964	242.44
424.177	261.82
424.389	236.24
424.601	349.2
424.813	264.34
425.025	299.79
425.238	295.14
425.45	246.32
425.662	250.39
425.874	591.38
426.086	264.92
426.298	271.7
426.51	299.79
426.722	251.16
426.934	251.74
427.146	296.11
427.358	247.29
427.57	293.59
427.782	246.51
427.994	261.43
428.206	241.09
428.418	223.07
428.63	277.12
428.842	321.49
429.054	252.71
429.266	303.28
429.478	231.21
429.69	260.85
429.902	197.11
430.114	286.62
430.325	272.67
430.537	213.77
430.749	230.62
430.961	148.09
431.173	243.22
431.384	224.62
431.596	137.43
431.808	227.33
432.02	282.55
432.231	306.57
432.443	358.88
432.655	298.24
432.867	293.98
433.078	299.02
433.29	342.03
433.502	349
433.713	335.44
433.925	310.64
434.136	367.8
434.348	268.6
434.56	236.82
434.771	388.33
434.983	243.99
435.194	277.51
435.406	301.73
435.617	368.77
435.829	375.16
436.04	356.75
436.252	368.38
436.463	387.17
436.675	384.65
436.886	352.49
437.098	362.95
437.309	411.78
437.521	348.62
437.732	364.89
437.943	330.98
438.155	358.5
438.366	284.87
438.578	408.48
438.789	328.47
439	336.22
439.211	294.75
439.423	336.8
439.634	359.85
439.845	369.35
440.057	355.98
440.268	391.82
440.479	318.2
440.69	370.12
440.902	327.5
441.113	367.41
441.324	346.1
441.535	398.02
441.746	423.01
441.957	327.5
442.168	340.28
442.38	405
442.591	390.08
442.802	333.89
443.013	363.34
443.224	392.6
443.435	368.77
443.646	388.14
443.857	377.29
444.068	364.12
444.279	364.31
444.49	485.4
444.701	411
444.912	488.5
445.123	436.77
445.334	413.33
445.545	418.95
445.756	395.7
445.967	365.47
446.178	409.26
446.388	457.11
446.599	432.12
446.81	446.46
447.021	359.08
447.232	447.04
447.443	467.19
447.653	398.22
447.864	485.4
448.075	407.71
448.286	451.11
448.496	409.45
448.707	461.96
448.918	397.05
449.129	528.22
449.339	397.25
449.55	450.53
449.761	427.28
449.971	468.16
450.182	417.98
450.393	443.75
450.603	443.16
450.814	472.81
451.024	479.2
451.235	486.37
451.446	522.79
451.656	537.13
451.867	443.55
452.077	462.15
452.288	539.84
452.498	514.27
452.709	447.04
452.919	475.33
453.13	403.45
453.34	461.18
453.55	390.08
453.761	469.51
453.971	456.15
454.182	496.83
454.392	450.91
454.602	534.81
454.813	501.48
455.023	484.63
455.233	433.09
455.444	471.06
455.654	415.65
455.864	441.61
456.075	463.51
456.285	448.98
456.495	449.75
456.705	487.73
456.916	486.76
457.126	538.49
457.336	475.13
457.546	412.55
457.756	448.78
457.967	490.44
458.177	477.85
458.387	481.53
458.597	431.35
458.807	470.29
459.017	461.18
459.227	446.85
459.437	449.17
459.647	492.96
459.857	519.5
460.068	457.5
460.278	515.04
460.488	497.99
460.698	557.09
460.908	492.57
461.117	427.08
461.327	439.68
461.537	490.83
461.747	511.94
461.957	463.7
462.167	599.71
462.377	532.68
462.587	504
462.797	551.28
463.007	496.64
463.216	517.18
463.426	563.29
463.636	550.5
463.846	468.16
464.056	491.6
464.265	537.13
464.475	454.4
464.685	507.49
464.895	546.04
465.104	512.14
465.314	520.08
465.524	520.47
465.733	494.51
465.943	576.27
466.153	558.25
466.362	570.46
466.572	533.26
466.782	517.76
466.991	513.3
467.201	573.56
467.41	454.6
467.62	541.39
467.829	537.91
468.039	548.37
468.249	521.63
468.458	505.94
468.668	580.53
468.877	574.53
469.086	600.1
469.296	571.23
469.505	544.49
469.715	612.69
469.924	579.95
470.134	596.03
470.343	629.16
470.552	534.42
470.762	581.89
470.971	503.42
471.18	561.54
471.39	562.51
471.599	515.24
471.808	615.02
472.018	560.77
472.227	614.44
472.436	643.69
472.645	624.71
472.855	588.67
473.064	657.84
473.273	647.96
473.482	617.92
473.691	659.19
473.901	653.77
474.11	586.92
474.319	723.32
474.528	636.52
474.737	701.82
474.946	630.32
475.155	670.62
475.364	699.3
475.573	677.99
475.783	686.7
475.992	678.95
476.201	717.51
476.41	687.09
476.619	648.15
476.828	666.56
477.037	661.91
477.245	653.38
477.454	707.05
477.663	699.69
477.872	685.15
478.081	767.88
478.29	663.26
478.499	802.57
478.708	748.7
478.917	790.36
479.125	711.31
479.334	758.97
479.543	723.9
479.752	743.28
479.961	735.34
480.169	767.69
480.378	722.16
480.587	871.35
480.796	770.02
481.004	792.88
481.213	784.16
481.422	787.65
481.63	816.9
481.839	816.32
482.048	858.95
482.256	830.27
482.465	837.05
482.674	845.19
482.882	848.68
483.091	897.89
483.299	846.16
483.508	864.95
483.716	850.03
483.925	832.21
484.134	773.7
484.342	810.9
484.551	861.46
484.759	852.16
484.967	872.9
485.176	872.31
485.384	874.64
485.593	908.93
485.801	883.55
486.01	838.8
486.218	816.9
486.426	747.15
486.635	765.75
486.843	763.23
487.051	783.38
487.26	774.47
487.468	826.01
487.676	857.2
487.885	813.61
488.093	855.65
488.301	876.77
488.509	870.76
488.717	930.25
488.926	905.64
489.134	881.42
489.342	864.76
489.55	882
489.758	884.71
489.967	913.78
490.175	1050.17
490.383	918.81
490.591	1015.49
490.799	922.5
491.007	983.53
491.215	960.47
491.423	955.43
491.631	951.17
491.839	971.71
492.047	979.65
492.255	894.6
492.463	879.68
492.671	886.85
492.879	1007.74
493.087	953.88
493.295	970.93
493.503	1002.71
493.711	1018.59
493.919	1040.49
494.127	1002.13
494.334	1032.16
494.542	942.64
494.75	962.6
494.958	968.03
495.166	1034.48
495.374	1049.21
495.581	1042.04
495.789	1033.12
495.997	1113.72
496.205	1029.83
496.412	1006.39
496.62	1025.57
496.828	1033.9
497.035	1002.32
497.243	1051.14
497.451	1050.95
497.658	1072.46
497.866	1029.64
498.074	1117.99
498.281	1013.75
498.489	1145.3
498.696	1044.94
498.904	987.01
499.112	996.89
499.319	1117.21
499.527	1028.67
499.734	1114.5
499.942	1003.87
500.149	1047.07
500.357	1050.76
500.564	1010.07
500.771	1067.42
500.979	996.31
501.186	1043.78
501.394	1040.29
501.601	1022.47
501.808	1061.02
502.016	1032.35
502.223	1013.75
502.43	1052.69
502.638	1049.01
502.845	1016.66
503.052	1133.68
503.26	1020.14
503.467	1130.39
503.674	1075.36
503.881	1110.82
504.089	1162.35
504.296	1123.22
504.503	1046.88
504.71	1028.67
504.917	1048.04
505.125	1059.09
505.332	1073.23
505.539	1070.91
505.746	1182.31
505.953	1141.24
506.16	1141.43
506.367	1201.88
506.574	1174.75
506.781	1181.73
506.988	1142.59
507.195	1140.07
507.402	1140.27
507.609	1171.85
507.816	1132.13
508.023	1130.19
508.23	1108.88
508.437	1074.2
508.644	1153.05
508.851	1192.19
509.058	1169.14
509.265	1150.15
509.472	1176.11
509.679	1261.94
509.885	1157.12
510.092	1148.21
510.299	1158.67
510.506	1120.12
510.713	1161.39
510.92	1174.37
511.126	1213.5
511.333	1258.65
511.54	1205.17
511.746	1233.27
511.953	1235.78
512.16	1266.98
512.367	1229.39
512.573	1210.98
512.78	1237.53
512.987	1235.98
513.193	1184.25
513.4	1129.22
513.606	1192
513.813	1240.24
514.02	1206.53
514.226	1310.76
514.433	1275.7
514.639	1187.35
514.846	1212.34
515.052	1215.05
515.259	1205.56
515.465	1242.57
515.672	1252.06
515.878	1322.58
516.085	1242.57
516.291	1285.77
516.497	1239.27
516.704	1246.44
516.91	1199.36
517.117	1163.32
517.323	1110.62
517.529	1117.99
517.736	1163.32
517.942	1144.92
518.148	1172.43
518.354	1198.39
518.561	1206.53
518.767	1203.04
518.973	1241.02
519.179	1214.67
519.386	1192.77
519.592	1205.75
519.798	1219.9
520.004	1317.93
520.21	1269.3
520.417	1307.47
520.623	1355.13
520.829	1318.71
521.035	1330.33
521.241	1381.48
521.447	1376.44
521.653	1475.26
521.859	1362.3
522.065	1406.67
522.271	1496.96
522.477	1433.99
522.683	1493.66
522.889	1435.15
523.095	1415.19
523.301	1405.12
523.507	1377.22
523.713	1424.88
523.919	1400.66
524.125	1447.36
524.331	1431.66
524.537	1547.33
524.742	1528.34
524.948	1552.37
525.154	1520.21
525.36	1641.3
525.566	1521.37
525.772	1597.32
525.977	1535.71
526.183	1549.27
526.389	1603.32
526.595	1530.28
526.8	1491.92
527.006	1468.28
527.212	1420.43
527.417	1427.4
527.623	1397.56
527.829	1466.92
528.034	1497.92
528.24	1504.32
528.446	1514.97
528.651	1608.17
528.857	1576.97
529.062	1681.6
529.268	1608.94
529.473	1645.17
529.679	1641.49
529.884	1713.37
530.09	1675.59
530.295	1694.97
530.501	1707.17
530.706	1679.85
530.912	1637.42
531.117	1683.73
531.323	1700.39
531.528	1725
531.733	1722.28
531.939	1730.42
532.144	1741.66
532.35	1727.51
532.555	1778.66
532.76	1738.56
532.966	1742.63
533.171	1700.2
533.376	1659.9
533.581	1620.57
533.787	1691.87
533.992	1748.44
534.197	1773.43
534.402	1714.53
534.607	1710.27
534.813	1863.53
535.018	1746.5
535.223	1710.85
535.428	1796.3
535.633	1789.32
535.838	1821.68
536.043	1817.03
536.249	1892.39
536.454	1811.79
536.659	1845.7
536.864	1772.66
537.069	1759.48
537.274	1770.14
537.479	1793.78
537.684	1772.66
537.889	1760.84
538.094	1878.64
538.299	1804.43
538.504	1800.17
538.708	1830.39
538.913	1866.43
539.118	1809.47
539.323	1878.83
539.528	1809.08
539.733	1783.51
539.938	1820.71
540.142	1830.78
540.347	1805.01
540.552	1742.05
540.757	1758.13
540.962	1801.72
541.166	1734.1
541.371	1742.24
541.576	1750.38
541.781	1693.03
541.985	1800.95
542.19	1748.44
542.395	1854.61
542.599	1894.91
542.804	1855
543.008	1930.76
543.213	1830.39
543.418	1796.1
543.622	1848.03
543.827	1759.68
544.031	1899.17
544.236	1890.26
544.44	1876.7
544.645	1952.65
544.849	1857.91
545.054	1922.81
545.258	1939.67
545.463	1967.57
545.667	1859.07
545.872	1929.01
546.076	1893.56
546.281	1875.15
546.485	1896.27
546.689	1899.17
546.894	1921.26
547.098	1910.22
547.302	1853.45
547.507	1898.98
547.711	1900.14
547.915	1981.71
548.119	1853.64
548.324	1843.18
548.528	1972.41
548.732	1896.85
548.936	1922.81
549.141	1939.47
549.345	1881.93
549.549	1921.65
549.753	1910.22
549.957	2004.19
550.161	2015.62
550.366	1914.09
550.57	1891.81
550.774	1920.29
550.978	1898.21
551.182	1917.19
551.386	1871.28
551.59	1913.12
551.794	1881.74
551.998	1947.81
552.202	1934.44
552.406	1898.79
552.61	1925.14
552.814	1920.1
553.018	1971.25
553.222	1907.89
553.426	1908.67
553.63	2022.79
553.833	1892.01
554.037	1875.15
554.241	1938.89
554.445	1957.11
554.649	1909.83
554.853	1875.15
555.056	1932.11
555.26	1958.85
555.464	1936.37
555.668	1979.97
555.871	1923.39
556.075	1977.64
556.279	1904.02
556.483	1871.86
556.686	1917.77
556.89	1918.55
557.094	1923.78
557.297	1799.2
557.501	1917.77
557.704	1812.57
557.908	1894.72
558.112	1835.63
558.315	1937.54
558.519	1877.28
558.722	1855.58
558.926	1844.15
559.129	1782.35
559.333	1786.61
559.536	1824.97
559.74	1750.96
559.943	1749.6
560.147	1758.71
560.35	1806.37
560.553	1742.05
560.757	1734.88
560.96	1816.64
561.164	1800.95
561.367	1872.24
561.57	1805.79
561.774	1823.23
561.977	1783.7
562.18	1778.66
562.384	1848.22
562.587	1794.16
562.79	1758.32
562.993	1767.04
563.197	1799.01
563.4	1841.05
563.603	1835.24
563.806	1873.6
564.009	1739.72
564.212	1800.36
564.416	1685.08
564.619	1766.26
564.822	1686.83
565.025	1761.42
565.228	1740.88
565.431	1743.98
565.634	1638.78
565.837	1694.38
566.04	1653.5
566.243	1645.95
566.446	1622.7
566.649	1701.17
566.852	1618.05
567.055	1686.44
567.258	1739.33
567.461	1732.75
567.664	1766.46
567.867	1600.22
568.07	1678.69
568.273	1676.17
568.475	1718.02
568.678	1632.97
568.881	1614.95
569.084	1656.41
569.287	1521.37
569.489	1619.02
569.692	1664.16
569.895	1638.2
570.098	1565.35
570.3	1564.38
570.503	1487.07
570.706	1519.62
570.909	1516.72
571.111	1488.43
571.314	1460.53
571.516	1483.59
571.719	1506.45
571.922	1489.98
572.124	1485.91
572.327	1521.76
572.529	1487.46
572.732	1459.37
572.935	1526.79
573.137	1562.05
573.34	1506.64
573.542	1539.97
573.745	1526.41
573.947	1513.42
574.15	1467.51
574.352	1440.19
574.554	1532.8
574.757	1431.66
574.959	1449.29
575.162	1460.92
575.364	1430.69
575.566	1551.4
575.769	1387.88
575.971	1444.84
576.173	1351.06
576.376	1438.44
576.578	1456.27
576.78	1496.37
576.982	1355.71
577.185	1408.03
577.387	1347
577.589	1378.19
577.791	1439.22
577.993	1451.23
578.196	1421.39
578.398	1413.45
578.6	1445.81
578.802	1346.8
579.004	1336.53
579.206	1334.79
579.408	1397.56
579.61	1336.34
579.812	1399.5
580.014	1353.78
580.216	1325.1
580.418	1340.21
580.62	1334.98
580.822	1290.23
581.024	1359.98
581.226	1388.84
581.428	1347.96
581.63	1437.86
581.832	1315.8
582.034	1375.28
582.236	1327.04
582.438	1402.79
582.64	1416.16
582.841	1416.55
583.043	1441.54
583.245	1392.14
583.447	1378.19
583.649	1377.41
583.85	1364.05
584.052	1415.78
584.254	1321.42
584.456	1406.28
584.657	1319.48
584.859	1347.77
585.061	1314.64
585.262	1334.6
585.464	1283.06
585.666	1350.48
585.867	1310.57
586.069	1352.81
586.27	1300.69
586.472	1285.96
586.674	1276.47
586.875	1284.41
587.077	1271.63
587.278	1312.51
587.48	1297.01
587.681	1409.77
587.883	1316
588.084	1232.1
588.285	1283.64
588.487	1268.33
588.688	1287.9
588.89	1214.86
589.091	1182.5
589.292	1224.16
589.494	1157.32
589.695	1148.21
589.896	1109.46
590.098	1110.04
590.299	1170.69
590.5	1117.6
590.702	1121.67
590.903	1168.55
591.104	1215.63
591.305	1197.03
591.507	1235.4
591.708	1210.6
591.909	1210.4
592.11	1297.59
592.311	1213.31
592.512	1199.17
592.714	1153.05
592.915	1169.91
593.116	1148.99
593.317	1169.33
593.518	1160.42
593.719	1164.68
593.92	1234.04
594.121	1233.27
594.322	1219.9
594.523	1195.48
594.724	1157.9
594.925	1200.52
595.126	1194.71
595.327	1182.12
595.528	1211.37
595.729	1204.59
595.929	1184.83
596.13	1197.03
596.331	1193.74
596.532	1222.8
596.733	1256.71
596.934	1226.87
597.135	1236.17
597.335	1216.02
597.536	1128.64
597.737	1161.77
597.938	1153.44
598.138	1180.95
598.339	1177.27
598.54	1204.4
598.74	1179.4
598.941	1191.03
599.142	1246.83
599.342	1209.82
599.543	1155.19
599.744	1182.89
599.944	1185.02
600.145	1167.78
600.345	1191.61
600.546	1262.52
600.746	1210.98
600.947	1257.48
601.147	1171.85
601.348	1225.52
601.548	1136.78
601.749	1156.35
601.949	1111.2
602.15	1135.04
602.35	1160.42
602.551	1176.11
602.751	1111.01
602.951	1137.55
603.152	1080.79
603.352	1179.02
603.552	1125.15
603.753	1183.28
603.953	1186.38
604.153	1162.55
604.354	1176.5
604.554	1152.28
604.754	1164.68
604.954	1116.82
605.155	1169.72
605.355	1105.97
605.555	1186.19
605.755	1205.75
605.955	1148.4
606.155	1188.51
606.356	1162.55
606.556	1176.3
606.756	1168.94
606.956	1084.86
607.156	1175.34
607.356	1124.96
607.556	1121.09
607.756	1154.99
607.956	1198.2
608.156	1136
608.356	1125.35
608.556	1157.7
608.756	1123.22
608.956	1089.31
609.156	1134.45
609.356	1085.44
609.556	1108.3
609.755	1134.07
609.955	1068.77
610.155	1114.89
610.355	1123.99
610.555	1087.37
610.755	1094.93
610.954	1035.45
611.154	1129.03
611.354	1112.75
611.554	1074.78
611.753	1091.06
611.953	1027.51
612.153	1107.72
612.352	1095.12
612.552	1009.29
612.752	980.62
612.951	1034.48
613.151	1038.55
613.351	1016.46
613.55	1069.16
613.75	1071.68
613.949	1052.11
614.149	1045.14
614.348	1052.11
614.548	996.31
614.747	972.68
614.947	1015.3
615.146	961.63
615.346	1042.23
615.545	1053.08
615.745	1039.71
615.944	1062.38
616.144	1047.07
616.343	1040.49
