Data from gum_old_FLMT105791__76__15-44-04-257.txt Node

Date: Mon Mar 20 15:44:04 GMT 2023
User: antho
Spectrometer: FLMT10579
Trigger mode: 0
Integration Time (sec): 1.000000E-1
Scans to average: 10
Electric dark correction enabled: true
Nonlinearity correction enabled: false
Boxcar width: 0
XAxis mode: Wavelengths
Number of Pixels in Spectrum: 3648
>>>>>Begin Spectral Data<<<<<
345.248	-172.32
345.464	-172.32
345.681	-172.32
345.898	-158.76
346.114	-158.57
346.331	-52.39
346.548	33.24
346.764	-13.06
346.981	-3.57
347.197	3.79
347.414	19.29
347.631	-5.12
347.847	55.14
348.064	-0.86
348.28	16.19
348.497	-32.24
348.713	-20.42
348.93	57.27
349.146	38.09
349.363	12.32
349.579	33.63
349.796	10.77
350.012	9.22
350.229	42.74
350.445	37.7
350.661	3.02
350.878	-4.15
351.094	49.91
351.311	58.04
351.527	37.89
351.743	-2.6
351.96	90.01
352.176	62.69
352.392	48.94
352.609	56.11
352.825	-2.99
353.041	16.78
353.257	39.44
353.474	26.27
353.69	40.41
353.906	33.63
354.122	36.73
354.339	76.45
354.555	37.12
354.771	27.24
354.987	90.98
355.203	86.33
355.42	3.6
355.636	20.26
355.852	29.37
356.068	31.89
356.284	-0.86
356.5	89.43
356.716	38.28
356.932	30.73
357.148	58.62
357.364	42.54
357.58	86.33
357.796	82.65
358.012	94.66
358.228	70.06
358.444	-23.14
358.66	78.39
358.876	40.8
359.092	0.5
359.308	38.09
359.524	49.13
359.74	26.27
359.956	-1.44
360.172	45.06
360.388	39.06
360.604	24.53
360.819	99.7
361.035	61.92
361.251	80.71
361.467	23.56
361.683	87.11
361.898	40.99
362.114	57.07
362.33	49.52
362.546	73.35
362.762	39.06
362.977	47.39
363.193	-5.31
363.409	91.56
363.624	40.22
363.84	40.41
364.056	39.64
364.271	69.67
364.487	55.33
364.703	36.92
364.918	13.48
365.134	60.95
365.35	31.89
365.565	131.09
365.781	44.29
365.996	83.04
366.212	126.63
366.427	102.8
366.643	61.92
366.858	63.08
367.074	19.49
367.289	103.38
367.505	178.17
367.72	27.04
367.936	41.57
368.151	131.67
368.367	79.74
368.582	64.82
368.798	65.21
369.013	113.65
369.228	56.88
369.444	97.37
369.659	125.66
369.874	78.58
370.09	131.86
370.305	-1.24
370.52	39.25
370.736	110.94
370.951	47.58
371.166	104.35
371.381	125.85
371.597	77.61
371.812	46.61
372.027	67.54
372.242	50.87
372.458	128.95
372.673	77.81
372.888	41.57
373.103	91.95
373.318	172.94
373.533	87.11
373.749	69.67
373.964	11.16
374.179	124.11
374.394	41.19
374.609	124.89
374.824	31.11
375.039	106.87
375.254	54.17
375.469	134.19
375.684	90.79
375.899	121.4
376.114	71.22
376.329	83.62
376.544	100.47
376.759	118.88
376.974	53.2
377.189	79.36
377.404	92.92
377.619	113.26
377.834	46.81
378.049	40.61
378.264	62.31
378.478	98.34
378.693	82.84
378.908	128.57
379.123	80.13
379.338	139.42
379.553	92.72
379.767	81.68
379.982	97.57
380.197	82.26
380.412	87.11
380.626	84.01
380.841	200.25
381.056	124.69
381.271	155.11
381.485	62.5
381.7	65.41
381.915	130.5
382.129	81.49
382.344	69.47
382.559	67.92
382.773	133.41
382.988	35.57
383.202	61.72
383.417	35.76
383.632	168.29
383.846	78
384.061	83.04
384.275	65.02
384.49	79.55
384.704	107.45
384.919	107.06
385.133	95.44
385.348	128.37
385.562	68.89
385.777	153.17
385.991	93.69
386.206	69.67
386.42	90.01
386.634	148.33
386.849	115.2
387.063	130.5
387.277	80.52
387.492	115.2
387.706	61.14
387.92	57.85
388.135	153.17
388.349	116.17
388.563	121.79
388.778	114.04
388.992	151.43
389.206	135.74
389.42	202
389.635	120.82
389.849	149.69
390.063	158.99
390.277	143.29
390.491	201.61
390.706	177
390.92	140
391.134	136.9
391.348	178.36
391.562	119.27
391.776	151.43
391.99	104.74
392.205	189.21
392.419	124.5
392.633	145.23
392.847	195.41
393.061	112.49
393.275	180.3
393.489	81.1
393.703	106.67
393.917	141.55
394.131	60.56
394.345	128.37
394.559	161.7
394.773	113.65
394.986	155.5
395.2	126.44
395.414	195.99
395.628	144.07
395.842	197.35
396.056	148.72
396.27	151.04
396.484	189.79
396.697	157.44
396.911	192.89
397.125	109.19
397.339	151.82
397.553	154.72
397.766	180.69
397.98	187.47
398.194	196.57
398.408	170.61
398.621	202
398.835	239.2
399.049	218.66
399.262	239.2
399.476	261.28
399.69	239.58
399.903	312.43
400.117	240.94
400.331	255.67
400.544	206.26
400.758	368.23
400.971	269.42
401.185	283.18
401.398	235.13
401.612	294.61
401.826	273.3
402.039	247.53
402.253	244.04
402.466	276.59
402.68	257.8
402.893	298.1
403.106	271.36
403.32	266.52
403.533	287.25
403.747	276.78
403.96	277.95
404.174	307.78
404.387	251.6
404.6	264.38
404.814	338.59
405.027	242.1
405.24	283.76
405.454	247.53
405.667	308.75
405.88	241.72
406.094	288.6
406.307	343.82
406.52	307.98
406.733	253.92
406.947	250.63
407.16	326.19
407.373	317.66
407.586	278.92
407.799	256.05
408.012	316.5
408.226	315.15
408.439	361.26
408.652	254.5
408.865	309.33
409.078	352.73
409.291	331.03
409.504	282.4
409.717	354.86
409.93	341.88
410.143	322.9
410.357	246.95
410.57	256.44
410.783	327.16
410.996	305.65
411.209	300.42
411.421	398.65
411.634	334.33
411.847	307.01
412.06	347.11
412.273	338.78
412.486	361.65
412.699	442.63
412.912	363.39
413.125	377.73
413.338	355.06
413.55	388.38
413.763	333.36
413.976	353.31
414.189	328.9
414.402	365.33
414.615	431.39
414.827	338.59
415.04	397.1
415.253	363.78
415.466	410.08
415.678	413.76
415.891	357.96
416.104	346.34
416.316	398.46
416.529	324.06
416.742	424.81
416.954	425
417.167	404.27
417.38	363.78
417.592	418.41
417.805	340.14
418.017	319.8
418.23	394.39
418.442	361.06
418.655	370.75
418.868	375.79
419.08	407.95
419.293	453.29
419.505	408.14
419.718	411.63
419.93	414.54
420.142	378.5
420.355	421.32
420.567	443.41
420.78	391.29
420.992	361.06
421.205	461.81
421.417	375.79
421.629	395.55
421.842	381.02
422.054	349.83
422.266	446.12
422.479	487.77
422.691	411.44
422.903	405.82
423.115	384.12
423.328	381.21
423.54	396.52
423.752	390.71
423.964	387.99
424.177	404.46
424.389	400.59
424.601	515.09
424.813	417.25
425.025	444.96
425.238	475.37
425.45	391.87
425.662	422.29
425.874	703.22
426.086	445.73
426.298	461.23
426.51	440.11
426.722	412.02
426.934	412.99
427.146	448.64
427.358	397.29
427.57	444.96
427.782	423.45
427.994	395.36
428.206	414.34
428.418	373.66
428.63	481.19
428.842	480.41
429.054	457.16
429.266	472.47
429.478	376.37
429.69	444.38
429.902	359.9
430.114	414.15
430.325	405.63
430.537	390.32
430.749	375.98
430.961	300.61
431.173	338.78
431.384	388.38
431.596	293.25
431.808	375.98
432.02	427.91
432.231	481.19
432.443	542.99
432.655	478.28
432.867	465.88
433.078	503.27
433.29	536.99
433.502	514.12
433.713	544.35
433.925	529.24
434.136	534.27
434.348	444.18
434.56	423.06
434.771	526.52
434.983	418.99
435.194	432.75
435.406	486.22
435.617	550.36
435.829	608.48
436.04	548.81
436.252	570.89
436.463	580.19
436.675	580.97
436.886	573.99
437.098	573.99
437.309	620.88
437.521	554.42
437.732	559.46
437.943	549
438.155	529.62
438.366	475.18
438.578	591.04
438.789	521.29
439	566.44
439.211	489.91
439.423	539.12
439.634	567.4
439.845	548.03
440.057	546.48
440.268	628.24
440.479	551.71
440.69	610.22
440.902	572.83
441.113	555.78
441.324	570.12
441.535	604.6
441.746	649.94
441.957	536.79
442.168	595.5
442.38	636.96
442.591	642
442.802	589.88
443.013	613.32
443.224	670.28
443.435	627.27
443.646	603.64
443.857	609.25
444.068	606.93
444.279	616.81
444.49	718.14
444.701	661.18
444.912	761.93
445.123	704.77
445.334	669.51
445.545	642.58
445.756	628.05
445.967	642.39
446.178	668.93
446.388	646.07
446.599	645.68
446.81	652.07
447.021	619.91
447.232	694.7
447.443	699.35
447.653	665.44
447.864	723.95
448.075	675.32
448.286	705.74
448.496	688.5
448.707	721.43
448.918	655.75
449.129	764.64
449.339	673.58
449.55	730.35
449.761	695.08
449.971	726.08
450.182	711.94
450.393	720.47
450.603	679.78
450.814	785.95
451.024	719.11
451.235	768.71
451.446	799.32
451.656	806.68
451.867	727.63
452.077	714.65
452.288	798.16
452.498	795.83
452.709	728.22
452.919	777.04
453.13	707.48
453.34	759.99
453.55	685.59
453.761	741.2
453.971	705.16
454.182	741.2
454.392	748.95
454.602	792.35
454.813	770.26
455.023	756.31
455.233	678.03
455.444	776.65
455.654	660.98
455.864	738.48
456.075	729.57
456.285	689.47
456.495	766.96
456.705	777.62
456.916	821.6
457.126	826.25
457.336	756.89
457.546	712.91
457.756	742.94
457.967	792.15
458.177	766.19
458.387	778.59
458.597	752.05
458.807	739.26
459.017	732.87
459.227	708.84
459.437	742.55
459.647	830.9
459.857	790.99
460.068	756.31
460.278	846.79
460.488	790.99
460.698	845.43
460.908	757.47
461.117	746.23
461.327	780.14
461.537	821.6
461.747	834.39
461.957	812.5
462.167	927.97
462.377	854.15
462.587	824.31
462.797	863.64
463.007	823.15
463.216	886.89
463.426	900.46
463.636	870.04
463.846	784.6
464.056	787.7
464.265	872.36
464.475	775.49
464.685	804.75
464.895	851.83
465.104	818.89
465.314	855.7
465.524	818.31
465.733	790.8
465.943	886.12
466.153	889.22
466.362	878.76
466.572	855.51
466.782	865.58
466.991	839.04
467.201	918.28
467.41	787.11
467.62	876.63
467.829	874.11
468.039	884.38
468.249	861.51
468.458	877.01
468.668	879.73
468.877	904.91
469.086	973.69
469.296	954.9
469.505	906.08
469.715	962.26
469.924	941.53
470.134	928.74
470.343	952.77
470.552	888.44
470.762	866.16
470.971	871.59
471.18	904.91
471.39	906.46
471.599	893.87
471.808	952.96
472.018	950.83
472.227	990.94
472.436	1013.8
472.645	960.32
472.855	920.02
473.064	1055.45
473.273	1019.61
473.482	1011.47
473.691	1073.67
473.901	1030.07
474.11	976.6
474.319	1087.62
474.528	1022.13
474.737	1084.9
474.946	1050.42
475.155	1069.21
475.364	1136.05
475.573	1064.37
475.783	1088.39
475.992	1110.28
476.201	1116.68
476.41	1076.57
476.619	1039.95
476.828	1096.53
477.037	1070.37
477.245	1070.95
477.454	1124.62
477.663	1105.44
477.872	1130.82
478.081	1203.67
478.29	1114.16
478.499	1228.08
478.708	1224.6
478.917	1273.42
479.125	1191.85
479.334	1186.81
479.543	1169.96
479.752	1190.3
479.961	1211.81
480.169	1267.61
480.378	1221.3
480.587	1348.79
480.796	1288.14
481.004	1266.25
481.213	1307.71
481.422	1307.13
481.63	1270.71
481.839	1309.46
482.048	1345.69
482.256	1329.8
482.465	1348.79
482.674	1347.04
482.882	1368.94
483.091	1393.16
483.299	1323.02
483.508	1400.52
483.716	1345.69
483.925	1386.76
484.134	1346.27
484.342	1321.47
484.551	1372.04
484.759	1362.54
484.967	1419.12
485.176	1408.46
485.384	1433.07
485.593	1417.57
485.801	1404.39
486.01	1360.22
486.218	1293.76
486.426	1176.74
486.635	1223.63
486.843	1193.79
487.051	1231.38
487.26	1225.56
487.468	1274.58
487.676	1336
487.885	1310.62
488.093	1346.08
488.301	1408.46
488.509	1417.76
488.717	1484.22
488.926	1447.6
489.134	1424.54
489.342	1451.28
489.55	1410.21
489.758	1449.34
489.967	1477.24
490.175	1577.99
490.383	1492.55
490.591	1575.67
490.799	1504.95
491.007	1569.66
491.215	1567.33
491.423	1523.35
491.631	1550.48
491.839	1522.19
492.047	1591.36
492.255	1498.94
492.463	1501.07
492.671	1469.69
492.879	1545.44
493.087	1528.58
493.295	1529.75
493.503	1531.1
493.711	1584.77
493.919	1616.74
494.127	1614.22
494.334	1622.94
494.542	1533.04
494.75	1596.59
494.958	1590.97
495.166	1655.88
495.374	1659.17
495.581	1684.94
495.789	1656.46
495.997	1707.22
496.205	1614.61
496.412	1608.8
496.62	1644.83
496.828	1657.43
497.035	1647.93
497.243	1697.73
497.451	1687.65
497.658	1665.95
497.866	1694.24
498.074	1706.64
498.281	1636.11
498.489	1752.94
498.696	1655.3
498.904	1635.92
499.112	1642.31
499.319	1714.97
499.527	1663.82
499.734	1706.25
499.942	1662.27
500.149	1701.41
500.357	1712.64
500.564	1626.43
500.771	1683.2
500.979	1608.6
501.186	1609.38
501.394	1694.43
501.601	1614.41
501.808	1655.3
502.016	1655.88
502.223	1613.83
502.43	1606.67
502.638	1655.49
502.845	1642.7
503.052	1757.59
503.26	1677
503.467	1777.74
503.674	1726.21
503.881	1753.53
504.089	1789.56
504.296	1733.76
504.503	1643.48
504.71	1720.2
504.917	1635.92
505.125	1735.89
505.332	1748.88
505.539	1758.37
505.746	1824.05
505.953	1810.49
506.16	1786.07
506.367	1856.41
506.574	1843.62
506.781	1869.58
506.988	1819.21
507.195	1834.9
507.402	1822.69
507.609	1842.07
507.816	1788.98
508.023	1782.01
508.23	1753.14
508.437	1761.08
508.644	1786.66
508.851	1814.94
509.058	1818.24
509.265	1780.65
509.472	1879.65
509.679	1922.67
509.885	1850.4
510.092	1858.15
510.299	1835.87
510.506	1834.51
510.713	1818.43
510.92	1818.04
511.126	1837.42
511.333	1911.82
511.54	1844.97
511.746	1921.12
511.953	1902.71
512.16	1944.56
512.367	1912.98
512.573	1898.84
512.78	1911.04
512.987	1856.21
513.193	1854.66
513.4	1772.32
513.606	1823.86
513.813	1902.13
514.02	1832.96
514.226	1899.8
514.433	1909.69
514.639	1827.73
514.846	1851.56
515.052	1810.49
515.259	1876.17
515.465	1879.85
515.672	1886.63
515.878	1961.61
516.085	1905.23
516.291	1944.17
516.497	1890.5
516.704	1848.07
516.91	1808.94
517.117	1701.99
517.323	1669.63
517.529	1704.89
517.736	1664.4
517.942	1675.64
518.148	1747.91
518.354	1793.24
518.561	1782.78
518.767	1766.31
518.973	1811.84
519.179	1817.66
519.386	1818.82
519.592	1803.12
519.798	1829.86
520.004	1946.5
520.21	1905.23
520.417	1969.55
520.623	1998.23
520.829	2005.98
521.035	1992.03
521.241	1950.18
521.447	2018.57
521.653	2124.55
521.859	2005.59
522.065	2047.44
522.271	2125.91
522.477	2058.68
522.683	2099.17
522.889	2087.74
523.095	2027.68
523.301	2010.63
523.507	2013.53
523.713	2021.67
523.919	1958.7
524.125	2087.35
524.331	2079.99
524.537	2170.66
524.742	2166.4
524.948	2184.61
525.154	2190.43
525.36	2268.89
525.566	2169.31
525.772	2234.41
525.977	2129.59
526.183	2161.56
526.389	2220.46
526.595	2135.4
526.8	2117.58
527.006	2029.03
527.212	1963.35
527.417	1931.58
527.623	1953.86
527.829	2048.21
528.034	2100.53
528.24	2082.7
528.446	2065.46
528.651	2233.82
528.857	2163.69
529.062	2287.11
529.268	2240.99
529.473	2289.82
529.679	2325.47
529.884	2372.16
530.09	2321.4
530.295	2305.12
530.501	2303.96
530.706	2286.33
530.912	2273.16
531.117	2262.69
531.323	2332.64
531.528	2370.42
531.733	2391.34
531.939	2377.78
532.144	2351.82
532.35	2366.15
532.555	2419.63
532.76	2323.34
532.966	2315.59
533.171	2297.57
533.376	2246.81
533.581	2190.23
533.787	2268.31
533.992	2259.4
534.197	2328.18
534.402	2295.05
534.607	2312.87
534.813	2442.3
535.018	2303.38
535.223	2355.5
535.428	2359.76
535.633	2389.6
535.838	2394.25
536.043	2416.53
536.249	2531.61
536.454	2414.78
536.659	2452.95
536.864	2402.58
537.069	2409.94
537.274	2476.01
537.479	2371.39
537.684	2400.64
537.889	2357.05
538.094	2504.3
538.299	2420.6
538.504	2412.46
538.708	2468.84
538.913	2513.79
539.118	2457.6
539.323	2469.81
539.528	2396.57
539.733	2445.98
539.938	2434.74
540.142	2493.06
540.347	2383.98
540.552	2394.25
540.757	2324.5
540.962	2414.2
541.166	2266.96
541.371	2334.38
541.576	2355.5
541.781	2285.36
541.985	2443.85
542.19	2402.58
542.395	2470.78
542.599	2519.6
542.804	2448.88
543.008	2500.61
543.213	2444.62
543.418	2377.2
543.622	2508.56
543.827	2426.8
544.031	2503.91
544.236	2523.48
544.44	2496.16
544.645	2549.83
544.849	2468.07
545.054	2515.53
545.258	2603.3
545.463	2593.23
545.667	2488.8
545.872	2519.02
546.076	2502.36
546.281	2513.6
546.485	2483.37
546.689	2535.68
546.894	2553.9
547.098	2508.95
547.302	2437.65
547.507	2510.3
547.711	2576.37
547.915	2580.05
548.119	2466.71
548.324	2479.69
548.528	2586.25
548.732	2527.55
548.936	2554.86
549.141	2546.15
549.345	2528.9
549.549	2595.16
549.753	2583.15
549.957	2614.93
550.161	2635.08
550.366	2563.58
550.57	2550.41
550.774	2556.41
550.978	2545.18
551.182	2582.38
551.386	2548.28
551.59	2559.51
551.794	2492.48
551.998	2584.12
552.202	2526.58
552.406	2480.27
552.61	2558.16
552.814	2582.18
553.018	2583.93
553.222	2513.4
553.426	2557.19
553.63	2597.29
553.833	2543.82
554.037	2442.88
554.241	2569.4
554.445	2563
554.649	2540.53
554.853	2515.15
555.056	2587.99
555.26	2598.26
555.464	2569.4
555.668	2568.62
555.871	2631.98
556.075	2628.49
556.279	2478.53
556.483	2463.61
556.686	2502.55
556.89	2510.5
557.094	2552.15
557.297	2461.28
557.501	2545.37
557.704	2443.85
557.908	2478.33
558.112	2463.22
558.315	2539.17
558.519	2458.77
558.722	2460.7
558.926	2436.48
559.129	2356.85
559.333	2385.92
559.536	2379.14
559.74	2318.1
559.943	2333.99
560.147	2342.13
560.35	2366.15
560.553	2371
560.757	2346.59
560.96	2420.98
561.164	2373.13
561.367	2490.35
561.57	2425.25
561.774	2416.72
561.977	2364.99
562.18	2323.34
562.384	2460.7
562.587	2339.03
562.79	2369.25
562.993	2359.37
563.197	2371
563.4	2434.74
563.603	2421.95
563.806	2474.27
564.009	2380.49
564.212	2380.88
564.416	2279.36
564.619	2380.69
564.822	2288.27
565.025	2425.25
565.228	2329.92
565.431	2331.86
565.634	2250.49
565.837	2281.68
566.04	2266.96
566.243	2267.15
566.446	2128.04
566.649	2291.76
566.852	2207.09
567.055	2254.94
567.258	2293.5
567.461	2314.04
567.664	2341.55
567.867	2224.33
568.07	2259.01
568.273	2292.34
568.475	2323.14
568.678	2243.71
568.881	2241.77
569.084	2216.78
569.287	2108.86
569.489	2165.63
569.692	2210.38
569.895	2226.85
570.098	2143.73
570.3	2157.88
570.503	2114.86
570.706	2132.88
570.909	2122.23
571.111	2066.62
571.314	2033.3
571.516	2085.03
571.719	2055.58
571.922	2060.42
572.124	2036.2
572.327	2072.24
572.529	2034.46
572.732	2076.31
572.935	2102.66
573.137	2171.44
573.34	2072.63
573.542	2122.23
573.745	2135.21
573.947	2138.5
574.15	2099.75
574.352	2064.49
574.554	2148.96
574.757	2086.19
574.959	2057.32
575.162	2039.5
575.364	2017.02
575.566	2155.94
575.769	2018.57
575.971	2049.57
576.173	1954.05
576.376	2032.52
576.578	2048.8
576.78	2076.31
576.982	1956.19
577.185	2010.24
577.387	1970.33
577.589	2000.55
577.791	2039.3
577.993	2034.27
578.196	1995.52
578.398	2001.91
578.6	2026.32
578.802	1926.93
579.004	1921.31
579.206	1968.97
579.408	1986.22
579.61	1950.95
579.812	2019.15
580.014	1901.74
580.216	1952.31
580.418	1931
580.62	1939.52
580.822	1931
581.024	1977.5
581.226	1993.19
581.428	1932.16
581.63	2024.97
581.832	1960.64
582.034	1966.84
582.236	1966.26
582.438	2004.23
582.64	2003.07
582.841	2048.99
583.043	2092.39
583.245	1967.03
583.447	2006.17
583.649	1975.17
583.85	1946.11
584.052	2014.5
584.254	1953.28
584.456	2006.56
584.657	1917.24
584.859	1981.95
585.061	1929.25
585.262	1886.82
585.464	1863.96
585.666	1935.45
585.867	1859.31
586.069	1947.85
586.27	1953.86
586.472	1915.69
586.674	1907.17
586.875	1878.88
587.077	1862.99
587.278	1908.33
587.48	1911.82
587.681	2027.48
587.883	1898.25
588.084	1835.48
588.285	1935.26
588.487	1837.81
588.688	1893.99
588.89	1824.44
589.091	1771.74
589.292	1755.08
589.494	1685.91
589.695	1692.5
589.896	1611.51
590.098	1640.38
590.299	1663.24
590.5	1656.85
590.702	1674.28
590.903	1715.36
591.104	1789.95
591.305	1724.66
591.507	1778.33
591.708	1819.4
591.909	1787.24
592.11	1869.97
592.311	1808.16
592.512	1765.93
592.714	1717.49
592.915	1716.71
593.116	1739.19
593.317	1763.99
593.518	1779.29
593.719	1738.99
593.92	1792.86
594.121	1803.71
594.322	1802.93
594.523	1754.88
594.724	1716.91
594.925	1740.35
595.126	1755.27
595.327	1760.69
595.528	1733.96
595.729	1736.48
595.929	1728.53
596.13	1763.6
596.331	1790.53
596.532	1792.86
596.733	1828.31
596.934	1797.31
597.135	1783.17
597.335	1771.35
597.536	1723.3
597.737	1772.9
597.938	1731.24
598.138	1770.77
598.339	1754.11
598.54	1751.2
598.74	1754.3
598.941	1752.75
599.142	1781.81
599.342	1768.83
599.543	1707.03
599.744	1737.25
599.944	1714.58
600.145	1727.37
600.345	1727.95
600.546	1800.61
600.746	1804.48
600.947	1815.52
601.147	1760.11
601.348	1778.13
601.548	1703.93
601.749	1744.61
601.949	1657.04
602.15	1682.03
602.35	1669.25
602.551	1745.97
602.751	1699.47
602.951	1682.03
603.152	1627.01
603.352	1716.13
603.552	1726.4
603.753	1767.28
603.953	1757.4
604.153	1724.85
604.354	1717.49
604.554	1689.4
604.754	1704.31
604.954	1678.74
605.155	1748.1
605.355	1711.29
605.555	1763.02
605.755	1788.79
605.955	1738.03
606.155	1740.35
606.356	1745.19
606.556	1723.11
606.756	1744.81
606.956	1655.68
607.156	1735.7
607.356	1644.25
607.556	1699.66
607.756	1727.56
607.956	1797.51
608.156	1737.64
608.356	1657.62
608.556	1731.83
608.756	1704.89
608.956	1667.31
609.156	1722.53
609.356	1638.83
609.556	1648.32
609.755	1660.91
609.955	1623.13
610.155	1681.45
610.355	1654.33
610.555	1634.37
610.755	1629.33
610.954	1561.91
611.154	1635.53
611.354	1670.6
611.554	1622.75
611.753	1628.95
611.953	1587.87
612.153	1646.19
612.352	1668.47
612.552	1583.8
612.752	1521.61
612.951	1591.75
613.151	1592.13
613.351	1562.49
613.55	1595.04
613.75	1592.91
613.949	1568.3
614.149	1576.05
614.348	1580.51
614.548	1515.8
