Data from gum_old_FLMT105791__109__15-45-58-253.txt Node

Date: Mon Mar 20 15:45:58 GMT 2023
User: antho
Spectrometer: FLMT10579
Trigger mode: 0
Integration Time (sec): 1.000000E-1
Scans to average: 10
Electric dark correction enabled: true
Nonlinearity correction enabled: false
Boxcar width: 0
XAxis mode: Wavelengths
Number of Pixels in Spectrum: 3648
>>>>>Begin Spectral Data<<<<<
345.248	-166.03
345.464	-166.03
345.681	-166.03
345.898	-163.89
346.114	-188.5
346.331	-49.78
346.548	24.04
346.764	-4.83
346.981	-2.89
347.197	-19.55
347.414	12.03
347.631	-24.78
347.847	44.77
348.064	5.63
348.28	49.81
348.497	-35.83
348.713	1.37
348.93	26.37
349.146	48.45
349.363	-4.83
349.579	28.11
349.796	6.6
350.012	15.32
350.229	54.27
350.445	38.96
350.661	-25.95
350.878	21.13
351.094	51.36
351.311	16.48
351.527	40.12
351.743	7.57
351.96	44.19
352.176	39.54
352.392	36.83
352.609	61.43
352.825	6.99
353.041	12.8
353.257	16.48
353.474	29.27
353.69	39.93
353.906	29.47
354.122	-2.89
354.339	73.64
354.555	16.1
354.771	9.9
354.987	63.95
355.203	83.33
355.42	-2.7
355.636	6.22
355.852	-7.54
356.068	16.29
356.284	-21.1
356.5	69.96
356.716	26.75
356.932	9.32
357.148	75.97
357.364	21.72
357.58	65.31
357.796	76.55
358.012	66.86
358.228	19.39
358.444	-49
358.66	84.1
358.876	14.16
359.092	0.21
359.308	38.77
359.524	54.07
359.74	32.37
359.956	15.13
360.172	25.2
360.388	89.72
360.604	11.25
360.819	99.02
361.035	41.09
361.251	61.82
361.467	10.67
361.683	71.32
361.898	23.27
362.114	49.03
362.33	20.55
362.546	77.52
362.762	29.85
362.977	57.37
363.193	-9.86
363.409	61.63
363.624	4.28
363.84	13.77
364.056	11.06
364.271	45.93
364.487	68.8
364.703	37.8
364.918	10.09
365.134	24.23
365.35	25.01
365.565	133.31
365.781	12.8
365.996	52.33
366.212	111.03
366.427	46.32
366.643	29.85
366.858	14.16
367.074	13.77
367.289	75.38
367.505	148.43
367.72	0.98
367.936	25.2
368.151	89.33
368.367	65.7
368.582	58.72
368.798	9.7
369.013	99.99
369.228	42.83
369.444	57.56
369.659	102.7
369.874	58.72
370.09	97.86
370.305	-32.73
370.52	8.54
370.736	80.61
370.951	59.3
371.166	68.6
371.381	119.17
371.597	75.77
371.812	15.32
372.027	42.64
372.242	51.17
372.458	125.76
372.673	49.23
372.888	34.89
373.103	72.28
373.318	114.33
373.533	68.6
373.749	58.92
373.964	11.83
374.179	86.04
374.394	-0.95
374.609	111.81
374.824	6.02
375.039	107.74
375.254	9.32
375.469	92.24
375.684	70.54
375.899	99.02
376.114	66.28
376.329	65.5
376.544	86.04
376.759	90.69
376.974	13.19
377.189	39.73
377.404	38.18
377.619	97.47
377.834	-1.34
378.049	8.73
378.264	38.57
378.478	74.8
378.693	56.59
378.908	110.26
379.123	60.85
379.338	113.36
379.553	82.55
379.767	71.32
379.982	83.71
380.197	92.63
380.412	76.55
380.626	73.64
380.841	142.03
381.056	97.47
381.271	116.26
381.485	49.03
381.7	39.73
381.915	86.04
382.129	47.68
382.344	82.16
382.559	64.53
382.773	99.02
382.988	16.1
383.202	68.22
383.417	17.45
383.632	141.65
383.846	75
384.061	77.13
384.275	47.68
384.49	81.2
384.704	115.1
384.919	89.33
385.133	55.04
385.348	119.17
385.562	46.13
385.777	103.67
385.991	77.71
386.206	85.46
386.42	59.11
386.634	100.57
386.849	99.21
387.063	66.28
387.277	52.72
387.492	58.53
387.706	31.79
387.92	63.57
388.135	98.44
388.349	89.33
388.563	102.7
388.778	81.97
388.992	63.18
389.206	87.78
389.42	160.63
389.635	89.91
389.849	114.33
390.063	129.05
390.277	122.08
390.491	180.2
390.706	117.23
390.92	134.09
391.134	94.76
391.348	118.4
391.562	58.92
391.776	76.74
391.99	75.58
392.205	142.81
392.419	74.22
392.633	132.73
392.847	151.72
393.061	74.03
393.275	161.02
393.489	91.08
393.703	65.5
393.917	120.53
394.131	37.02
394.345	97.86
394.559	110.06
394.773	66.67
394.986	90.5
395.2	114.91
395.414	126.73
395.628	52.13
395.842	122.08
396.056	89.33
396.27	40.51
396.484	132.54
396.697	121.69
396.911	166.64
397.125	110.45
397.339	126.73
397.553	115.3
397.766	160.83
397.98	145.91
398.194	141.84
398.408	107.55
398.621	159.28
398.835	142.61
399.049	173.61
399.262	225.73
399.476	192.6
399.69	185.82
399.903	238.71
400.117	153.66
400.331	200.16
400.544	120.14
400.758	296.84
400.971	149.78
401.185	223.02
401.398	163.54
401.612	237.16
401.826	201.32
402.039	204.81
402.253	160.44
402.466	254.41
402.68	174.39
402.893	214.69
403.106	198.41
403.32	194.93
403.533	219.14
403.747	203.06
403.96	215.46
404.174	215.27
404.387	154.24
404.6	205
404.814	251.11
405.027	192.79
405.24	172.26
405.454	199.58
405.667	253.24
405.88	132.54
406.094	223.02
406.307	215.08
406.52	209.46
406.733	187.95
406.947	162.18
407.16	257.89
407.373	258.86
407.586	184.27
407.799	153.08
408.012	252.86
408.226	249.95
408.439	243.56
408.652	187.76
408.865	213.33
409.078	278.43
409.291	247.04
409.504	203.06
409.717	226.31
409.93	265.45
410.143	245.88
410.357	159.08
410.57	170.9
410.783	206.94
410.996	237.94
411.209	239.49
411.421	270.49
411.634	260.02
411.847	217.21
412.06	257.51
412.273	238.91
412.486	237.55
412.699	347.99
412.912	246.85
413.125	279.01
413.338	232.71
413.55	276.3
413.763	231.54
413.976	265.26
414.189	258.47
414.402	220.89
414.615	316.99
414.827	218.18
415.04	296.06
415.253	290.06
415.466	296.84
415.678	317.37
415.891	295.09
416.104	269.52
416.316	230.77
416.529	233.29
416.742	310.4
416.954	295.29
417.167	289.86
417.38	237.94
417.592	336.75
417.805	198.61
418.017	225.54
418.23	310.98
418.442	261.96
418.655	252.47
418.868	253.24
419.08	294.9
419.293	305.36
419.505	288.12
419.718	286.96
419.93	338.3
420.142	221.08
420.355	304.01
420.567	336.56
420.78	316.6
420.992	283.27
421.205	348.37
421.417	257.7
421.629	286.37
421.842	269.52
422.054	250.53
422.266	338.88
422.479	341.4
422.691	282.31
422.903	335.2
423.115	266.61
423.328	279.4
423.54	268.74
423.752	247.04
423.964	260.41
424.177	308.66
424.389	280.95
424.601	409.02
424.813	301.29
425.025	333.84
425.238	323.19
425.45	275.14
425.662	284.44
425.874	625.43
426.086	305.17
426.298	312.14
426.51	301.87
426.722	279.01
426.934	291.41
427.146	327.45
427.358	256.34
427.57	329
427.782	300.52
427.994	302.26
428.206	256.15
428.418	263.51
428.63	343.92
428.842	363.29
429.054	323.57
429.266	316.99
429.478	263.32
429.69	316.6
429.902	261.19
430.114	341.01
430.325	322.8
430.537	244.72
430.749	296.84
430.961	204.23
431.173	269.13
431.384	261.96
431.596	176.33
431.808	257.51
432.02	309.24
432.231	340.04
432.443	409.21
432.655	334.42
432.867	312.53
433.078	359.22
433.29	398.75
433.502	394.87
433.713	402.04
433.925	354.96
434.136	404.37
434.348	313.69
434.56	269.91
434.771	416.19
434.983	277.66
435.194	324.35
435.406	344.69
435.617	402.43
435.829	419.87
436.04	399.72
436.252	406.3
436.463	420.64
436.675	391.19
436.886	381.31
437.098	416.96
437.309	453.58
437.521	413.28
437.732	415.22
437.943	390.03
438.155	392.16
438.366	329.77
438.578	452.42
438.789	393.32
439	399.72
439.211	349.92
439.423	396.42
439.634	398.17
439.845	425.49
440.057	410.37
440.268	460.55
440.479	368.14
440.69	411.34
440.902	404.37
441.113	383.44
441.324	411.34
441.535	428.2
441.746	473.53
441.957	381.89
442.168	399.52
442.38	467.33
442.591	460.94
442.802	407.66
443.013	428.97
443.224	448.93
443.435	429.94
443.646	451.06
443.857	418.12
444.068	417.54
444.279	430.33
444.49	512.09
444.701	429.17
444.912	553.55
445.123	526.43
445.334	498.33
445.545	470.63
445.756	489.03
445.967	432.65
446.178	449.9
446.388	471.98
446.599	472.95
446.81	470.63
447.021	446.99
447.232	516.74
447.443	509.38
447.653	458.62
447.864	527.2
448.075	464.23
448.286	521
448.496	488.65
448.707	502.79
448.918	451.83
449.129	553.75
449.339	456.29
449.55	521.78
449.761	468.69
449.971	541.73
450.182	477.22
450.393	537.08
450.603	467.33
450.814	531.27
451.024	545.41
451.235	583.39
451.446	560.72
451.656	566.53
451.867	505.5
452.077	519.06
452.288	562.46
452.498	560.53
452.709	513.45
452.919	564.4
453.13	524.3
453.34	551.42
453.55	471.6
453.761	543.09
453.971	517.51
454.182	543.67
454.392	534.76
454.602	573.9
454.813	564.01
455.023	542.12
455.233	507.83
455.444	521.2
455.654	457.65
455.864	539.8
456.075	519.06
456.285	511.51
456.495	510.93
456.705	552.2
456.916	595.98
457.126	602.76
457.336	580.48
457.546	481.09
457.756	509.57
457.967	600.83
458.177	515.77
458.387	518.1
458.597	533.6
458.807	514.8
459.017	548.32
459.227	546.77
459.437	505.7
459.647	590.36
459.857	556.85
460.068	545.61
460.278	590.75
460.488	563.05
460.698	590.95
460.908	557.04
461.117	509.57
461.327	529.72
461.537	569.44
461.747	586.88
461.957	565.18
462.167	703.71
462.377	621.56
462.587	576.22
462.797	627.37
463.007	577.19
463.216	618.84
463.426	643.64
463.636	647.71
463.846	524.49
464.056	565.37
464.265	600.63
464.475	564.4
464.685	580.29
464.895	614.78
465.104	560.14
465.314	617.88
465.524	554.33
465.733	527.59
465.943	640.35
466.153	663.6
466.362	645.58
466.572	627.76
466.782	590.95
466.991	627.37
467.201	666.51
467.41	534.18
467.62	611.87
467.829	588.81
468.039	634.15
468.249	605.86
468.458	601.02
468.668	668.25
468.877	634.73
469.086	667.48
469.296	692.86
469.505	628.53
469.715	698.47
469.924	678.33
470.134	684.91
470.343	700.41
470.552	622.53
470.762	624.46
470.971	615.74
471.18	651.01
471.39	642.87
471.599	588.81
471.808	686.08
472.018	645.97
472.227	711.65
472.436	709.13
472.645	693.82
472.855	687.43
473.064	763.77
473.273	750.4
473.482	744.01
473.691	736.64
473.901	730.83
474.11	667.48
474.319	825.96
474.528	743.62
474.737	815.3
474.946	749.62
475.155	765.51
475.364	805.04
475.573	751.37
475.783	788.95
475.992	768.03
476.201	784.69
476.41	762.99
476.619	747.69
476.828	763.96
477.037	737.42
477.245	769.19
477.454	834.29
477.663	789.54
477.872	790.31
478.081	875.17
478.29	751.95
478.499	888.15
478.708	838.55
478.917	921.48
479.125	806.97
479.334	833.9
479.543	839.52
479.752	867.62
479.961	854.44
480.169	879.63
480.378	864.13
480.587	990.45
480.796	921.67
481.004	894.16
481.213	930.39
481.422	907.53
481.63	905.01
481.839	940.47
482.048	989.68
482.256	940.85
482.465	955.58
482.674	965.26
482.882	973.21
483.091	1007.89
483.299	925.74
483.508	969.91
483.716	953.64
483.925	969.33
484.134	955.96
484.342	957.13
484.551	999.56
484.759	955.58
484.967	991.03
485.176	977.47
485.384	1014.86
485.593	1024.55
485.801	956.55
486.01	964.88
486.218	905.4
486.426	848.44
486.635	849.21
486.843	851.34
487.051	894.55
487.26	877.5
487.468	913.73
487.676	968.17
487.885	937.56
488.093	989.29
488.301	977.47
488.509	991.23
488.717	1045.28
488.926	1027.85
489.134	1011.18
489.342	1040.63
489.55	959.06
489.758	1018.16
489.967	995.3
490.175	1137.31
490.383	1095.66
490.591	1156.11
490.799	1038.89
491.007	1116.19
491.215	1109.41
491.423	1081.51
491.631	1105.34
491.839	1093.33
492.047	1092.56
492.255	1068.53
492.463	1000.33
492.671	1048.38
492.879	1113.87
493.087	1089.26
493.295	1088.88
493.503	1148.74
493.711	1136.54
493.919	1178.19
494.127	1178
494.334	1154.56
494.542	1103.02
494.75	1164.63
494.958	1110.38
495.166	1208.03
495.374	1199.12
495.581	1175.48
495.789	1170.64
495.997	1227.02
496.205	1158.43
496.412	1155.14
496.62	1155.91
496.828	1166.18
497.035	1173.93
497.243	1229.73
497.451	1219.27
497.658	1204.35
497.866	1178.77
498.074	1271.19
498.281	1156.11
498.489	1274.49
498.696	1207.06
498.904	1152.42
499.112	1142.93
499.319	1256.27
499.527	1162.31
499.734	1239.42
499.942	1154.94
500.149	1192.53
500.357	1205.12
500.564	1135.18
500.771	1165.41
500.979	1180.52
501.186	1157.46
501.394	1178.19
501.601	1162.11
501.808	1200.47
502.016	1177.81
502.223	1178
502.43	1185.75
502.638	1174.71
502.845	1167.92
503.052	1279.72
503.26	1171.8
503.467	1275.65
503.674	1221.79
503.881	1246.39
504.089	1293.86
504.296	1259.95
504.503	1171.41
504.71	1212.29
504.917	1169.09
505.125	1240.19
505.332	1252.59
505.539	1249.3
505.746	1319.05
505.953	1268.87
506.16	1285.72
506.367	1344.82
506.574	1367.68
506.781	1373.1
506.988	1246
507.195	1301.8
507.402	1304.9
507.609	1356.25
507.816	1260.54
508.023	1297.93
508.23	1240.39
508.437	1210.55
508.644	1311.1
508.851	1311.3
509.058	1320.21
509.265	1309.75
509.472	1327.18
509.679	1407.78
509.885	1316.92
510.092	1322.73
510.299	1341.13
510.506	1323.89
510.713	1337.84
510.92	1299.29
511.126	1374.65
511.333	1396.16
511.54	1345.2
511.746	1412.63
511.953	1408.75
512.16	1410.88
512.367	1366.32
512.573	1340.94
512.78	1411.85
512.987	1354.12
513.193	1358.38
513.4	1274.68
513.606	1342.88
513.813	1348.11
514.02	1368.45
514.226	1437.81
514.433	1396.93
514.639	1304.32
514.846	1367.68
515.052	1340.94
515.259	1363.8
515.465	1348.3
515.672	1348.3
515.878	1481.41
516.085	1379.5
516.291	1411.08
516.497	1382.98
516.704	1392.67
516.91	1342.3
517.117	1259.57
517.323	1240
517.529	1244.65
517.736	1274.29
517.942	1248.33
518.148	1298.32
518.354	1348.11
518.561	1336.29
518.767	1337.84
518.973	1375.82
519.179	1387.25
519.386	1376.2
519.592	1348.5
519.798	1352.37
520.004	1498.26
520.21	1428.51
520.417	1471.72
520.623	1508.53
520.829	1531.98
521.035	1530.04
521.241	1548.25
521.447	1554.26
521.653	1622.46
521.859	1535.08
522.065	1564.14
522.271	1653.65
522.477	1612.38
522.683	1647.26
522.889	1598.82
523.095	1604.05
523.301	1592.04
523.507	1527.91
523.713	1574.41
523.919	1533.91
524.125	1668.57
524.331	1644.74
524.537	1732.31
524.742	1720.49
524.948	1704.02
525.154	1716.62
525.36	1793.15
525.566	1729.4
525.772	1758.08
525.977	1691.82
526.183	1723.59
526.389	1780.75
526.595	1734.44
526.8	1693.37
527.006	1640.28
527.212	1572.86
527.417	1541.86
527.623	1575.57
527.829	1617.03
528.034	1675.35
528.24	1668.95
528.446	1686.59
528.651	1789.66
528.857	1756.53
529.062	1831.51
529.268	1785.78
529.473	1809.42
529.679	1823.18
529.884	1885.56
530.09	1886.73
530.295	1855.15
530.501	1886.73
530.706	1838.87
530.912	1846.43
531.117	1866
531.323	1863.28
531.528	1902.61
531.733	1917.14
531.939	1896.22
532.144	1908.23
532.35	1917.14
532.555	1946.01
532.76	1929.16
532.966	1940.59
533.171	1861.35
533.376	1836.93
533.581	1822.98
533.787	1859.02
533.992	1881.3
534.197	1910.36
534.402	1919.66
534.607	1897.96
534.813	2029.32
535.018	1933.81
535.223	1902.61
535.428	1973.53
535.633	1992.51
535.838	1978.76
536.043	1974.11
536.249	2085.71
536.454	1985.34
536.659	2038.62
536.864	1989.22
537.069	1980.89
537.274	2015.96
537.479	1990.19
537.684	2003.75
537.889	1913.27
538.094	2062.65
538.299	1982.63
538.504	1994.45
538.708	2027.39
538.913	2035.52
539.118	2039.21
539.323	2043.86
539.528	1978.95
539.733	1967.52
539.938	2019.06
540.142	2004.52
540.347	1997.94
540.552	1959.19
540.757	1961.13
540.962	1919.86
541.166	1911.53
541.371	1922.96
541.576	1945.24
541.781	1854.95
541.985	2002.2
542.19	2001.62
542.395	2080.28
542.599	2108.95
542.804	2052.57
543.008	2085.9
543.213	1990.38
543.418	1987.09
543.622	2061.1
543.827	1977.01
544.031	2070.59
544.236	2069.43
544.44	2048.89
544.645	2128.72
544.849	2039.01
545.054	2092.87
545.258	2127.55
545.463	2132.01
545.667	2054.32
545.872	2109.15
546.076	2072.72
546.281	2116.7
546.485	2032.42
546.689	2076.99
546.894	2142.09
547.098	2090.55
547.302	2046.37
547.507	2047.92
547.711	2105.85
547.915	2164.75
548.119	2045.79
548.324	2062.65
548.528	2107.99
548.732	2071.95
548.936	2098.69
549.141	2107.79
549.345	2067.69
549.549	2093.65
549.753	2115.15
549.957	2193.82
550.161	2163.79
550.366	2126.2
550.57	2097.33
550.774	2093.45
550.978	2112.05
551.182	2155.07
551.386	2100.24
551.59	2092.29
551.794	2088.03
551.998	2151.19
552.202	2087.84
552.406	2076.6
552.61	2117.67
552.814	2113.02
553.018	2167.66
553.222	2095.97
553.426	2108.57
553.63	2181.22
553.833	2079.89
554.037	2063.62
554.241	2164.37
554.445	2120
554.649	2082.61
554.853	2091.71
555.056	2148.09
555.26	2165.34
555.464	2136.66
555.668	2155.45
555.871	2136.66
556.075	2170.95
556.279	2104.69
556.483	2042.89
556.686	2116.9
556.89	2063.04
557.094	2094.04
557.297	1982.24
557.501	2088.42
557.704	1981.47
557.908	2129.69
558.112	2015.96
558.315	2100.24
558.519	2010.92
558.722	2018.09
558.926	2040.17
559.129	1945.82
559.333	1956.09
559.536	1975.46
559.74	1924.7
559.943	1943.11
560.147	1910.56
560.35	1983.02
560.553	1951.44
560.757	1890.02
560.96	2045.79
561.164	1954.93
561.367	2055.29
561.57	2001.23
561.774	2008.79
561.977	1935.94
562.18	1920.83
562.384	2056.84
562.587	1968.68
562.79	1959.58
562.993	1911.53
563.197	1957.64
563.4	2051.22
563.603	2014.41
563.806	2054.71
564.009	1938.84
564.212	1956.48
564.416	1863.48
564.619	1939.81
564.822	1877.04
565.025	1935.16
565.228	1895.83
565.431	1900.1
565.634	1807.48
565.837	1863.09
566.04	1885.37
566.243	1829.18
566.446	1785.01
566.649	1847.2
566.852	1798.57
567.055	1833.64
567.258	1813.3
567.461	1897
567.664	1887.5
567.867	1771.25
568.07	1857.66
568.273	1839.45
568.475	1861.35
568.678	1783.27
568.881	1792.18
569.084	1779.78
569.287	1656.36
569.489	1718.36
569.692	1776.68
569.895	1763.89
570.098	1706.93
570.3	1709.64
570.503	1645.9
570.706	1672.64
570.909	1658.49
571.111	1654.23
571.314	1603.27
571.516	1668.57
571.719	1667.79
571.922	1637.76
572.124	1649.39
572.327	1673.22
572.529	1618.19
572.732	1587
572.935	1646.48
573.137	1740.83
573.34	1645.51
573.542	1701.5
573.745	1641.83
573.947	1675.54
574.15	1643.57
574.352	1642.61
574.554	1710.8
574.757	1590.87
574.959	1590.29
575.162	1653.45
575.364	1559.49
575.566	1712.35
575.769	1557.16
575.971	1555.23
576.173	1518.03
576.376	1570.72
576.578	1666.63
576.78	1652.49
576.982	1482.96
577.185	1561.04
577.387	1495.94
577.589	1531.01
577.791	1569.56
577.993	1575.37
578.196	1538.37
578.398	1562.39
578.6	1571.69
578.802	1449.44
579.004	1498.26
579.206	1481.21
579.408	1508.34
579.61	1511.83
579.812	1569.95
580.014	1493.61
580.216	1486.83
580.418	1468.04
580.62	1466.3
580.822	1436.26
581.024	1515.12
581.226	1517.64
581.428	1476.76
581.63	1564.33
581.832	1461.06
582.034	1528.49
582.236	1479.66
582.438	1536.63
582.64	1533.14
582.841	1533.33
583.043	1595.72
583.245	1512.79
583.447	1546.89
583.649	1475.98
583.85	1505.24
584.052	1557.94
584.254	1443.24
584.456	1504.08
584.657	1411.27
584.859	1472.69
585.061	1438.78
585.262	1456.22
585.464	1412.82
585.666	1482.18
585.867	1389.96
586.069	1504.46
586.27	1459.51
586.472	1462.42
586.674	1411.66
586.875	1413.79
587.077	1417.66
587.278	1444.98
587.48	1425.61
587.681	1541.47
587.883	1433.94
588.084	1372.72
588.285	1419.02
588.487	1402.36
588.688	1410.88
588.89	1333.97
589.091	1304.32
589.292	1331.25
589.494	1297.74
589.695	1239.8
589.896	1200.86
590.098	1225.85
590.299	1244.45
590.5	1210.55
590.702	1302.39
590.903	1282.43
591.104	1322.53
591.305	1317.3
591.507	1388.8
591.708	1340.55
591.909	1319.43
592.11	1407.4
592.311	1352.76
592.512	1309.36
592.714	1284.37
592.915	1294.64
593.116	1282.24
593.317	1303.55
593.518	1359.93
593.719	1308.58
593.92	1352.37
594.121	1373.3
594.322	1292.7
594.523	1327.18
594.724	1280.1
594.925	1298.32
595.126	1332.22
595.327	1339.39
595.528	1311.49
595.729	1310.13
595.929	1324.08
596.13	1298.12
596.331	1331.45
596.532	1320.79
596.733	1359.35
596.934	1330.48
597.135	1336.87
597.335	1328.15
597.536	1286.3
597.737	1322.92
597.938	1306.26
598.138	1308
598.339	1313.04
598.54	1336.1
598.74	1293.67
598.941	1325.44
599.142	1334.93
599.342	1322.92
599.543	1292.5
599.744	1303.35
599.944	1271.58
600.145	1270.03
600.345	1314.4
600.546	1352.76
600.746	1378.53
600.947	1376.78
601.147	1286.3
601.348	1322.53
601.548	1227.99
601.749	1312.07
601.949	1236.7
602.15	1263.44
602.35	1266.35
602.551	1316.14
602.751	1215.2
602.951	1261.12
603.152	1189.04
603.352	1287.08
603.552	1268.87
603.753	1298.9
603.953	1329.32
604.153	1298.9
604.354	1263.25
604.554	1278.94
604.754	1283.4
604.954	1256.27
605.155	1266.93
605.355	1271.19
605.555	1279.91
605.755	1333
605.955	1255.3
606.155	1329.9
606.356	1277.2
606.556	1281.07
606.756	1252.59
606.956	1247.17
607.156	1341.52
607.356	1219.85
607.556	1277
607.756	1252.01
607.956	1321.18
608.156	1268.29
608.356	1214.23
608.556	1256.66
608.756	1239.03
608.956	1197.96
609.156	1241.74
609.356	1187.11
609.556	1170.06
609.755	1219.46
609.955	1198.34
610.155	1240.77
610.355	1238.64
610.555	1170.83
610.755	1240.97
610.954	1110.19
611.154	1206.67
611.354	1238.84
611.554	1169.28
611.753	1189.62
611.953	1134.79
612.153	1217.33
612.352	1198.15
612.552	1134.99
612.752	1089.26
612.951	1196.6
613.151	1154.36
613.351	1120.07
613.55	1133.44
613.75	1177.03
613.949	1167.73
614.149	1164.05
614.348	1132.08
614.548	1112.13
614.747	1066.79
614.947	1120.46
615.146	1069.89
615.346	1164.44
615.545	1139.25
615.745	1140.41
615.944	1206.29
