Data from gum_old_FLMT105791__101__15-45-50-253.txt Node

Date: Mon Mar 20 15:45:50 GMT 2023
User: antho
Spectrometer: FLMT10579
Trigger mode: 0
Integration Time (sec): 1.000000E-1
Scans to average: 10
Electric dark correction enabled: true
Nonlinearity correction enabled: false
Boxcar width: 0
XAxis mode: Wavelengths
Number of Pixels in Spectrum: 3648
>>>>>Begin Spectral Data<<<<<
345.248	-186.77
345.464	-186.77
345.681	-186.77
345.898	-190.07
346.114	-179.22
346.331	-43.59
346.548	26.74
346.764	-2.32
346.981	-25.19
347.197	-6.39
347.414	13.17
347.631	-32.74
347.847	69.75
348.064	-2.13
348.28	41.46
348.497	-38.94
348.713	0.19
348.93	34.87
349.146	43.98
349.363	-10.07
349.579	10.07
349.796	12.98
350.012	-18.79
350.229	27.71
350.445	20.92
350.661	-18.02
350.878	-0.39
351.094	7.75
351.311	12.79
351.527	36.81
351.743	1.55
351.96	34.87
352.176	51.34
352.392	36.81
352.609	55.41
352.825	14.34
353.041	0
353.257	9.3
353.474	27.32
353.69	38.56
353.906	35.07
354.122	-10.85
354.339	62.97
354.555	9.88
354.771	6.97
354.987	67.42
355.203	51.15
355.42	-25.38
355.636	-9.3
355.852	18.41
356.068	24.41
356.284	-31.19
356.5	85.83
356.716	27.71
356.932	3.49
357.148	41.27
357.364	23.83
357.58	64.32
357.796	69.94
358.012	78.86
358.228	44.17
358.444	-40.3
358.66	73.62
358.876	29.45
359.092	16.08
359.308	46.31
359.524	38.56
359.74	23.64
359.956	-13.56
360.172	21.31
360.388	67.23
360.604	10.85
360.819	110.82
361.035	36.81
361.251	51.73
361.467	-5.04
361.683	51.15
361.898	38.56
362.114	51.34
362.33	26.93
362.546	49.02
362.762	29.64
362.977	25.38
363.193	-17.82
363.409	63.16
363.624	-27.32
363.84	13.56
364.056	-9.69
364.271	52.7
364.487	22.09
364.703	25.96
364.918	4.26
365.134	17.44
365.35	22.28
365.565	116.83
365.781	43.79
365.996	46.5
366.212	103.27
366.427	56.38
366.643	12.59
366.858	9.69
367.074	-4.26
367.289	88.15
367.505	146.28
367.72	-7.56
367.936	33.32
368.151	84.86
368.367	52.12
368.582	31.19
368.798	21.12
369.013	103.46
369.228	46.31
369.444	40.11
369.659	76.53
369.874	80.41
370.09	103.07
370.305	-20.54
370.52	2.91
370.736	79.82
370.951	56.77
371.166	82.54
371.381	94.94
371.597	67.42
371.812	20.15
372.027	21.89
372.242	39.91
372.458	125.94
372.673	31.39
372.888	48.05
373.103	52.51
373.318	141.44
373.533	67.42
373.749	64.71
373.964	-16.86
374.179	66.46
374.394	-13.17
374.609	73.04
374.824	-1.55
375.039	79.44
375.254	7.94
375.469	120.7
375.684	49.6
375.899	79.44
376.114	43.59
376.329	50.37
376.544	64.13
376.759	63.94
376.974	35.46
377.189	21.89
377.404	26.74
377.619	86.22
377.834	-13.56
378.049	12.59
378.264	14.92
378.478	44.95
378.693	18.6
378.908	93.77
379.123	50.96
379.338	86.99
379.553	53.09
379.767	59.48
379.982	71.88
380.197	68.59
380.412	23.06
380.626	50.37
380.841	140.85
381.056	92.03
381.271	108.89
381.485	19.37
381.7	-1.55
381.915	50.18
382.129	30.81
382.344	55.99
382.559	32.16
382.773	71.3
382.988	-22.67
383.202	50.96
383.417	7.75
383.632	166.24
383.846	41.07
384.061	55.02
384.275	49.02
384.49	57.16
384.704	81.57
384.919	78.47
385.133	47.86
385.348	77.11
385.562	27.9
385.777	89.32
385.991	58.32
386.206	36.81
386.42	60.06
386.634	92.61
386.849	101.91
387.063	84.47
387.277	68.2
387.492	37.2
387.706	17.63
387.92	6.2
388.135	105.2
388.349	88.35
388.563	102.69
388.778	72.27
388.992	75.56
389.206	114.31
389.42	140.27
389.635	54.44
389.849	100.55
390.063	108.5
390.277	111.21
390.491	144.73
390.706	91.06
390.92	142.02
391.134	76.34
391.348	123.22
391.562	37.78
391.776	88.54
391.99	85.83
392.205	120.7
392.419	70.52
392.633	71.11
392.847	158.1
393.061	71.3
393.275	158.68
393.489	76.14
393.703	73.04
393.917	105.59
394.131	22.47
394.345	75.17
394.559	106.95
394.773	39.33
394.986	98.81
395.2	111.4
395.414	131.94
395.628	77.5
395.842	81.76
396.056	96.68
396.27	30.81
396.484	110.44
396.697	111.99
396.911	130.78
397.125	114.7
397.339	106.37
397.553	82.92
397.766	176.5
397.98	113.73
398.194	137.56
398.408	117.41
398.621	159.07
398.835	171.27
399.049	146.47
399.262	194.13
399.476	191.03
399.69	158.29
399.903	258.46
400.117	153.64
400.331	168.75
400.544	138.72
400.758	263.69
400.971	168.56
401.185	190.07
401.398	132.91
401.612	235.79
401.826	207.12
402.039	191.81
402.253	158.49
402.466	241.8
402.68	161.78
402.893	197.43
403.106	177.47
403.32	173.02
403.533	205.95
403.747	182.7
403.96	222.81
404.174	215.25
404.387	126.32
404.6	190.84
404.814	226.68
405.027	179.6
405.24	194.72
405.454	181.93
405.667	221.65
405.88	134.07
406.094	206.53
406.307	230.95
406.52	174.18
406.733	151.32
406.947	123.61
407.16	247.61
407.373	237.53
407.586	165.07
407.799	161.78
408.012	224.17
408.226	197.43
408.439	248.38
408.652	167.4
408.865	232.3
409.078	280.16
409.291	257.3
409.504	160.42
409.717	239.08
409.93	248.97
410.143	234.05
410.357	141.82
410.57	130.97
410.783	210.02
410.996	216.8
411.209	223.97
411.421	262.72
411.634	217.97
411.847	191.03
412.06	261.95
412.273	210.99
412.486	225.52
412.699	310.38
412.912	200.33
413.125	273.96
413.338	249.16
413.55	254.78
413.763	238.5
413.976	258.27
414.189	188.32
414.402	231.53
414.615	299.15
414.827	180.77
415.04	300.89
415.253	268.53
415.466	290.04
415.678	317.75
415.891	209.05
416.104	232.3
416.316	248.19
416.529	219.9
416.742	280.74
416.954	283.45
417.167	248.97
417.38	237.34
417.592	291.78
417.805	195.49
418.017	204.4
418.23	275.51
418.442	209.63
418.655	237.53
418.868	265.82
419.08	280.35
419.293	286.36
419.505	273.18
419.718	256.33
419.93	292.75
420.142	278.8
420.355	292.17
420.567	297.6
420.78	287.33
420.992	241.41
421.205	333.05
421.417	215.64
421.629	277.25
421.842	266.01
422.054	243.93
422.266	289.46
422.479	286.16
422.691	231.92
422.903	303.6
423.115	249.93
423.328	239.47
423.54	268.73
423.752	272.8
423.964	224.94
424.177	276.09
424.389	249.74
424.601	384.78
424.813	307.28
425.025	321.23
425.238	295.66
425.45	271.05
425.662	272.21
425.874	592.87
426.086	287.71
426.298	291.4
426.51	307.09
426.722	267.18
426.934	259.23
427.146	319.88
427.358	270.66
427.57	320.46
427.782	266.21
427.994	263.11
428.206	276.48
428.418	240.83
428.63	308.06
428.842	344.68
429.054	280.93
429.266	302.63
429.478	250.71
429.69	277.06
429.902	231.14
430.114	332.08
430.325	302.63
430.537	237.73
430.749	248.58
430.961	175.53
431.173	207.7
431.384	260.98
431.596	139.3
431.808	224.17
432.02	283.84
432.231	314.45
432.443	357.27
432.655	300.7
432.867	311.93
433.078	320.07
433.29	404.35
433.502	332.28
433.713	397.18
433.925	335.76
434.136	403.38
434.348	265.63
434.56	233.66
434.771	404.35
434.983	273.76
435.194	300.11
435.406	336.35
435.617	381.49
435.829	412.68
436.04	376.84
436.252	378.19
436.463	403.77
436.675	386.53
436.886	362.89
437.098	382.07
437.309	438.26
437.521	351.84
437.732	399.31
437.943	386.72
438.155	365.79
438.366	324.14
438.578	399.31
438.789	350.68
439	375.87
439.211	337.9
439.423	398.34
439.634	382.65
439.845	419.27
440.057	393.31
440.268	403.58
440.479	351.84
440.69	375.09
440.902	349.91
441.113	353.98
441.324	361.73
441.535	416.17
441.746	471.77
441.957	354.56
442.168	385.17
442.38	420.82
442.591	434.58
442.802	372.19
443.013	414.81
443.224	421.21
443.435	392.34
443.646	409.97
443.857	422.37
444.068	417.14
444.279	378.97
444.49	467.9
444.701	436.51
444.912	521.76
445.123	488.44
445.334	438.45
445.545	463.44
445.756	384.39
445.967	427.79
446.178	427.21
446.388	449.69
446.599	454.14
446.81	467.12
447.021	428.57
447.232	455.69
447.443	472.74
447.653	408.03
447.864	485.92
448.075	466.74
448.286	516.53
448.496	470.61
448.707	480.3
448.918	426.44
449.129	526.99
449.339	428.76
449.55	506.46
449.761	471
449.971	504.32
450.182	451.43
450.393	490.96
450.603	449.49
450.814	537.84
451.024	520.41
451.235	540.75
451.446	577.17
451.656	521.57
451.867	469.45
452.077	525.44
452.288	571.75
452.498	555.86
452.709	482.82
452.919	512.07
453.13	475.07
453.34	540.36
453.55	459.57
453.761	502.97
453.971	483.01
454.182	498.32
454.392	518.08
454.602	572.14
454.813	522.92
455.023	520.79
455.233	457.24
455.444	509.75
455.654	388.08
455.864	508.01
456.075	482.82
456.285	488.44
456.495	502.77
456.705	489.79
456.916	559.15
457.126	589.96
457.336	511.69
457.546	457.05
457.756	485.92
457.967	551.79
458.177	497.16
458.387	524.47
458.597	462.86
458.807	519.82
459.017	520.6
459.227	482.24
459.437	512.66
459.647	540.75
459.857	560.32
460.068	505.1
460.278	592.87
460.488	524.47
460.698	603.33
460.908	515.56
461.117	464.99
461.327	528.35
461.537	525.83
461.747	535.32
461.957	563.8
462.167	630.84
462.377	591.32
462.587	575.82
462.797	601.39
463.007	536.29
463.216	582.79
463.426	587.44
463.636	601.2
463.846	479.91
464.056	543.27
464.265	615.92
464.475	525.83
464.685	563.42
464.895	584.73
465.104	545.59
465.314	592.48
465.524	540.17
465.733	525.44
465.943	638.2
466.153	627.35
466.362	603.72
466.572	581.24
466.782	567.1
466.991	557.22
467.201	630.26
467.41	490.76
467.62	580.27
467.829	572.52
468.039	601.59
468.249	575.04
468.458	586.67
468.668	601.2
468.877	619.02
469.086	669.59
469.296	653.51
469.505	615.73
469.715	700.4
469.924	620.57
470.134	648.08
470.343	679.08
470.552	593.06
470.762	611.66
470.971	578.72
471.18	636.85
471.39	598.68
471.599	586.47
471.808	647.5
472.018	601.59
472.227	685.48
472.436	682.18
472.645	644.21
472.855	628.13
473.064	700.59
473.273	654.67
473.482	697.1
473.691	706.98
473.901	700.78
474.11	676.18
474.319	785.84
474.528	696.52
474.737	762.59
474.946	695.36
475.155	719.77
475.364	759.3
475.573	714.35
475.783	736.05
475.992	745.15
476.201	775.57
476.41	726.55
476.619	704.85
476.828	738.18
477.037	694.39
477.245	723.26
477.454	756.58
477.663	724.61
477.872	750
478.081	809.67
478.29	717.64
478.499	832.14
478.708	825.17
478.917	849.78
479.125	759.3
479.334	825.17
479.543	806.38
479.752	831.37
479.961	788.55
480.169	832.14
480.378	824.78
480.587	965.64
480.796	844.16
481.004	848.23
481.213	846.87
481.422	867.21
481.63	851.13
481.839	876.9
482.048	947.42
482.256	893.37
482.465	923.59
482.674	937.16
482.882	901.51
483.091	971.64
483.299	913.13
483.508	931.34
483.716	899.96
483.925	931.34
484.134	858.49
484.342	898.02
484.551	937.35
484.759	922.62
484.967	934.06
485.176	960.02
485.384	981.72
485.593	951.69
485.801	958.66
486.01	939.29
486.218	900.15
486.426	785.45
486.635	844.16
486.843	779.06
487.051	824.59
487.26	855.98
487.468	869.73
487.676	945.68
487.885	880.58
488.093	930.96
488.301	945.68
488.509	960.41
488.717	971.64
488.926	955.37
489.134	962.54
489.342	957.89
489.55	963.5
489.758	954.01
489.967	973
490.175	1088.86
490.383	986.17
490.591	1097.38
490.799	977.07
491.007	1076.27
491.215	1037.32
491.423	1053.6
491.631	1024.73
491.839	1059.8
492.047	1053.4
492.255	1017.56
492.463	964.09
492.671	1002.25
492.879	1050.69
493.087	1030.54
493.295	1047.98
493.503	1068.9
493.711	1094.67
493.919	1126.45
494.127	1096.03
494.334	1085.57
494.542	1043.33
494.75	1098.55
494.958	1071.62
495.166	1150.66
495.374	1133.42
495.581	1112.88
495.789	1159.19
495.997	1173.33
496.205	1068.13
496.412	1121.22
496.62	1118.7
496.828	1117.15
497.035	1128.19
497.243	1153.76
497.451	1145.05
497.658	1164.81
497.866	1142.53
498.074	1196
498.281	1102.42
498.489	1250.83
498.696	1128.97
498.904	1108.62
499.112	1124.12
499.319	1207.05
499.527	1140.59
499.734	1190.58
499.942	1111.14
500.149	1109.78
500.357	1163.06
500.564	1101.84
500.771	1143.5
500.979	1101.45
501.186	1097.97
501.394	1160.55
501.601	1143.3
501.808	1148.53
502.016	1134
502.223	1085.37
502.43	1114.63
502.638	1110.56
502.845	1093.7
503.052	1190
503.26	1136.33
503.467	1224.68
503.674	1158.03
503.881	1192.71
504.089	1221.38
504.296	1212.47
504.503	1107.85
504.71	1143.5
504.917	1118.89
505.125	1180.11
505.332	1181.28
505.539	1186.7
505.746	1287.84
505.953	1243.28
506.16	1226.61
506.367	1252.77
506.574	1268.27
506.781	1292.68
506.988	1204.72
507.195	1229.52
507.402	1238.43
507.609	1255.48
507.816	1221.77
508.023	1211.89
508.23	1216.73
508.437	1146.98
508.644	1179.53
508.851	1260.52
509.058	1229.33
509.265	1220.03
509.472	1278.34
509.679	1353.13
509.885	1259.36
510.092	1294.43
510.299	1249.09
510.506	1227.39
510.713	1263.04
510.92	1279.51
511.126	1268.27
511.333	1338.79
511.54	1306.05
511.746	1331.24
511.953	1371.92
512.16	1357.2
512.367	1314.19
512.573	1304.31
512.78	1311.47
512.987	1302.18
513.193	1307.41
513.4	1204.91
513.606	1268.27
513.813	1307.41
514.02	1262.26
514.226	1384.52
514.433	1391.11
514.639	1267.11
514.846	1297.72
515.052	1281.06
515.259	1283.96
515.465	1310.51
515.672	1326.39
515.878	1423.65
516.085	1312.44
516.291	1385.68
516.497	1320.19
516.704	1302.56
516.91	1266.53
517.117	1218.28
517.323	1165.39
517.529	1220.8
517.736	1202.2
517.942	1209.95
518.148	1219.06
518.354	1283.58
518.561	1302.95
518.767	1264.98
518.973	1301.79
519.179	1320.58
519.386	1301.4
519.592	1304.11
519.798	1326.78
520.004	1401.76
520.21	1363.79
520.417	1420.55
520.623	1422.3
520.829	1457.95
521.035	1444.77
521.241	1451.94
521.447	1468.99
521.653	1555.6
521.859	1456.4
522.065	1474.61
522.271	1575.55
522.477	1499.41
522.683	1555.02
522.889	1558.7
523.095	1516.07
523.301	1512.39
523.507	1440.51
523.713	1500.38
523.919	1492.82
524.125	1590.08
524.331	1535.45
524.537	1642.01
524.742	1613.72
524.948	1623.02
525.154	1621.47
525.36	1721.06
525.566	1622.44
525.772	1711.56
525.977	1598.41
526.183	1645.11
526.389	1718.54
526.595	1581.75
526.8	1593.38
527.006	1510.65
527.212	1474.03
527.417	1455.43
527.623	1445.16
527.829	1568.77
528.034	1586.21
528.24	1620.5
528.446	1573.23
528.651	1685.79
528.857	1672.43
529.062	1730.74
529.268	1732.68
529.473	1720.28
529.679	1734.23
529.884	1815.61
530.09	1781.7
530.295	1819.29
530.501	1797.59
530.706	1741.01
530.912	1733.46
531.117	1771.82
531.323	1802.24
531.528	1822.39
531.733	1814.44
531.939	1775.69
532.144	1814.44
532.35	1810.37
532.555	1857.65
532.76	1803.4
532.966	1822.39
533.171	1785.77
533.376	1704.39
533.581	1719.7
533.787	1772.98
533.992	1802.24
534.197	1830.72
534.402	1788.09
534.607	1807.66
534.813	1947.93
535.018	1819.67
535.223	1835.37
535.428	1830.52
535.633	1889.04
535.838	1881.87
536.043	1918.87
536.249	1975.64
536.454	1885.94
536.659	1947.55
536.864	1877.02
537.069	1880.9
537.274	1910.35
537.479	1872.57
537.684	1883.61
537.889	1853.77
538.094	1972.15
538.299	1918.68
538.504	1902.6
538.708	1903.76
538.913	1927.2
539.118	1931.47
539.323	1926.62
539.528	1862.69
539.733	1874.31
539.938	1905.89
540.142	1915.97
540.347	1899.69
540.552	1870.24
540.757	1884.39
540.962	1878.57
541.166	1808.24
541.371	1827.04
541.576	1878.38
541.781	1742.37
541.985	1925.07
542.19	1910.93
542.395	1957.82
542.599	1962.47
542.804	1964.98
543.008	1964.4
543.213	1892.52
543.418	1880.7
543.622	1946.77
543.827	1891.17
544.031	2013.81
544.236	1981.65
544.44	1962.27
544.645	2049.07
544.849	1945.61
545.054	2024.08
545.258	2071.16
545.463	2020.01
545.667	1902.79
545.872	1962.08
546.076	1989.78
546.281	1983.39
546.485	1948.13
546.689	1964.4
546.894	2029.11
547.098	1968.86
547.302	1956.46
547.507	1979.52
547.711	1995.6
547.915	2040.16
548.119	1925.07
548.324	1940.96
548.528	2038.22
548.732	1936.12
548.936	2030.08
549.141	2002.38
549.345	2003.54
549.549	1976.22
549.753	2040.35
549.957	2069.03
550.161	2077.94
550.366	2009.55
550.57	1981.45
550.774	2017.88
550.978	1994.24
551.182	2038.22
551.386	1972.15
551.59	1994.43
551.794	2003.35
551.998	2003.93
552.202	1995.4
552.406	1952.39
552.61	2007.22
552.814	2015.94
553.018	2062.05
553.222	1984.36
553.426	1954.72
553.63	2068.45
553.833	1972.93
554.037	1947.74
554.241	2003.54
554.445	1978.35
554.649	1985.91
554.853	1978.93
555.056	2047.33
555.26	2067.48
555.464	2058.76
555.668	2032.02
555.871	2065.15
556.075	2048.68
556.279	1969.83
556.483	1938.44
556.686	1981.26
556.89	1991.33
557.094	2021.95
557.297	1913.64
557.501	2005.09
557.704	1907.05
557.908	1968.28
558.112	1927.78
558.315	2003.73
558.519	1953.17
558.722	1908.41
558.926	1911.7
559.129	1851.84
559.333	1840.99
559.536	1855.52
559.74	1821.61
559.943	1792.36
560.147	1809.21
560.35	1828.01
560.553	1866.37
560.757	1799.91
560.96	1910.54
561.164	1859
561.367	1961.5
561.57	1894.85
561.774	1884.77
561.977	1879.35
562.18	1851.45
562.384	1956.65
562.587	1853
562.79	1863.46
562.993	1845.44
563.197	1850.09
563.4	1903.37
563.603	1905.7
563.806	1911.7
564.009	1834.98
564.212	1877.22
564.416	1773.17
564.619	1867.34
564.822	1740.24
565.025	1890
565.228	1832.27
565.431	1821.81
565.634	1741.21
565.837	1773.37
566.04	1756.51
566.243	1739.85
566.446	1674.17
566.649	1788.09
566.852	1712.34
567.055	1750.51
567.258	1753.61
567.461	1815.22
567.664	1788.67
567.867	1685.02
568.07	1784.02
568.273	1745.08
568.475	1807.27
568.678	1720.09
568.881	1720.86
569.084	1710.4
569.287	1619.34
569.489	1621.66
569.692	1713.89
569.895	1709.24
570.098	1635.03
570.3	1632.71
570.503	1554.24
570.706	1600.74
570.909	1569.16
571.111	1508.9
571.314	1574.58
571.516	1594.35
571.719	1590.47
571.922	1566.25
572.124	1534.09
572.327	1612.56
572.529	1532.93
572.732	1525.18
572.935	1565.09
573.137	1648.6
573.34	1579.04
573.542	1624.18
573.745	1626.9
573.947	1590.86
574.15	1577.3
574.352	1535.83
574.554	1637.94
574.757	1526.34
574.959	1512.97
575.162	1533.7
575.364	1508.32
575.566	1604.03
575.769	1510.45
575.971	1521.11
576.173	1405.83
576.376	1506.58
576.578	1557.73
576.78	1566.06
576.982	1426.17
577.185	1487.4
577.387	1437.6
577.589	1429.85
577.791	1497.47
577.993	1495.34
578.196	1468.41
578.398	1495.73
578.6	1510.65
578.802	1427.72
579.004	1427.53
579.206	1415.9
579.408	1455.62
579.61	1426.17
579.812	1485.65
580.014	1447.87
580.216	1389.36
580.418	1425.4
580.62	1403.12
580.822	1382
581.024	1459.3
581.226	1454.65
581.428	1436.44
581.63	1521.3
581.832	1401.95
582.034	1474.42
582.236	1431.6
582.438	1458.72
582.64	1472.87
582.841	1493.79
583.043	1508.52
583.245	1487.4
583.447	1451.75
583.649	1433.73
583.85	1406.41
584.052	1475.97
584.254	1386.65
584.456	1454.07
584.657	1352.94
584.859	1440.7
585.061	1396.14
585.262	1377.74
585.464	1369.41
585.666	1442.06
585.867	1360.11
586.069	1449.81
586.27	1388.59
586.472	1397.5
586.674	1378.32
586.875	1348.09
587.077	1332.01
587.278	1372.89
587.48	1379.87
587.681	1465.12
587.883	1391.49
588.084	1307.99
588.285	1335.89
588.487	1335.69
588.688	1362.04
588.89	1275.44
589.091	1270.98
589.292	1296.56
589.494	1221.77
589.695	1226.23
589.896	1134
590.098	1165.97
590.299	1215.57
590.5	1171.78
590.702	1221.96
590.903	1192.71
591.104	1288.42
591.305	1291.13
591.507	1300.63
591.708	1283.58
591.909	1238.63
592.11	1309.34
592.311	1296.75
592.512	1247.34
592.714	1204.72
592.915	1244.44
593.116	1216.35
593.317	1255.29
593.518	1248.31
593.719	1219.64
593.92	1285.32
594.121	1319.42
594.322	1272.92
594.523	1271.56
594.724	1238.82
594.925	1252.77
595.126	1258.97
595.327	1255.29
595.528	1249.09
595.729	1265.17
595.929	1256.26
596.13	1248.12
596.331	1274.86
596.532	1268.27
596.733	1318.84
596.934	1274.08
597.135	1297.53
597.335	1268.08
597.536	1285.9
597.737	1274.86
597.938	1218.48
598.138	1291.91
598.339	1256.26
598.54	1266.72
598.74	1241.92
598.941	1242.31
599.142	1328.52
599.342	1254.51
599.543	1220.22
599.744	1226.42
599.944	1267.49
600.145	1211.11
600.345	1256.64
600.546	1296.94
600.746	1274.66
600.947	1312.64
601.147	1237.27
601.348	1285.51
601.548	1189.61
601.749	1262.26
601.949	1202.4
602.15	1183.8
602.35	1185.15
602.551	1271.37
602.751	1191.74
602.951	1190.77
603.152	1132.84
603.352	1272.73
603.552	1214.02
603.753	1238.82
603.953	1236.69
604.153	1238.04
604.354	1191.16
604.554	1196.58
604.754	1235.53
604.954	1168.88
605.155	1234.36
605.355	1206.66
605.555	1244.44
605.755	1274.28
605.955	1203.56
606.155	1262.84
606.356	1232.23
606.556	1250.25
606.756	1228.55
606.956	1152.6
607.156	1244.24
607.356	1159.38
607.556	1220.61
607.756	1206.85
607.956	1259.55
608.156	1207.05
608.356	1171.98
608.556	1225.06
608.756	1192.13
608.956	1149.31
609.156	1198.52
609.356	1168.3
609.556	1164.81
609.755	1173.33
609.955	1101.84
610.155	1186.7
610.355	1173.14
610.555	1122.18
610.755	1174.5
610.954	1074.91
611.154	1165.58
611.354	1172.17
611.554	1078.01
611.753	1142.33
611.953	1086.92
612.153	1178.76
612.352	1157.83
612.552	1073.55
612.752	1037.13
612.951	1106.49
613.151	1122.57
613.351	1101.26
613.55	1120.63
613.75	1136.52
613.949	1092.93
614.149	1127.03
614.348	1113.27
614.548	1074.13
614.747	1044.3
614.947	1065.61
615.146	993.15
615.346	1108.23
615.545	1117.73
615.745	1104.55
