Data from gum_old_FLMT105791__44__15-43-06-258.txt Node

Date: Mon Mar 20 15:43:06 GMT 2023
User: antho
Spectrometer: FLMT10579
Trigger mode: 0
Integration Time (sec): 1.000000E-1
Scans to average: 10
Electric dark correction enabled: true
Nonlinearity correction enabled: false
Boxcar width: 0
XAxis mode: Wavelengths
Number of Pixels in Spectrum: 3648
>>>>>Begin Spectral Data<<<<<
345.248	-159.68
345.464	-159.68
345.681	-159.68
345.898	-189.32
346.114	-161.81
346.331	-32.58
346.548	30.58
346.764	-9.33
346.981	-3.13
347.197	-22.89
347.414	12.56
347.631	-22.31
347.847	65.84
348.064	24.19
348.28	20.7
348.497	-50.41
348.713	-13.21
348.93	27.09
349.146	27.87
349.363	28.25
349.579	25.93
349.796	18.57
350.012	-3.71
350.229	54.22
350.445	21.67
350.661	6.17
350.878	44.72
351.094	35.81
351.311	30.58
351.527	54.99
351.743	23.02
351.96	53.64
352.176	68.55
352.392	40.27
352.609	66.42
352.825	9.46
353.041	34.26
353.257	20.31
353.474	29.8
353.69	56.93
353.906	26.51
354.122	4.42
354.339	86.96
354.555	46.66
354.771	24.77
354.987	71.85
355.203	101.3
355.42	53.83
355.636	22.44
355.852	36.78
356.068	37.36
356.284	13.92
356.5	89.29
356.716	40.65
356.932	32.32
357.148	80.95
357.364	40.46
357.58	99.55
357.796	102.27
358.012	93.16
358.228	49.57
358.444	1.13
358.66	119.9
358.876	42.98
359.092	10.43
359.308	43.56
359.524	53.05
359.74	30.39
359.956	49.37
360.172	70.3
360.388	98
360.604	50.34
360.819	148.38
361.035	67.97
361.251	90.25
361.467	27.87
361.683	103.82
361.898	96.84
362.114	100.72
362.33	71.27
362.546	95.49
362.762	66.81
362.977	79.21
363.193	31.16
363.409	119.9
363.624	52.09
363.84	38.52
364.056	21.09
364.271	100.52
364.487	83.67
364.703	65.26
364.918	40.65
365.134	82.5
365.35	72.43
365.565	201.08
365.781	79.4
365.996	116.41
366.212	154
366.427	106.53
366.643	67.97
366.858	81.15
367.074	74.56
367.289	140.63
367.505	199.14
367.72	39.49
367.936	86.57
368.151	150.12
368.367	116.41
368.582	109.43
368.798	83.86
369.013	152.06
369.228	103.82
369.444	91.22
369.659	123.19
369.874	107.11
370.09	165.04
370.305	55.57
370.52	107.5
370.736	146.05
370.951	104.98
371.166	138.11
371.381	155.16
371.597	121.45
371.812	79.4
372.027	80.95
372.242	120.09
372.458	158.45
372.673	104.59
372.888	102.27
373.103	145.28
373.318	174.53
373.533	124.93
373.749	116.41
373.964	59.25
374.179	133.07
374.394	49.95
374.609	152.64
374.824	97.23
375.039	137.53
375.254	66.04
375.469	131.91
375.684	91.42
375.899	157.1
376.114	114.67
376.329	144.12
376.544	150.7
376.759	159.62
376.974	96.07
377.189	93.16
377.404	132.3
377.619	147.02
377.834	83.47
378.049	86.77
378.264	130.17
378.478	180.15
378.693	126.68
378.908	179.96
379.123	159.62
379.338	155.55
379.553	135.59
379.767	118.35
379.982	149.93
380.197	151.87
380.412	143.53
380.626	156.71
380.841	215.8
381.056	171.05
381.271	219.29
381.485	122.61
381.7	143.15
381.915	160
382.129	116.22
382.344	122.42
382.559	119.51
382.773	142.95
382.988	83.67
383.202	121.64
383.417	78.82
383.632	186.74
383.846	117.96
384.061	101.1
384.275	99.55
384.49	132.88
384.704	164.27
384.919	157.48
385.133	143.53
385.348	184.03
385.562	111.76
385.777	203.21
385.991	163.49
386.206	134.04
386.42	160.58
386.634	203.98
386.849	196.04
387.063	170.47
387.277	149.54
387.492	154.77
387.706	122.22
387.92	131.33
388.135	196.43
388.349	181.9
388.563	194.49
388.778	174.34
388.992	206.7
389.206	197.98
389.42	255.52
389.635	156.13
389.849	232.85
390.063	238.08
390.277	202.05
390.491	274.51
390.706	231.88
390.92	228.98
391.134	208.25
391.348	254.55
391.562	168.33
391.776	252.61
391.99	241.76
392.205	242.15
392.419	228.59
392.633	195.46
392.847	264.63
393.061	192.36
393.275	249.71
393.489	173.76
393.703	152.06
393.917	187.32
394.131	107.3
394.345	168.92
394.559	211.35
394.773	167.56
394.986	240.99
395.2	224.33
395.414	266.37
395.628	226.65
395.842	269.08
396.056	266.56
396.27	209.99
396.484	254.55
396.697	237.7
396.911	227.43
397.125	181.51
397.339	187.13
397.553	206.7
397.766	244.09
397.98	240.02
398.194	302.99
398.408	264.82
398.621	329.53
398.835	342.51
399.049	343.68
399.262	413.62
399.476	389.01
399.69	383.78
399.903	449.07
400.117	387.66
400.331	422.53
400.544	374.67
400.758	494.02
400.971	419.82
401.185	426.99
401.398	363.05
401.612	439.58
401.826	436.67
402.039	437.45
402.253	420.01
402.466	459.54
402.68	441.71
402.893	452.17
403.106	421.56
403.32	443.46
403.533	450.43
403.747	430.09
403.96	440.36
404.174	467.48
404.387	426.99
404.6	464.57
404.814	492.47
405.027	447.72
405.24	446.94
405.454	417.3
405.667	490.34
405.88	405.09
406.094	441.52
406.307	512.43
406.52	446.56
406.733	417.11
406.947	404.12
407.16	512.04
407.373	499.25
407.586	435.32
407.799	448.49
408.012	498.29
408.226	461.47
408.439	538.39
408.652	458.18
408.865	508.94
409.078	541.1
409.291	529.67
409.504	502.94
409.717	535.49
409.93	541.3
410.143	500.8
410.357	426.79
410.57	412.46
410.783	478.14
410.996	478.33
411.209	498.87
411.421	577.14
411.634	540.13
411.847	537.23
412.06	577.14
412.273	572.3
412.486	557.38
412.699	648.25
412.912	558.73
413.125	590.7
413.338	549.43
413.55	578.88
413.763	556.22
413.976	595.93
414.189	535.87
414.402	557.96
414.615	654.25
414.827	534.71
415.04	643.21
415.253	608.33
415.466	658.71
415.678	652.7
415.891	590.32
416.104	594.77
416.316	588.57
416.529	587.22
416.742	642.63
416.954	661.61
417.167	626.35
417.38	620.73
417.592	651.93
417.805	578.69
418.017	566.29
418.23	637.2
418.442	541.88
418.655	590.7
418.868	588.77
419.08	628.48
419.293	626.93
419.505	627.13
419.718	613.57
419.93	681.18
420.142	610.47
420.355	633.52
420.567	607.17
420.78	642.63
420.992	603.3
421.205	712.38
421.417	607.56
421.629	635.07
421.842	636.43
422.054	650.18
422.266	696.88
422.479	701.14
422.691	625
422.903	656.96
423.115	606.98
423.328	629.45
423.54	635.65
423.752	634.68
423.964	638.56
424.177	671.69
424.389	660.26
424.601	756.55
424.813	650.76
425.025	685.83
425.238	726.71
425.45	634.88
425.662	648.44
425.874	963.28
426.086	666.46
426.298	668.2
426.51	699.98
426.722	693
426.934	676.53
427.146	694.16
427.358	649.21
427.57	719.35
427.782	649.21
427.994	646.7
428.206	644.56
428.418	659.1
428.63	706.37
428.842	758.88
429.054	690.68
429.266	713.35
429.478	634.1
429.69	652.7
429.902	617.44
430.114	686.03
430.325	649.02
430.537	569.97
430.749	554.86
430.961	479.1
431.173	544.01
431.384	564.93
431.596	494.02
431.808	617.44
432.02	687.58
432.231	761.78
432.443	849.16
432.655	779.22
432.867	741.83
433.078	769.14
433.29	849.94
433.502	822.04
433.713	821.46
433.925	799.95
434.136	863.89
434.348	718.96
434.56	711.02
434.771	865.05
434.983	727.68
435.194	764.88
435.406	827.66
435.617	855.94
435.829	904.19
436.04	873.96
436.252	894.3
436.463	907.09
436.675	935.77
436.886	927.82
437.098	952.62
437.309	965.22
437.521	922.2
437.732	905.15
437.943	900.12
438.155	873.19
438.366	851.49
438.578	932.09
438.789	872.8
439	864.47
439.211	824.17
439.423	819.71
439.634	897.02
439.845	901.86
440.057	888.49
440.268	988.66
440.479	931.5
440.69	932.28
440.902	927.82
441.113	921.04
441.324	929.57
441.535	969.48
441.746	1000.48
441.957	948.36
442.168	1009.78
442.38	1019.47
442.591	1038.65
442.802	963.67
443.013	1000.09
443.224	1072.94
443.435	1033.22
443.646	1019.47
443.857	970.64
444.068	985.17
444.279	1012.3
444.49	1110.91
444.701	1036.9
444.912	1177.18
445.123	1106.26
445.334	1055.7
445.545	1077.4
445.756	1065
445.967	1038.65
446.178	1049.3
446.388	1018.11
446.599	1039.23
446.81	1068.1
447.021	1000.67
447.232	1111.11
447.443	1093.28
447.653	1066.93
447.864	1147.34
448.075	1129.9
448.286	1150.63
448.496	1127.38
448.707	1159.16
448.918	1055.89
449.129	1204.11
449.339	1097.35
449.55	1164.78
449.761	1095.22
449.971	1162.06
450.182	1155.86
450.393	1174.85
450.603	1118.86
450.814	1231.81
451.024	1192.48
451.235	1250.8
451.446	1243.44
451.656	1287.81
451.867	1195
452.077	1216.12
452.288	1221.16
452.498	1228.33
452.709	1187.64
452.919	1171.94
453.13	1108.98
453.34	1133.78
453.55	1087.28
453.761	1145.21
453.971	1160.51
454.182	1161.48
454.392	1183.57
454.602	1274.63
454.813	1204.11
455.023	1226.39
455.233	1142.69
455.444	1187.44
455.654	1076.04
455.864	1175.63
456.075	1168.84
456.285	1175.43
456.495	1197.13
456.705	1222.13
456.916	1291.68
457.126	1288.58
457.336	1245.76
457.546	1175.04
457.756	1185.51
457.967	1280.06
458.177	1220.19
458.387	1227.55
458.597	1152.96
458.807	1219.8
459.017	1217.28
459.227	1203.14
459.437	1197.52
459.647	1233.36
459.857	1282.19
460.068	1244.02
460.278	1311.83
460.488	1265.33
460.698	1316.87
460.908	1238.4
461.117	1273.27
461.327	1298.46
461.537	1314.16
461.747	1276.57
461.957	1296.72
462.167	1434.67
462.377	1347.09
462.587	1290.32
462.797	1354.26
463.007	1315.9
463.216	1382.35
463.426	1383.52
463.636	1392.24
463.846	1286.06
464.056	1304.27
464.265	1341.86
464.475	1321.13
464.685	1312.22
464.895	1347.29
465.104	1297.69
465.314	1366.47
465.524	1313.19
465.733	1323.26
465.943	1424.01
466.153	1411.22
466.362	1434.08
466.572	1377.9
466.782	1332.75
466.991	1431.95
467.201	1440.67
467.41	1274.05
467.62	1419.36
467.829	1384.87
468.039	1405.41
468.249	1398.24
468.458	1475.93
468.668	1449.58
468.877	1461.4
469.086	1507.32
469.296	1508.87
469.505	1469.15
469.715	1510.81
469.924	1475.35
470.134	1517.98
470.343	1484.65
470.552	1455.4
470.762	1430.79
470.971	1459.08
471.18	1494.73
471.39	1501.12
471.599	1437.96
471.808	1575.33
472.018	1538.71
472.227	1608.07
472.436	1648.95
472.645	1586.56
472.855	1590.63
473.064	1681.89
473.273	1680.34
473.482	1630.35
473.691	1689.25
473.901	1646.24
474.11	1596.64
474.319	1712.89
474.528	1671.62
474.737	1753.96
474.946	1714.24
475.155	1734.78
475.364	1804.72
475.573	1735.75
475.783	1795.23
475.992	1796
476.201	1799.49
476.41	1798.52
476.619	1755.9
476.828	1758.61
477.037	1735.75
477.245	1742.92
477.454	1826.04
477.663	1839.99
477.872	1843.47
478.081	1926.59
478.29	1888.81
478.499	1979.1
478.708	1952.36
478.917	1990.72
479.125	1897.53
479.334	1891.91
479.543	1956.04
479.752	1974.83
479.961	1951.2
480.169	2025.4
480.378	2020.17
480.587	2152.5
480.796	2080.04
481.004	2022.3
481.213	2094.38
481.422	2093.21
481.63	2090.31
481.839	2131.57
482.048	2227.48
482.256	2136.03
482.465	2213.72
482.674	2195.51
482.882	2160.83
483.091	2249.57
483.299	2164.51
483.508	2236.39
483.716	2241.62
483.925	2220.89
484.134	2171.1
484.342	2220.31
484.551	2216.24
484.759	2239.88
484.967	2317.38
485.176	2263.32
485.384	2298
485.593	2278.44
485.801	2270.1
486.01	2177.49
486.218	2092.83
486.426	1955.07
486.635	1967.28
486.843	1916.71
487.051	2011.26
487.26	2000.21
487.468	2083.72
487.676	2177.69
487.885	2175.94
488.093	2234.84
488.301	2337.33
488.509	2355.16
488.717	2347.8
488.926	2377.05
489.134	2334.43
489.342	2342.37
489.55	2319.51
489.758	2373.37
489.967	2418.9
490.175	2528.37
490.383	2493.11
490.591	2614.97
490.799	2509.96
491.007	2576.61
491.215	2562.08
491.423	2528.37
491.631	2507.64
491.839	2495.24
492.047	2522.75
492.255	2465.21
492.463	2410.18
492.671	2377.83
492.879	2481.29
493.087	2493.88
493.295	2536.51
493.503	2546.19
493.711	2616.33
493.919	2624.66
494.127	2640.35
494.334	2605.09
494.542	2546.58
494.75	2659.15
494.958	2596.37
495.166	2741.3
495.374	2733.35
495.581	2740.33
495.789	2737.23
495.997	2787.22
496.205	2645.2
496.412	2650.82
496.62	2694.22
496.828	2706.23
497.035	2699.64
497.243	2802.91
497.451	2753.89
497.658	2740.91
497.866	2764.74
498.074	2810.47
498.281	2723.09
498.489	2808.92
498.696	2715.72
498.904	2645.97
499.112	2640.35
499.319	2767.84
499.527	2753.89
499.734	2832.55
499.942	2714.75
500.149	2762.8
500.357	2779.47
500.564	2699.06
500.771	2738
500.979	2652.17
501.186	2659.54
501.394	2694.99
501.601	2694.8
501.808	2712.43
502.016	2689.37
502.223	2658.95
502.43	2703.52
502.638	2696.74
502.845	2664.96
503.052	2819.96
503.26	2727.15
503.467	2881.57
503.674	2787.41
503.881	2785.67
504.089	2832.16
504.296	2793.22
504.503	2696.35
504.71	2712.62
504.917	2728.9
505.125	2730.64
505.332	2798.26
505.539	2810.08
505.746	2914.51
505.953	2923.81
506.16	2901.33
506.367	2932.53
506.574	3020.49
506.781	2982.9
506.988	2925.36
507.195	2935.43
507.402	2937.95
507.609	2915.48
507.816	2841.85
508.023	2876.92
508.23	2858.71
508.437	2779.66
508.644	2838.36
508.851	2929.62
509.058	2910.83
509.265	2901.91
509.472	2968.76
509.679	3034.44
509.885	2990.07
510.092	2959.26
510.299	2990.65
510.506	2902.11
510.713	2924
510.92	2927.88
511.126	2966.24
511.333	3006.15
511.54	3007.7
511.746	3008.47
511.953	3041.22
512.16	3110.77
512.367	2992.2
512.573	2987.55
512.78	3029.4
512.987	2980.58
513.193	2944.15
513.4	2872.27
513.606	2950.35
513.813	2956.36
514.02	2925.36
514.226	2998.21
514.433	2951.13
514.639	2901.53
514.846	2921.87
515.052	2903.27
515.259	2935.82
515.465	2962.17
515.672	2981.74
515.878	3045.09
516.085	3043.93
516.291	3047.03
516.497	3000.72
516.704	2956.36
516.91	2836.62
517.117	2775.98
517.323	2679.3
517.529	2633.19
517.736	2627.37
517.942	2628.34
518.148	2724.25
518.354	2774.82
518.561	2799.42
518.767	2742.65
518.973	2808.92
519.179	2816.66
519.386	2807.56
519.592	2850.38
519.798	2864.33
520.004	2978.44
520.21	2979.03
520.417	3052.84
520.623	3109.8
520.829	3105.35
521.035	3094.89
521.241	3101.28
521.447	3103.99
521.653	3274.1
521.859	3076.48
522.065	3169.09
522.271	3232.83
522.477	3208.42
522.683	3261.31
522.889	3173.55
523.095	3172.77
523.301	3156.11
523.507	3093.92
523.713	3175.1
523.919	3125.11
524.125	3255.89
524.331	3247.37
524.537	3350.83
524.742	3339.59
524.948	3358.38
525.154	3369.04
525.36	3469.79
525.566	3318.86
525.772	3391.9
525.977	3376.98
526.183	3316.92
526.389	3412.05
526.595	3258.21
526.8	3277.01
527.006	3106.51
527.212	3055.94
527.417	3050.13
527.623	3014.09
527.829	3128.6
528.034	3189.82
528.24	3203.58
528.446	3268.68
528.651	3372.91
528.857	3422.32
529.062	3434.72
529.268	3443.05
529.473	3499.04
529.679	3476.76
529.884	3599.6
530.09	3547.67
530.295	3500.01
530.501	3493.62
530.706	3480.64
530.912	3488.39
531.117	3513.77
531.323	3544.19
531.528	3610.64
531.733	3603.08
531.939	3555.23
532.144	3594.37
532.35	3569.57
532.555	3560.65
532.76	3531.79
532.966	3492.84
533.171	3417.67
533.376	3427.74
533.581	3365.74
533.787	3383.76
533.992	3553.49
534.197	3495.56
534.402	3535.66
534.607	3522.29
534.813	3589.14
535.018	3535.08
535.223	3569.76
535.428	3589.14
535.633	3629.05
535.838	3686.01
536.043	3690.46
536.249	3766.03
536.454	3646.29
536.659	3775.52
536.864	3692.01
537.069	3605.02
537.274	3619.17
537.479	3624.78
537.684	3603.86
537.889	3521.9
538.094	3677.1
538.299	3614.52
538.504	3641.64
538.708	3629.82
538.913	3726.31
539.118	3661.02
539.323	3693.56
539.528	3604.83
539.733	3612.19
539.938	3623.23
540.142	3579.25
540.347	3559.3
540.552	3486.64
540.757	3521.13
540.962	3540.12
541.166	3455.64
541.371	3450.41
541.576	3495.56
541.781	3492.46
541.985	3619.55
542.19	3536.05
542.395	3688.72
542.599	3710.42
542.804	3650.17
543.008	3687.17
543.213	3593.01
543.418	3544.77
543.622	3657.33
543.827	3595.53
544.031	3662.95
544.236	3696.08
544.44	3702.86
544.645	3749.17
544.849	3670.7
545.054	3702.09
545.258	3792.57
545.463	3731.15
545.667	3646.87
545.872	3749.36
546.076	3729.02
546.281	3729.41
546.485	3658.69
546.689	3683.1
546.894	3744.71
547.098	3679.62
547.302	3621.49
547.507	3710.03
547.711	3718.17
547.915	3773.97
548.119	3654.62
548.324	3659.85
548.528	3702.67
548.732	3648.03
548.936	3703.83
549.141	3730.76
549.345	3680
549.549	3718.17
549.753	3675.93
549.957	3719.72
550.161	3742.78
550.366	3757.5
550.57	3685.04
550.774	3716.62
550.978	3769.32
551.182	3741.61
551.386	3662.95
551.59	3687.17
551.794	3674.38
551.998	3746.65
552.202	3723.4
552.406	3681.55
552.61	3758.08
552.814	3756.73
553.018	3754.21
553.222	3677.48
553.426	3597.85
553.63	3774.94
553.833	3654.82
554.037	3599.21
554.241	3678.84
554.445	3719.91
554.649	3722.24
554.853	3652.88
555.056	3789.66
555.26	3750.14
555.464	3742
555.668	3745.68
555.871	3730.76
556.075	3785.59
556.279	3698.21
556.483	3659.66
556.686	3679.23
556.89	3643.97
557.094	3662.95
557.297	3605.02
557.501	3677.29
557.704	3506.99
557.908	3629.82
558.112	3556.78
558.315	3667.6
558.519	3581.97
558.722	3564.34
558.926	3550.39
559.129	3487.42
559.333	3413.99
559.536	3506.99
559.74	3420.96
559.943	3417.86
560.147	3423.48
560.35	3475.6
560.553	3482.77
560.757	3428.52
560.96	3530.82
561.164	3486.64
561.367	3617.81
561.57	3484.71
561.774	3576.15
561.977	3462.81
562.18	3467.66
562.384	3547.67
562.587	3457
562.79	3485.87
562.993	3470.76
563.197	3493.62
563.4	3511.05
563.603	3558.91
563.806	3570.92
564.009	3480.64
564.212	3478.51
564.416	3428.32
564.619	3419.99
564.822	3356.64
565.025	3492.46
565.228	3417.48
565.431	3453.71
565.634	3331.06
565.837	3370.78
566.04	3335.33
566.243	3294.64
566.446	3210.17
566.649	3339.59
566.852	3287.47
567.055	3309.75
567.258	3307.81
567.461	3400.23
567.664	3380.86
567.867	3287.66
568.07	3332.03
568.273	3367.68
568.475	3410.31
568.678	3313.82
568.881	3298.51
569.084	3254.53
569.287	3156.5
569.489	3193.7
569.692	3284.37
569.895	3260.73
570.098	3190.6
570.3	3205.32
570.503	3135.57
570.706	3150.49
570.909	3130.15
571.111	3071.44
571.314	3053.04
571.516	3085
571.719	3092.37
571.922	3064.47
572.124	3102.25
572.327	3171.03
572.529	3059.43
572.732	3100.89
572.935	3135.19
573.137	3239.62
573.34	3150.69
573.542	3213.27
573.745	3164.44
573.947	3137.51
574.15	3132.67
574.352	3114.07
574.554	3225.67
574.757	3100.12
574.959	3055.56
575.162	3167.73
575.364	3040.44
575.566	3152.24
575.769	3023.59
575.971	3059.62
576.173	2914.51
576.376	3043.74
576.578	3085.2
576.78	3114.07
576.982	2941.24
577.185	3028.62
577.387	2985.23
577.589	3035.79
577.791	3063.5
577.993	3013.9
578.196	3039.67
578.398	3016.81
578.6	3000.53
578.802	2905.59
579.004	2925.55
579.206	2933.49
579.408	2995.11
579.61	2927.49
579.812	3006.34
580.014	2972.83
580.216	2948.61
580.418	2966.24
580.62	2969.34
580.822	2974.96
581.024	2959.84
581.226	3001.31
581.428	2942.21
581.63	3070.67
581.832	2939.89
582.034	2992.39
582.236	2965.66
582.438	3024.56
582.64	3001.31
582.841	3037.15
583.043	3094.89
583.245	3009.06
583.447	2988.71
583.649	3010.22
583.85	3012.16
584.052	2988.13
584.254	2971.47
584.456	3012.35
584.657	2962.75
584.859	2980.58
585.061	2931.17
585.262	2945.51
585.464	2886.41
585.666	2967.4
585.867	2893
586.069	2920.32
586.27	2923.23
586.472	2897.65
586.674	2858.32
586.875	2879.83
587.077	2894.36
587.278	2908.5
587.48	2880.6
587.681	2986.58
587.883	2936.59
588.084	2836.81
588.285	2845.92
588.487	2805.43
588.688	2844.37
588.89	2722.12
589.091	2705.84
589.292	2658.18
589.494	2589.98
589.695	2572.93
589.896	2508.8
590.098	2467.53
590.299	2529.53
590.5	2531.08
590.702	2591.34
590.903	2637.84
591.104	2731.61
591.305	2719.21
591.507	2769
591.708	2731.8
591.909	2726.18
592.11	2769.97
592.311	2755.83
592.512	2700.61
592.714	2664.19
592.915	2677.17
593.116	2656.24
593.317	2710.49
593.518	2718.05
593.719	2682.59
593.92	2758.35
594.121	2766.48
594.322	2696.54
594.523	2739.75
594.724	2641.71
594.925	2660.5
595.126	2698.48
595.327	2706.62
595.528	2704.29
595.729	2686.27
595.929	2696.54
596.13	2679.49
596.331	2729.28
596.532	2703.9
596.733	2770.36
596.934	2770.36
597.135	2756.8
597.335	2725.02
597.536	2724.44
597.737	2719.79
597.938	2727.15
598.138	2728.51
598.339	2710.49
598.54	2741.68
598.74	2688.99
598.941	2663.41
599.142	2746.72
599.342	2697.9
599.543	2668.64
599.744	2704.29
599.944	2654.5
600.145	2671.74
600.345	2646.36
600.546	2736.65
600.746	2715.34
600.947	2748.27
601.147	2628.34
601.348	2717.27
601.548	2631.83
601.749	2646.36
601.949	2607.03
602.15	2614.78
602.35	2615.17
602.551	2651.59
602.751	2597.15
602.951	2615.17
603.152	2553.36
603.352	2672.13
603.552	2656.05
603.753	2680.46
603.953	2695.77
604.153	2669.42
604.354	2641.71
604.554	2684.72
604.754	2672.13
604.954	2640.94
605.155	2682.98
605.355	2637.06
605.555	2685.3
605.755	2695.57
605.955	2665.93
606.155	2675.23
606.356	2623.31
606.556	2674.26
606.756	2658.57
606.956	2582.81
607.156	2718.24
607.356	2577.77
607.556	2655.85
607.756	2656.24
607.956	2663.99
608.156	2633.19
608.356	2593.27
608.556	2631.06
608.756	2602.57
608.956	2594.24
609.156	2598.31
609.356	2535.54
609.556	2527.98
609.755	2593.86
609.955	2543.87
610.155	2548.13
610.355	2549.29
610.555	2516.55
610.755	2515.97
610.954	2462.88
611.154	2509.19
611.354	2571.77
611.554	2511.32
611.753	2533.79
