Data from gum_old_FLMT105791__1__15-42-23-260.txt Node

Date: Mon Mar 20 15:42:23 GMT 2023
User: antho
Spectrometer: FLMT10579
Trigger mode: 0
Integration Time (sec): 1.000000E-1
Scans to average: 10
Electric dark correction enabled: true
Nonlinearity correction enabled: false
Boxcar width: 0
XAxis mode: Wavelengths
Number of Pixels in Spectrum: 3648
>>>>>Begin Spectral Data<<<<<
345.248	-160.25
345.464	-160.25
345.681	-160.25
345.898	-198.22
346.114	-174.19
346.331	-40.32
346.548	4.25
346.764	-5.05
346.981	-11.83
347.197	0.18
347.414	-0.98
347.631	-14.16
347.847	65.47
348.064	1.92
348.28	32.53
348.497	-25.98
348.713	-6.02
348.93	49.39
349.146	15.48
349.363	17.23
349.579	28.08
349.796	10.25
350.012	-11.25
350.229	37.57
350.445	19.75
350.661	1.15
350.878	32.15
351.094	50.75
351.311	45.32
351.527	41.83
351.743	18.97
351.96	49.2
352.176	61.21
352.392	44.74
352.609	32.15
352.825	17.03
353.041	28.27
353.257	22.65
353.474	7.73
353.69	43.38
353.906	33.11
354.122	9.86
354.339	69.54
354.555	38.73
354.771	19.75
354.987	91.43
355.203	76.71
355.42	12.58
355.636	19.16
355.852	20.71
356.068	35.05
356.284	0.57
356.5	97.05
356.716	49.78
356.932	31.18
357.148	57.33
357.364	45.9
357.58	55.98
357.796	80.58
358.012	72.06
358.228	73.8
358.444	-37.02
358.66	85.04
358.876	40.28
359.092	36.02
359.308	55.78
359.524	57.33
359.74	20.52
359.956	22.65
360.172	52.3
360.388	71.67
360.604	22.07
360.819	125.73
361.035	46.29
361.251	55.98
361.467	29.63
361.683	55.2
361.898	79.81
362.114	82.33
362.33	64.5
362.546	95.11
362.762	59.27
362.977	67.21
363.193	47.26
363.409	64.7
363.624	17.42
363.84	25.56
364.056	41.45
364.271	85.81
364.487	70.7
364.703	56.17
364.918	40.09
365.134	17.23
365.35	53.85
365.565	156.14
365.781	79.81
365.996	86.01
366.212	133.09
366.427	92.01
366.643	48.42
366.858	74.19
367.074	46.68
367.289	88.72
367.505	158.86
367.72	54.81
367.936	55.78
368.151	95.89
368.367	108.48
368.582	75.74
368.798	57.14
369.013	117.01
369.228	89.88
369.444	87.75
369.659	141.23
369.874	84.26
370.09	113.71
370.305	17.03
370.52	51.91
370.736	112.55
370.951	53.07
371.166	97.24
371.381	117.98
371.597	126.5
371.812	61.79
372.027	64.5
372.242	84.85
372.458	161.38
372.673	53.65
372.888	89.5
373.103	84.07
373.318	168.93
373.533	100.15
373.749	82.71
373.964	27.11
374.179	124.56
374.394	45.32
374.609	95.69
374.824	25.75
375.039	136.77
375.254	32.53
375.469	114.49
375.684	61.4
375.899	115.65
376.114	62.18
376.329	115.46
376.544	104.61
376.759	82.33
376.974	58.11
377.189	97.44
377.404	74.19
377.619	136.58
377.834	66.25
378.049	60.82
378.264	66.63
378.478	108.48
378.693	107.9
378.908	113.33
379.123	81.75
379.338	132.31
379.553	131.15
379.767	124.56
379.982	125.34
380.197	127.66
380.412	104.99
380.626	120.11
380.841	178.81
381.056	129.79
381.271	177.84
381.485	114.1
381.7	51.33
381.915	118.56
382.129	88.14
382.344	86.01
382.559	94.53
382.773	120.11
382.988	44.93
383.202	122.24
383.417	60.05
383.632	174.36
383.846	64.11
384.061	93.95
384.275	71.09
384.49	98.41
384.704	127.66
384.919	121.46
385.133	108.09
385.348	150.72
385.562	74.58
385.777	159.83
385.991	143.94
386.206	93.56
386.42	92.98
386.634	152.85
386.849	134.64
387.063	139.48
387.277	128.83
387.492	90.27
387.706	59.46
387.92	82.91
388.135	140.45
388.349	122.24
388.563	158.28
388.778	142.58
388.992	154.98
389.206	152.66
389.42	206.71
389.635	133.86
389.849	173.39
390.063	213.88
390.277	176.1
390.491	232.48
390.706	185.59
390.92	222.99
391.134	181.72
391.348	198.96
391.562	119.53
391.776	170.29
391.99	143.55
392.205	227.44
392.419	151.88
392.633	163.12
392.847	216.98
393.061	121.46
393.275	201.09
393.489	123.59
393.703	117.78
393.917	149.17
394.131	98.41
394.345	114.68
394.559	166.61
394.773	139.09
394.986	169.51
395.2	187.14
395.414	207.87
395.628	168.74
395.842	193.15
396.056	215.43
396.27	126.89
396.484	198.38
396.697	169.9
396.911	202.64
397.125	158.47
397.339	158.47
397.553	150.14
397.766	197.99
397.98	206.71
398.194	241.59
398.408	210.01
398.621	237.71
398.835	281.5
399.049	269.87
399.262	285.37
399.476	311.72
399.69	285.18
399.903	362.48
400.117	282.47
400.331	312.5
400.544	267.74
400.758	408.79
400.971	303.2
401.185	309.2
401.398	285.57
401.612	375.47
401.826	314.82
402.039	327.03
402.253	292.93
402.466	345.05
402.68	308.82
402.893	375.66
403.106	350.47
403.32	338.85
403.533	345.82
403.747	350.67
403.96	329.16
404.174	360.93
404.387	293.32
404.6	336.52
404.814	366.17
405.027	345.63
405.24	339.43
405.454	316.76
405.667	388.06
405.88	284.21
406.094	347.76
406.307	398.33
406.52	345.24
406.733	323.74
406.947	275.69
407.16	391.93
407.373	369.46
407.586	334.78
407.799	333.42
408.012	373.14
408.226	369.85
408.439	383.22
408.652	334.97
408.865	407.82
409.078	431.07
409.291	424.87
409.504	368.49
409.717	442.31
409.93	408.02
410.143	364.62
410.357	345.63
410.57	318.89
410.783	362.87
410.996	361.13
411.209	378.95
411.421	453.55
411.634	417.7
411.847	381.67
412.06	431.46
412.273	416.15
412.486	421.77
412.699	516.13
412.912	433.98
413.125	437.47
413.338	408.79
413.55	452.77
413.763	392.52
413.976	444.25
414.189	394.45
414.402	421.77
414.615	505.28
414.827	433.4
415.04	461.49
415.253	472.92
415.466	470.4
415.678	523.3
415.891	447.35
416.104	466.72
416.316	422.93
416.529	426.03
416.742	476.8
416.954	513.61
417.167	494.43
417.38	457.61
417.592	489.2
417.805	424.68
418.017	398.91
418.23	476.99
418.442	406.27
418.655	452.19
418.868	467.69
419.08	470.79
419.293	479.7
419.505	496.36
419.718	487.84
419.93	492.88
420.142	478.15
420.355	497.53
420.567	507.02
420.78	491.33
420.992	488.03
421.205	546.16
421.417	462.46
421.629	502.76
421.842	462.65
422.054	449.09
422.266	545.38
422.479	543.44
422.691	444.05
422.903	491.33
423.115	442.89
423.328	458.78
423.54	480.67
423.752	472.34
423.964	464.78
424.177	548.87
424.389	486.87
424.601	644.97
424.813	497.33
425.025	531.82
425.238	542.48
425.45	504.7
425.662	513.03
425.874	796.48
426.086	493.26
426.298	533.76
426.51	536.66
426.722	533.56
426.934	529.11
427.146	574.64
427.358	488.81
427.57	542.09
427.782	479.7
427.994	506.63
428.206	511.86
428.418	492.3
428.63	545.58
428.842	570.96
429.054	526.98
429.266	546.54
429.478	504.31
429.69	503.53
429.902	439.4
430.114	507.41
430.325	480.48
430.537	420.03
430.749	431.65
430.961	380.89
431.173	403.75
431.384	471.76
431.596	397.36
431.808	472.92
432.02	507.21
432.231	580.06
432.443	648.84
432.655	589.56
432.867	579.87
433.078	577.74
433.29	659.11
433.502	621.14
433.713	656.4
433.925	626.17
434.136	656.21
434.348	524.65
434.56	533.95
434.771	627.53
434.983	535.89
435.194	593.43
435.406	618.04
435.617	665.89
435.829	701.54
436.04	700.57
436.252	660.66
436.463	730.8
436.675	728.09
436.886	731.57
437.098	715.1
437.309	770.71
437.521	695.15
437.732	695.15
437.943	690.89
438.155	683.52
438.366	630.63
438.578	722.85
438.789	661.05
439	649.62
439.211	634.12
439.423	651.56
439.634	674.42
439.845	677.32
440.057	686.24
440.268	730.02
440.479	700.38
440.69	718.59
440.902	707.16
441.113	685.07
441.324	677.52
441.535	756.18
441.746	784.27
441.957	739.52
442.168	746.1
442.38	778.46
442.591	796.87
442.802	761.6
443.013	760.25
443.224	812.95
443.435	780.2
443.646	757.73
443.857	728.67
444.068	768.39
444.279	755.02
444.49	853.63
444.701	825.35
444.912	892
445.123	840.07
445.334	821.08
445.545	828.64
445.756	792.02
445.967	750.37
446.178	818.37
446.388	817.02
446.599	787.57
446.81	811.98
447.021	789.89
447.232	820.5
447.443	853.44
447.653	790.67
447.864	917.57
448.075	836.78
448.286	904.01
448.496	878.05
448.707	890.83
448.918	850.73
449.129	917.96
449.339	832.13
449.55	888.9
449.761	847.63
449.971	876.69
450.182	860.22
450.393	905.36
450.603	868.36
450.814	908.27
451.024	898.2
451.235	974.34
451.446	1007.08
451.656	988.68
451.867	906.91
452.077	912.73
452.288	983.64
452.498	974.14
452.709	906.91
452.919	896.26
453.13	841.43
453.34	895.48
453.55	810.23
453.761	884.44
453.971	870.3
454.182	909.82
454.392	879.21
454.602	991.39
454.813	927.84
455.023	970.85
455.233	864.1
455.444	925.9
455.654	821.08
455.864	895.87
456.075	923.58
456.285	890.06
456.495	880.95
456.705	924.16
456.916	973.18
457.126	1018.32
457.336	943.34
457.546	883.47
457.756	910.98
457.967	993.13
458.177	920.86
458.387	920.48
458.597	907.3
458.807	939.85
459.017	923.77
459.227	909.05
459.437	919.9
459.647	950.51
459.857	980.34
460.068	949.93
460.278	1002.82
460.488	966.59
460.698	1017.74
460.908	950.31
461.117	938.11
461.327	982.28
461.537	971.43
461.747	1017.93
461.957	1012.51
462.167	1083.81
462.377	1036.34
462.587	1003.98
462.797	1074.51
463.007	1022.58
463.216	1074.51
463.426	1106.09
463.636	1053.19
463.846	987.32
464.056	987.71
464.265	1009.6
464.475	955.35
464.685	1026.07
464.895	1066.17
465.104	1009.41
465.314	1055.33
465.524	992.74
465.733	976.47
465.943	1114.42
466.153	1125.66
466.362	1073.54
466.572	1075.86
466.782	1051.45
466.991	1049.32
467.201	1088.65
467.41	965.04
467.62	1065.21
467.829	1064.24
468.039	1070.63
468.249	1044.86
468.458	1108.41
468.668	1077.99
468.877	1113.64
469.086	1130.69
469.296	1155.3
469.505	1114.22
469.715	1198.89
469.924	1106.28
470.134	1171.38
470.343	1144.45
470.552	1115.19
470.762	1121.59
470.971	1110.93
471.18	1120.23
471.39	1126.04
471.599	1091.17
471.808	1191.72
472.018	1116.94
472.227	1211.87
472.436	1260.7
472.645	1195.02
472.855	1218.27
473.064	1285.88
473.273	1286.66
473.482	1242.29
473.691	1296.54
473.901	1307.78
474.11	1226.79
474.319	1342.85
474.528	1267.87
474.737	1386.83
474.946	1289.95
475.155	1313.4
475.364	1364.74
475.573	1346.14
475.783	1350.98
475.992	1354.28
476.201	1380.05
476.41	1339.16
476.619	1313.98
476.828	1331.41
477.037	1307.97
477.245	1336.84
477.454	1408.91
477.663	1358.35
477.872	1408.14
478.081	1462.19
478.29	1408.53
478.499	1517.41
478.708	1500.56
478.917	1573.6
479.125	1442.43
479.334	1450.96
479.543	1470.91
479.752	1489.51
479.961	1515.28
480.169	1565.66
480.378	1556.36
480.587	1654.78
480.796	1597.62
481.004	1523.22
481.213	1599.37
481.422	1554.22
481.63	1592.97
481.839	1648.58
482.048	1666.4
482.256	1620.68
482.465	1660.2
482.674	1663.5
482.882	1675.51
483.091	1733.83
483.299	1660.2
483.508	1708.25
483.716	1687.52
483.925	1719.88
484.134	1674.93
484.342	1689.46
484.551	1683.84
484.759	1677.83
484.967	1777.81
485.176	1756.69
485.384	1727.82
485.593	1754.56
485.801	1726.08
486.01	1687.72
486.218	1600.53
486.426	1480.02
486.635	1495.71
486.843	1465.88
487.051	1552.09
487.26	1522.45
487.468	1596.46
487.676	1655.94
487.885	1631.72
488.093	1712.32
488.301	1758.43
488.509	1749.33
488.717	1815.98
488.926	1775.29
489.134	1797.76
489.342	1775.48
489.55	1708.25
489.758	1805.9
489.967	1827.21
490.175	1926.8
490.383	1863.25
490.591	1955.67
490.799	1876.23
491.007	1960.9
491.215	1919.24
491.423	1882.43
491.631	1903.94
491.839	1903.16
492.047	1920.6
492.255	1807.06
492.463	1811.33
492.671	1803.58
492.879	1899.87
493.087	1854.53
493.295	1915.76
493.503	1976.98
493.711	2006.24
493.919	2024.25
494.127	2031.04
494.334	1996.94
494.542	1931.64
494.75	2001.97
494.958	1988.02
495.166	2104.85
495.374	2063
495.581	2043.05
495.789	2050.41
495.997	2089.16
496.205	2016.31
496.412	2025.8
496.62	2053.7
496.828	2056.22
497.035	2051.19
497.243	2106.98
497.451	2091.68
497.658	2085.48
497.866	2089.74
498.074	2168.21
498.281	2054.87
498.489	2163.56
498.696	2063
498.904	2007.4
499.112	1986.47
499.319	2136.82
499.527	2044.6
499.734	2139.53
499.942	2038.98
500.149	2091.87
500.357	2102.53
500.564	2006.82
500.771	2048.86
500.979	2016.51
501.186	2036.65
501.394	2093.04
501.601	2002.94
501.808	2028.52
502.016	2039.37
502.223	1990.16
502.43	2036.27
502.638	2026.97
502.845	2024.84
503.052	2147.09
503.26	2067.65
503.467	2187.78
503.674	2122.48
503.881	2152.13
504.089	2213.16
504.296	2126.36
504.503	2040.53
504.71	2106.21
504.917	2022.7
505.125	2134.5
505.332	2149.61
505.539	2140.7
505.746	2256.95
505.953	2210.83
506.16	2264.7
506.367	2278.65
506.574	2289.3
506.781	2268.18
506.988	2229.82
507.195	2216.26
507.402	2187.39
507.609	2256.95
507.816	2166.27
508.023	2181.97
508.23	2147.48
508.437	2096.14
508.644	2195.14
508.851	2219.75
509.058	2270.51
509.265	2213.16
509.472	2273.8
509.679	2333.86
509.885	2259.27
510.092	2244.35
510.299	2250.75
510.506	2246.1
510.713	2258.11
510.92	2241.06
511.126	2269.54
511.333	2285.62
511.54	2267.02
511.746	2315.26
511.953	2352.08
512.16	2387.53
512.367	2313.91
512.573	2302.28
512.78	2304.03
512.987	2275.93
513.193	2258.11
513.4	2145.93
513.606	2262.76
513.813	2276.9
514.02	2255.2
514.226	2320.69
514.433	2275.93
514.639	2215.48
514.846	2285.04
515.052	2213.55
515.259	2284.65
515.465	2249.2
515.672	2267.6
515.878	2352.66
516.085	2291.82
516.291	2335.22
516.497	2316.43
516.704	2255.4
516.91	2212.19
517.117	2143.6
517.323	2046.73
517.529	2027.16
517.736	2013.99
517.942	2070.95
518.148	2126.36
518.354	2168.4
518.561	2158.52
518.767	2139.73
518.973	2162.59
519.179	2199.4
519.386	2199.98
519.592	2199.98
519.798	2211.8
520.004	2331.54
520.21	2307.13
520.417	2351.69
520.623	2374.74
520.829	2428.02
521.035	2385.01
521.241	2403.42
521.447	2435.39
521.653	2563.07
521.859	2383.85
522.065	2475.3
522.271	2514.82
522.477	2485.76
522.683	2570.04
522.889	2514.44
523.095	2428.22
523.301	2443.52
523.507	2418.92
523.713	2445.85
523.919	2417.56
524.125	2498.94
524.331	2502.62
524.537	2644.63
524.742	2614.02
524.948	2641.34
525.154	2610.15
525.36	2708.76
525.566	2609.57
525.772	2659.16
525.977	2562.29
526.183	2622.93
526.389	2655.1
526.595	2539.04
526.8	2516.76
527.006	2433.26
527.212	2371.84
527.417	2341.03
527.623	2370.67
527.829	2448.95
528.034	2493.9
528.24	2526.06
528.446	2544.08
528.651	2649.28
528.857	2614.41
529.062	2744.41
529.268	2688.61
529.473	2695.59
529.679	2754.88
529.884	2812.81
530.09	2768.05
530.295	2725.62
530.501	2737.83
530.706	2716.71
530.912	2746.93
531.117	2784.33
531.323	2782.78
531.528	2805.83
531.733	2861.63
531.939	2793.04
532.144	2860.47
532.35	2796.73
532.555	2876.74
532.76	2766.5
532.966	2773.28
533.171	2743.64
533.376	2702.56
533.581	2655.68
533.787	2718.26
533.992	2803.12
534.197	2750.23
534.402	2770.18
534.607	2783.55
534.813	2903.48
535.018	2779.09
535.223	2809.32
535.428	2815.32
535.633	2919.56
535.838	2910.45
536.043	2936.22
536.249	2997.25
536.454	2909.29
536.659	2954.82
536.864	2905.42
537.069	2890.11
537.274	2882.17
537.479	2897.28
537.684	2871.71
537.889	2830.82
538.094	2930.99
538.299	2871.32
538.504	2915.88
538.708	2858.34
538.913	2962.57
539.118	2901.15
539.323	2898.83
539.528	2892.44
539.733	2913.94
539.938	2896.12
540.142	2881.78
540.347	2836.64
540.552	2849.04
540.757	2787.62
540.962	2818.04
541.166	2737.05
541.371	2739.76
541.576	2782.19
541.781	2726.78
541.985	2913.75
542.19	2838.77
542.395	2958.12
542.599	2969.94
542.804	2893.6
543.008	2974.78
543.213	2887.21
543.418	2844.19
543.622	2900.57
543.827	2865.51
544.031	2925.37
544.236	2929.25
544.44	2953.66
544.645	3015.08
544.849	2971.68
545.054	2988.34
545.258	3035.81
545.463	3008.3
545.667	2885.46
545.872	2988.73
546.076	2998.8
546.281	2969.35
546.485	2936.22
546.689	2954.82
546.894	3010.23
547.098	2963.35
547.302	2946.1
547.507	2972.26
547.711	2972.07
547.915	3000.74
548.119	2894.18
548.324	2884.69
548.528	2976.33
548.732	2915.3
548.936	2962.77
549.141	3020.89
549.345	2952.69
549.549	2967.8
549.753	2926.73
549.957	3082.5
550.161	3053.44
550.366	2995.7
550.57	2963.15
550.774	2987.18
550.978	2980.2
551.182	3005.39
551.386	2924.02
551.59	2948.62
551.794	2944.17
551.998	3019.15
552.202	2938.74
552.406	2952.5
552.61	2995.32
552.814	3025.54
553.018	3062.93
553.222	2948.43
553.426	2967.8
553.63	3014.5
553.833	2966.64
554.037	2903.29
554.241	2968.39
554.445	3003.26
554.649	2976.52
554.853	2954.05
555.056	3004.81
555.26	3073.4
555.464	2984.27
555.668	2998.61
555.871	3003.65
556.075	3056.15
556.279	2980.4
556.483	2947.65
556.686	2930.6
556.89	2986.02
557.094	2938.35
557.297	2873.06
557.501	2949.01
557.704	2865.31
557.908	2934.29
558.112	2868.02
558.315	2983.11
558.519	2919.75
558.722	2887.4
558.926	2855.43
559.129	2750.61
559.333	2775.03
559.536	2764.56
559.74	2751.78
559.943	2741.7
560.147	2749.06
560.35	2761.46
560.553	2769.02
560.757	2725.81
560.96	2817.07
561.164	2794.4
561.367	2886.82
561.57	2838.96
561.774	2837.99
561.977	2813.97
562.18	2785.68
562.384	2858.34
562.587	2761.08
562.79	2773.86
562.993	2760.11
563.197	2783.16
563.4	2851.56
563.603	2770.57
563.806	2856.01
564.009	2786.07
564.212	2768.83
564.416	2690.94
564.619	2768.83
564.822	2694.81
565.025	2801.57
565.228	2716.9
565.431	2774.06
565.634	2649.28
565.837	2699.27
566.04	2668.27
566.243	2643.08
566.446	2549.89
566.649	2612.86
566.852	2610.53
567.055	2637.66
567.258	2645.41
567.461	2701.98
567.664	2709.15
567.867	2593.87
568.07	2625.07
568.273	2654.9
568.475	2664.98
568.678	2593.48
568.881	2602.59
569.084	2607.82
569.287	2497.58
569.489	2533.81
569.692	2557.25
569.895	2581.08
570.098	2525.09
570.3	2532.65
570.503	2465.8
570.706	2460.77
570.909	2459.41
571.111	2404.58
571.314	2381.72
571.516	2418.34
571.719	2458.44
571.922	2380.56
572.124	2413.69
572.327	2441.39
572.529	2414.07
572.732	2455.34
572.935	2482.27
573.137	2553.96
573.34	2429.38
573.542	2490.02
573.745	2512.11
573.947	2484.6
574.15	2452.05
574.352	2453.21
574.554	2487.7
574.757	2425.7
574.959	2409.81
575.162	2418.92
575.364	2387.53
575.566	2528.19
575.769	2396.06
575.971	2392.96
576.173	2288.33
576.376	2354.98
576.578	2411.56
576.78	2413.49
576.982	2307.9
577.185	2374.94
577.387	2314.1
577.589	2332.89
577.791	2403.03
577.993	2413.88
578.196	2364.67
578.398	2356.73
578.6	2370.48
578.802	2251.13
579.004	2270.9
579.206	2283.68
579.408	2356.14
579.61	2288.91
579.812	2377.26
580.014	2290.08
580.216	2261.98
580.418	2318.94
580.62	2313.91
580.822	2270.9
581.024	2338.71
581.226	2337.16
581.428	2294.34
581.63	2379.97
581.832	2292.79
582.034	2376.49
582.236	2337.74
582.438	2328.83
582.64	2392.57
582.841	2402.06
583.043	2425.51
583.245	2350.72
583.447	2366.8
583.649	2319.72
583.85	2323.98
584.052	2440.04
584.254	2290.46
584.456	2373.39
584.657	2261.79
584.859	2293.18
585.061	2280.39
585.262	2268.96
585.464	2241.45
585.666	2312.36
585.867	2246.68
586.069	2297.05
586.27	2259.08
586.472	2234.08
586.674	2199.98
586.875	2207.35
587.077	2190.1
587.278	2234.47
587.48	2228.08
587.681	2355.76
587.883	2261.98
588.084	2179.06
588.285	2228.66
588.487	2196.88
588.688	2169.18
588.89	2087.42
589.091	2063.2
589.292	2093.81
589.494	1996.16
589.695	1973.11
589.896	1920.41
590.098	1927.77
590.299	1963.42
590.5	1948.31
590.702	1964.97
590.903	2018.05
591.104	2080.83
591.305	2115.7
591.507	2126.55
591.708	2128.3
591.909	2095.17
592.11	2145.15
592.311	2124.03
592.512	2060.68
592.714	2022.51
592.915	2058.55
593.116	2076.57
593.317	2106.79
593.518	2096.52
593.719	2085.09
593.92	2125.78
594.121	2145.54
594.322	2108.73
594.523	2089.74
594.724	2041.5
594.925	2069.4
595.126	2045.76
595.327	2082.19
595.528	2070.56
595.729	2044.6
595.929	2045.76
596.13	2068.04
596.331	2096.91
596.532	2099.24
596.733	2124.81
596.934	2129.46
597.135	2126.94
597.335	2143.8
597.536	2094.59
597.737	2096.72
597.938	2066.3
598.138	2099.62
598.339	2087.22
598.54	2086.64
598.74	2062.04
598.941	2038.79
599.142	2143.6
599.342	2080.05
599.543	2065.33
599.744	2064.36
599.944	2053.51
600.145	2051.96
600.345	2064.75
600.546	2086.25
600.746	2137.6
600.947	2180.61
601.147	2054.87
601.348	2110.86
601.548	2027.35
601.749	2062.42
601.949	2005.07
602.15	2032.59
602.35	1991.9
602.551	2041.5
602.751	1936.29
602.951	2008.76
603.152	1946.17
603.352	2064.36
603.552	1986.86
603.753	2063
603.953	2069.59
604.153	2092.45
604.354	2027.35
604.554	2052.54
604.754	2113.18
604.954	2002.56
605.155	2068.24
605.355	2017.09
605.555	2089.16
605.755	2127.91
605.955	2043.63
606.155	2061.84
606.356	2033.36
606.556	2042.47
606.756	2056.61
606.956	2002.75
607.156	2132.75
607.356	2005.66
607.556	2027.16
607.756	2011.47
607.956	2085.09
608.156	2043.24
608.356	1992.09
608.556	2050.22
608.756	2017.86
608.956	1990.35
609.156	2026.97
609.356	1997.71
609.556	1943.66
609.755	1963.22
609.955	1949.86
610.155	1969.04
610.355	1973.11
610.555	1919.24
610.755	1937.65
610.954	1897.35
611.154	1967.29
611.354	1974.46
611.554	1934.16
611.753	1944.04
611.953	1880.3
612.153	1925.64
612.352	1964.77
612.552	1857.63
612.752	1872.55
612.951	1944.62
613.151	1901.81
