Data from gum_old_FLMT105791__97__15-44-25-256.txt Node

Date: Mon Mar 20 15:44:25 GMT 2023
User: antho
Spectrometer: FLMT10579
Trigger mode: 0
Integration Time (sec): 1.000000E-1
Scans to average: 10
Electric dark correction enabled: true
Nonlinearity correction enabled: false
Boxcar width: 0
XAxis mode: Wavelengths
Number of Pixels in Spectrum: 3648
>>>>>Begin Spectral Data<<<<<
345.248	-172.13
345.464	-172.13
345.681	-172.13
345.898	-165.35
346.114	-174.84
346.331	-53.94
346.548	41.57
346.764	19.68
346.981	0.89
347.197	2.24
347.414	20.65
347.631	-14.22
347.847	58.24
348.064	-4.73
348.28	14.45
348.497	-52.78
348.713	-32.05
348.93	46.22
349.146	27.43
349.363	30.34
349.579	40.22
349.796	31.31
350.012	11.54
350.229	54.17
350.445	18.13
350.661	5.34
350.878	3.6
351.094	35.76
351.311	48.94
351.527	26.46
351.743	9.61
351.96	52.23
352.176	74.32
352.392	56.69
352.609	64.24
352.825	-10.54
353.041	23.36
353.257	34.02
353.474	29.76
353.69	57.85
353.906	35.76
354.122	13.68
354.339	87.49
354.555	27.24
354.771	27.43
354.987	83.42
355.203	80.32
355.42	29.56
355.636	21.62
355.852	1.86
356.068	53.39
356.284	-10.35
356.5	92.92
356.716	36.73
356.932	21.23
357.148	46.42
357.364	24.91
357.58	100.47
357.796	64.44
358.012	62.89
358.228	57.85
358.444	-15.39
358.66	75.48
358.876	44.48
359.092	-3.57
359.308	51.26
359.524	70.06
359.74	6.89
359.956	4.38
360.172	39.44
360.388	84.78
360.604	20.46
360.819	138.64
361.035	57.66
361.251	82.65
361.467	2.44
361.683	77.42
361.898	8.25
362.114	63.47
362.33	74.71
362.546	86.33
362.762	47
362.977	51.65
363.193	11.74
363.409	85.94
363.624	22.39
363.84	18.91
364.056	42.93
364.271	57.07
364.487	83.04
364.703	38.47
364.918	0.89
365.134	38.86
365.35	55.33
365.565	139.61
365.781	69.47
365.996	87.88
366.212	123.53
366.427	47.77
366.643	38.47
366.858	57.66
367.074	33.83
367.289	125.47
367.505	160.73
367.72	2.24
367.936	49.91
368.151	96.41
368.367	82.84
368.582	75.48
368.798	24.14
369.013	77.42
369.228	56.49
369.444	97.96
369.659	124.5
369.874	69.86
370.09	118.49
370.305	10.58
370.52	40.41
370.736	126.05
370.951	75.87
371.166	125.27
371.381	155.3
371.597	103.57
371.812	41.96
372.027	60.37
372.242	69.86
372.458	135.15
372.673	21.81
372.888	57.07
373.103	77.22
373.318	157.82
373.533	76.64
373.749	79.16
373.964	16.78
374.179	133.6
374.394	34.41
374.609	128.57
374.824	35.38
375.039	92.72
375.254	14.84
375.469	148.33
375.684	77.81
375.899	109.77
376.114	56.49
376.329	78.19
376.544	113.26
376.759	106.29
376.974	48.55
377.189	81.29
377.404	73.16
377.619	129.15
377.834	43.32
378.049	48.55
378.264	70.06
378.478	101.64
378.693	62.89
378.908	124.11
379.123	99.51
379.338	124.69
379.553	95.24
379.767	99.12
379.982	95.63
380.197	133.6
380.412	94.86
380.626	104.35
380.841	153.95
381.056	121.01
381.271	161.31
381.485	71.22
381.7	56.88
381.915	119.27
382.129	80.52
382.344	84.2
382.559	95.44
382.773	127.4
382.988	30.53
383.202	93.31
383.417	77.61
383.632	190.18
383.846	67.73
384.061	74.32
384.275	50.29
384.49	102.8
384.704	129.54
384.919	86.14
385.133	100.09
385.348	139.42
385.562	58.82
385.777	139.03
385.991	98.15
386.206	99.12
386.42	90.21
386.634	140.19
386.849	117.91
387.063	115.01
387.277	75.87
387.492	97.37
387.706	51.46
387.92	77.03
388.135	125.47
388.349	117.14
388.563	154.72
388.778	133.99
388.992	103.57
389.206	152.59
389.42	183.2
389.635	115.39
389.849	179.14
390.063	158.02
390.277	140.19
390.491	194.05
390.706	121.59
390.92	179.14
391.134	144.65
391.348	177.78
391.562	113.46
391.776	156.66
391.99	138.84
392.205	200.84
392.419	142.32
392.633	149.3
392.847	196.38
393.061	102.22
393.275	182.82
393.489	112.49
393.703	104.74
393.917	127.4
394.131	74.12
394.345	130.5
394.559	159.95
394.773	129.54
394.986	155.89
395.2	152.59
395.414	213.62
395.628	142.13
395.842	189.4
396.056	172.94
396.27	131.67
396.484	183.4
396.697	173.9
396.911	171.97
397.125	166.35
397.339	187.27
397.553	144.45
397.766	191.34
397.98	198.32
398.194	208.39
398.408	192.89
398.621	220.21
398.835	258.57
399.049	233.19
399.262	283.37
399.476	268.26
399.69	272.33
399.903	320.96
400.117	228.35
400.331	259.93
400.544	247.72
400.758	369.01
400.971	274.85
401.185	275.04
401.398	233.97
401.612	313.21
401.826	281.05
402.039	310.69
402.253	240.75
402.466	294.42
402.68	275.43
402.893	304.68
403.106	284.15
403.32	278.14
403.533	289.38
403.747	269.03
403.96	307.4
404.174	324.06
404.387	251.21
404.6	318.63
404.814	360.1
405.027	289.18
405.24	305.46
405.454	298.48
405.667	337.81
405.88	264.97
406.094	304.88
406.307	321.73
406.52	344.4
406.733	273.68
406.947	264
407.16	358.35
407.373	341.88
407.586	256.25
407.799	287.05
408.012	341.88
408.226	291.7
408.439	377.15
408.652	270.78
408.865	369.2
409.078	364.36
409.291	372.5
409.504	300.42
409.717	377.53
409.93	395.74
410.143	326.77
410.357	272.72
410.57	265.35
410.783	308.36
410.996	321.54
411.209	326.38
411.421	371.91
411.634	356.22
411.847	327.16
412.06	351.57
412.273	361.65
412.486	389.93
412.699	455.42
412.912	368.81
413.125	390.51
413.338	401.75
413.55	412.79
413.763	369.4
413.976	352.54
414.189	347.5
414.402	373.66
414.615	440.69
414.827	365.13
415.04	394.39
415.253	398.65
415.466	439.73
415.678	452.71
415.891	386.25
416.104	375.98
416.316	389.35
416.529	381.8
416.742	423.45
416.954	453.48
417.167	410.47
417.38	372.5
417.592	446.31
417.805	390.9
418.017	350.6
418.23	422.29
418.442	360.29
418.655	384.9
418.868	403.3
419.08	437.21
419.293	437.79
419.505	425.39
419.718	395.16
419.93	452.13
420.142	402.91
420.355	451.74
420.567	447.28
420.78	398.65
420.992	404.46
421.205	456.39
421.417	366.88
421.629	435.46
421.842	398.84
422.054	395.55
422.266	485.84
422.479	477.7
422.691	399.04
422.903	456.58
423.115	370.56
423.328	389.74
423.54	422.09
423.752	408.73
423.964	438.56
424.177	440.69
424.389	405.63
424.601	558.88
424.813	463.56
425.025	479.06
425.238	487.77
425.45	436.82
425.662	425.19
425.874	772.97
426.086	437.98
426.298	456.19
426.51	457.16
426.722	448.06
426.934	425.58
427.146	484.29
427.358	431.78
427.57	489.71
427.782	438.56
427.994	430.23
428.206	385.67
428.418	404.08
428.63	485.26
428.842	503.47
429.054	444.57
429.266	479.64
429.478	448.44
429.69	428.1
429.902	391.29
430.114	465.49
430.325	418.99
430.537	366.3
430.749	372.88
430.961	336.07
431.173	351.18
431.384	391.09
431.596	295.38
431.808	416.28
432.02	449.61
432.231	495.91
432.443	566.24
432.655	528.66
432.867	478.86
433.078	520.52
433.29	579.8
433.502	531.37
433.713	578.45
433.925	558.69
434.136	575.15
434.348	476.92
434.56	442.63
434.771	585.23
434.983	468.79
435.194	469.95
435.406	531.76
435.617	599.18
435.829	624.75
436.04	582.13
436.252	598.02
436.463	630.95
436.675	613.9
436.886	599.76
437.098	622.04
437.309	649.94
437.521	623.59
437.732	594.92
437.943	594.53
438.155	579.61
438.366	542.41
438.578	654.01
438.789	594.14
439	583.68
439.211	539.7
439.423	567.4
439.634	573.22
439.845	586.97
440.057	587.17
440.268	662.92
440.479	572.25
440.69	624.75
440.902	596.08
441.113	565.08
441.324	575.93
441.535	638.51
441.746	690.63
441.957	606.93
442.168	616.81
442.38	653.43
442.591	683.65
442.802	618.36
443.013	624.56
443.224	696.25
443.435	650.52
443.646	671.83
443.857	666.6
444.068	625.53
444.279	619.72
444.49	739.84
444.701	658.47
444.912	793.9
445.123	717.37
445.334	714.65
445.545	693.92
445.756	689.27
445.967	654.98
446.178	657.5
446.388	701.87
446.599	688.3
446.81	722.4
447.021	653.43
447.232	699.54
447.443	754.56
447.653	698.18
447.864	736.93
448.075	727.05
448.286	763.86
448.496	736.93
448.707	766
448.918	666.41
449.129	770.84
449.339	705.74
449.55	750.88
449.761	720.85
449.971	756.5
450.182	727.44
450.393	765.61
450.603	732.09
450.814	747.59
451.024	786.92
451.235	817.34
451.446	862.48
451.656	848.73
451.867	749.14
452.077	797.58
452.288	813.66
452.498	814.82
452.709	763.86
452.919	801.65
453.13	747.2
453.34	759.8
453.55	714.07
453.761	755.15
453.971	725.7
454.182	785.56
454.392	753.01
454.602	830.9
454.813	812.11
455.023	809.01
455.233	715.04
455.444	794.48
455.654	703.8
455.864	753.4
456.075	781.11
456.285	760.18
456.495	776.65
456.705	816.76
456.916	849.31
457.126	865.58
457.336	814.24
457.546	748.75
457.756	787.7
457.967	855.51
458.177	788.28
458.387	784.98
458.597	766.96
458.807	806.68
459.017	768.71
459.227	803.97
459.437	780.72
459.647	833.42
459.857	843.69
460.068	807.07
460.278	837.29
460.488	847.95
460.698	880.69
460.908	844.66
461.117	803.39
461.327	808.81
461.537	850.28
461.747	806.68
461.957	859.77
462.167	961.29
462.377	891.74
462.587	857.83
462.797	902.59
463.007	846.4
463.216	916.73
463.426	934.17
463.636	919.64
463.846	819.47
464.056	863.84
464.265	890.19
464.475	816.76
464.685	871.2
464.895	885.15
465.104	856.48
465.314	893.29
465.524	852.99
465.733	836.33
465.943	938.82
466.153	955.48
466.362	936.49
466.572	906.27
466.782	893.87
466.991	912.08
467.201	936.69
467.41	829.93
467.62	906.46
467.829	883.21
468.039	931.07
468.249	947.15
468.458	923.51
468.668	972.14
468.877	959.16
469.086	977.37
469.296	977.37
469.505	948.31
469.715	1015.15
469.924	984.35
470.134	1023.87
470.343	999.85
470.552	960.52
470.762	974.47
470.971	929.52
471.18	993.65
471.39	976.21
471.599	919.64
471.808	1007.4
472.018	976.6
472.227	1034.92
472.436	1100.98
472.645	1036.27
472.855	1011.09
473.064	1106.8
473.273	1070.76
473.482	1062.62
473.691	1097.5
473.901	1093.04
474.11	1043.25
474.319	1169.38
474.528	1050.22
474.737	1152.52
474.946	1136.83
475.155	1133.34
475.364	1160.47
475.573	1137.6
475.783	1155.82
475.992	1149.23
476.201	1156.2
476.41	1151.55
476.619	1092.85
476.828	1156.59
477.037	1109.7
477.245	1117.65
477.454	1186.04
477.663	1159.5
477.872	1194.37
478.081	1287.76
478.29	1178.87
478.499	1294.93
478.708	1275.74
478.917	1319.34
479.125	1225.56
479.334	1237.38
479.543	1244.75
479.752	1284.85
479.961	1271.68
480.169	1328.06
480.378	1290.08
480.587	1424.54
480.796	1326.51
481.004	1326.89
481.213	1348.4
481.422	1328.83
481.63	1336.97
481.839	1384.24
482.048	1429.97
482.256	1368.94
482.465	1409.82
482.674	1419.7
482.882	1426.09
483.091	1476.27
483.299	1427.26
483.508	1405.36
483.716	1445.85
483.925	1434.62
484.134	1408.07
484.342	1411.37
484.551	1445.66
484.759	1449.34
484.967	1501.85
485.176	1478.99
485.384	1492.74
485.593	1490.42
485.801	1455.35
486.01	1457.87
486.218	1371.46
486.426	1266.25
486.635	1283.11
486.843	1275.55
487.051	1287.37
487.26	1330.19
487.468	1353.82
487.676	1400.71
487.885	1391.41
488.093	1444.5
488.301	1516.57
488.509	1490.8
488.717	1564.82
488.926	1528
489.134	1491.77
489.342	1502.62
489.55	1422.02
489.758	1508.24
489.967	1518.32
490.175	1654.13
490.383	1572.18
490.591	1676.03
490.799	1569.85
491.007	1645.41
491.215	1639.99
491.423	1613.45
491.631	1627.4
491.839	1613.45
492.047	1645.03
492.255	1578.18
492.463	1511.73
492.671	1544.67
492.879	1631.46
493.087	1571.21
493.295	1644.06
493.503	1664.21
493.711	1714.97
493.919	1725.82
494.127	1701.41
494.334	1694.43
494.542	1631.66
494.75	1715.94
494.958	1692.69
495.166	1770.19
495.374	1771.93
495.581	1765.54
495.789	1755.46
495.997	1800.99
496.205	1722.72
496.412	1726.98
496.62	1766.12
496.828	1787.24
497.035	1765.34
497.243	1815.91
497.451	1747.13
497.658	1815.72
497.866	1777.36
498.074	1818.43
498.281	1743.84
498.489	1847.3
498.696	1753.91
498.904	1706.64
499.112	1688.81
499.319	1838.97
499.527	1752.56
499.734	1814.56
499.942	1743.64
500.149	1782.98
500.357	1812.04
500.564	1746.94
500.771	1770.77
500.979	1697.92
501.186	1699.66
501.394	1741.71
501.601	1717.88
501.808	1751.39
502.016	1740.93
502.223	1686.49
502.43	1761.47
502.638	1756.63
502.845	1710.32
503.052	1799.83
503.26	1758.76
503.467	1829.86
503.674	1798.09
503.881	1829.28
504.089	1914.53
504.296	1817.27
504.503	1738.03
504.71	1761.08
504.917	1759.53
505.125	1778.13
505.332	1780.84
505.539	1854.08
505.746	1902.32
505.953	1914.72
506.16	1890.5
506.367	1927.32
506.574	1960.45
506.781	1939.91
506.988	1882.95
507.195	1918.02
507.402	1868.42
507.609	1925.57
507.816	1869.58
508.023	1861.83
508.23	1839.36
508.437	1795.76
508.644	1843.23
508.851	1909.49
509.058	1909.1
509.265	1848.85
509.472	1938.75
509.679	2009.08
509.885	1932.16
510.092	1920.92
510.299	1908.33
510.506	1889.34
510.713	1890.7
510.92	1938.17
511.126	1921.31
511.333	1963.74
511.54	1999
511.746	2009.47
511.953	1983.12
512.16	2049.57
512.367	1965.87
512.573	1964.32
512.78	1943.98
512.987	1968
513.193	1929.84
513.4	1827.92
513.606	1921.12
513.813	1941.27
514.02	1926.15
514.226	2029.03
514.433	1982.92
514.639	1881.4
514.846	1906.2
515.052	1892.44
515.259	1941.85
515.465	1957.35
515.672	1921.12
515.878	2035.04
516.085	1960.45
516.291	2005.2
516.497	1973.23
516.704	1930.03
516.91	1877.33
517.117	1830.44
517.323	1771.16
517.529	1757.98
517.736	1782.59
517.942	1789.76
518.148	1784.91
518.354	1849.04
518.561	1893.22
518.767	1821.92
518.973	1910.27
519.179	1919.95
519.386	1877.91
519.592	1899.8
519.798	1904.65
520.004	2028.65
520.21	1975.56
520.417	2049.76
520.623	2120.48
520.829	2103.43
521.035	2096.65
521.241	2050.93
521.447	2080.18
521.653	2249.32
521.859	2100.72
522.065	2126.3
522.271	2210.96
522.477	2186.36
522.683	2226.85
522.889	2188.88
523.095	2147.22
523.301	2172.99
523.507	2103.82
523.713	2143.34
523.919	2120.68
524.125	2233.24
524.331	2186.94
524.537	2276.26
524.742	2284.2
524.948	2257.07
525.154	2308.42
525.36	2412.65
525.566	2259.21
525.772	2345.42
525.977	2237.12
526.183	2252.23
526.389	2318.3
526.595	2247.58
526.8	2225.88
527.006	2154.58
527.212	2113.7
527.417	2069.72
527.623	2097.62
527.829	2152.64
528.034	2173.76
528.24	2205.34
528.446	2247.58
528.651	2296.41
528.857	2312.1
529.062	2396.18
529.268	2328.76
529.473	2396.38
529.679	2385.53
529.884	2481.82
530.09	2425.63
530.295	2451.6
530.501	2448.3
530.706	2425.83
530.912	2418.08
531.117	2421.18
531.323	2408.39
531.528	2512.43
531.733	2491.12
531.939	2482.02
532.144	2506.04
532.35	2474.46
532.555	2527.16
532.76	2463.03
532.966	2463.03
533.171	2401.61
533.376	2339.22
533.581	2309.77
533.787	2367.12
533.992	2449.27
534.197	2484.15
534.402	2411.49
534.607	2451.6
534.813	2509.33
535.018	2427.96
535.223	2457.41
535.428	2502.75
535.633	2518.44
535.838	2545.18
536.043	2534.52
536.249	2632.17
536.454	2552.15
536.659	2611.24
536.864	2525.41
537.069	2519.02
537.274	2516.89
537.479	2559.32
537.684	2525.8
537.889	2477.56
538.094	2616.28
538.299	2507.98
538.504	2540.53
538.708	2575.79
538.913	2587.99
539.118	2564.94
539.323	2598.26
539.528	2526.77
539.733	2559.51
539.938	2582.38
540.142	2533.36
540.347	2541.5
540.552	2478.53
540.757	2493.83
540.962	2486.66
541.166	2375.07
541.371	2405.87
541.576	2476.78
541.781	2403.93
541.985	2532.2
542.19	2519.8
542.395	2616.67
542.599	2615.31
542.804	2614.15
543.008	2628.68
543.213	2513.6
543.418	2507.4
543.622	2594.39
543.827	2537.04
544.031	2628.1
544.236	2649.8
544.44	2597.49
544.645	2676.15
544.849	2595.74
545.054	2642.83
545.258	2677.7
545.463	2695.72
545.667	2600.2
545.872	2674.6
546.076	2632.56
546.281	2621.71
546.485	2587.03
546.689	2621.9
546.894	2672.66
547.098	2619.77
547.302	2595.74
547.507	2627.71
547.711	2634.11
547.915	2680.61
548.119	2557.77
548.324	2546.53
548.528	2652.71
548.732	2590.51
548.936	2654.84
549.141	2667.24
549.345	2625.19
549.549	2646.7
549.753	2628.49
549.957	2734.66
550.161	2725.75
550.366	2651.35
550.57	2606.01
550.774	2628.29
550.978	2651.74
551.182	2674.79
551.386	2632.56
551.59	2589.54
551.794	2591.48
551.998	2612.99
552.202	2604.46
552.406	2614.15
552.61	2651.16
552.814	2662.59
553.018	2709.86
553.222	2614.34
553.426	2615.12
553.63	2714.71
553.833	2659.29
554.037	2545.18
554.241	2637.4
554.445	2647.67
554.649	2636.24
554.853	2620.74
555.056	2654.06
555.26	2708.51
555.464	2644.76
555.668	2658.52
555.871	2687.77
556.075	2724.39
556.279	2630.04
556.483	2580.24
556.686	2618.22
556.89	2601.17
557.094	2645.73
557.297	2557.96
557.501	2579.28
557.704	2525.41
557.908	2594.97
558.112	2534.91
558.315	2632.36
558.519	2569.78
558.722	2546.15
558.926	2540.14
559.129	2468.07
559.333	2447.14
559.536	2447.33
559.74	2473.3
559.943	2434.74
560.147	2454.31
560.35	2439.97
560.553	2475.62
560.757	2413.62
560.96	2535.3
561.164	2490.15
561.367	2588.38
561.57	2539.36
561.774	2540.33
561.977	2448.88
562.18	2455.47
562.384	2572.49
562.587	2476.78
562.79	2482.02
562.993	2455.28
563.197	2504.88
563.4	2558.35
563.603	2538.01
563.806	2598.84
564.009	2480.27
564.212	2552.73
564.416	2399.48
564.619	2471.94
564.822	2436.68
565.025	2522.12
565.228	2464.19
565.431	2454.89
565.634	2353.95
565.837	2374.29
566.04	2369.06
566.243	2393.09
566.446	2269.28
566.649	2412.46
566.852	2309.19
567.055	2354.53
567.258	2403.16
567.461	2445.4
567.664	2463.61
567.867	2323.92
568.07	2398.9
568.273	2374.1
568.475	2470.58
568.678	2326.24
568.881	2339.22
569.084	2338.45
569.287	2229.95
569.489	2286.91
569.692	2315
569.895	2342.13
570.098	2233.63
570.3	2242.16
570.503	2181.9
570.706	2235.18
570.909	2210.77
571.111	2144.51
571.314	2150.9
571.516	2171.24
571.719	2241.38
571.922	2186.16
572.124	2169.5
572.327	2259.01
572.529	2163.11
572.732	2170.47
572.935	2206.31
573.137	2310.16
573.34	2199.53
573.542	2237.12
573.745	2290.79
573.947	2254.17
574.15	2209.8
574.352	2183.45
574.554	2286.52
574.757	2167.37
574.959	2177.64
575.162	2181.71
575.364	2146.44
575.566	2262.89
575.769	2125.71
575.971	2128.23
576.173	2007.33
576.376	2103.82
576.578	2131.14
576.78	2216
576.982	2061.78
577.185	2098.98
577.387	2092.97
577.589	2099.36
577.791	2111.96
577.993	2086.96
578.196	2113.9
578.398	2089.48
578.6	2149.35
578.802	2069.72
579.004	2045.5
579.206	2032.72
579.408	2105.76
579.61	2029.23
579.812	2125.13
580.014	2010.05
580.216	2024.19
580.418	2065.07
580.62	2062.94
580.822	2014.89
581.024	2062.16
581.226	2102.46
581.428	2022.64
581.63	2145.67
581.832	2025.74
582.034	2114.67
582.236	2036.98
582.438	2101.3
582.64	2118.74
582.841	2139.47
583.043	2154.97
583.245	2103.43
583.447	2103.24
583.649	2131.72
583.85	2107.7
584.052	2098.78
584.254	2022.25
584.456	2101.88
584.657	2002.3
584.859	2058.87
585.061	2016.44
585.262	2013.15
585.464	2007.92
585.666	2038.33
585.867	1998.81
586.069	2059.45
586.27	2008.11
586.472	1997.84
586.674	1992.03
586.875	1971.3
587.077	1986.6
587.278	2024.97
587.48	1956.77
587.681	2129.98
587.883	2021.87
588.084	1944.95
588.285	1954.25
588.487	1938.55
588.688	1980.79
588.89	1888.37
589.091	1870.55
589.292	1862.61
589.494	1802.93
589.695	1762.44
589.896	1697.14
590.098	1685.13
590.299	1779.1
590.5	1734.54
590.702	1737.25
590.903	1804.48
591.104	1892.64
591.305	1885.66
591.507	1927.12
591.708	1880.24
591.909	1842.46
592.11	1965.48
592.311	1908.91
592.512	1828.89
592.714	1769.61
592.915	1857.76
593.116	1834.71
593.317	1895.74
593.518	1862.99
593.719	1844.59
593.92	1912.98
594.121	1922.86
594.322	1910.85
594.523	1877.14
594.724	1825.99
594.925	1855.24
595.126	1828.51
595.327	1878.1
595.528	1852.72
595.729	1874.81
595.929	1834.71
596.13	1844.97
596.331	1890.5
596.532	1875.59
596.733	1923.25
596.934	1899.22
597.135	1904.84
597.335	1874.81
597.536	1794.21
597.737	1889.34
597.938	1828.89
598.138	1832.38
598.339	1861.44
598.54	1861.44
598.74	1836.06
598.941	1831.99
599.142	1911.62
599.342	1841.68
599.543	1815.72
599.744	1856.41
599.944	1851.37
600.145	1828.89
600.345	1846.91
600.546	1890.31
600.746	1891.67
600.947	1931.58
601.147	1845.36
601.348	1866.87
601.548	1784.33
601.749	1811.26
601.949	1795.37
602.15	1784.14
602.35	1787.04
602.551	1849.04
602.751	1729.89
602.951	1775.61
603.152	1720.39
603.352	1810.1
603.552	1811.84
603.753	1818.82
603.953	1879.07
604.153	1812.62
604.354	1808.55
604.554	1853.11
604.754	1809.13
604.954	1783.56
605.155	1834.9
605.355	1811.07
605.555	1832.57
605.755	1885.27
605.955	1807.39
606.155	1851.95
606.356	1826.18
606.556	1892.05
606.756	1848.66
606.956	1794.79
607.156	1862.02
607.356	1803.71
607.556	1842.26
607.756	1829.47
607.956	1871.9
608.156	1822.11
608.356	1770.58
608.556	1823.66
608.756	1787.82
608.956	1784.14
609.156	1824.05
609.356	1741.32
609.556	1753.14
609.755	1802.35
609.955	1736.28
610.155	1759.34
610.355	1758.76
610.555	1743.84
610.755	1753.33
610.954	1677.38
611.154	1730.08
611.354	1781.81
611.554	1737.06
611.753	1733.38
611.953	1704.89
612.153	1760.11
612.352	1771.35
612.552	1693.46
612.752	1622.16
612.951	1726.98
613.151	1707.22
613.351	1657.43
613.55	1717.88
613.75	1714.78
613.949	1665.18
