Data from gum_old_FLMT105791__84__15-44-12-256.txt Node

Date: Mon Mar 20 15:44:12 GMT 2023
User: antho
Spectrometer: FLMT10579
Trigger mode: 0
Integration Time (sec): 1.000000E-1
Scans to average: 10
Electric dark correction enabled: true
Nonlinearity correction enabled: false
Boxcar width: 0
XAxis mode: Wavelengths
Number of Pixels in Spectrum: 3648
>>>>>Begin Spectral Data<<<<<
345.248	-174.1
345.464	-174.1
345.681	-174.1
345.898	-167.9
346.114	-161.5
346.331	-34.21
346.548	7.25
346.764	-0.5
346.981	8.61
347.197	4.54
347.414	19.84
347.631	-18.71
347.847	52
348.064	-10.96
348.28	27.01
348.497	-47.97
348.713	-6.89
348.93	38.83
349.146	29.92
349.363	8.41
349.579	41.16
349.796	-29.56
350.012	-15.23
350.229	16.94
350.445	27.01
350.661	-0.31
350.878	7.44
351.094	21.78
351.311	-5.73
351.527	44.45
351.743	-13.29
351.96	57.43
352.176	52.59
352.392	34.76
352.609	28.17
352.825	17.32
353.041	27.21
353.257	24.49
353.474	19.26
353.69	20.04
353.906	45.81
354.122	9.19
354.339	74.48
354.555	22.36
354.771	0.86
354.987	62.66
355.203	77.97
355.42	27.4
355.636	28.56
355.852	-6.31
356.068	37.67
356.284	-40.8
356.5	84.75
356.716	28.37
356.932	22.17
357.148	48.52
357.364	21.59
357.58	55.88
357.796	66.15
358.012	42.51
358.228	27.21
358.444	-38.09
358.66	40.77
358.876	48.91
359.092	-8.64
359.308	20.42
359.524	43.29
359.74	56.85
359.956	2.99
360.172	40.57
360.388	67.12
360.604	14.22
360.819	108.39
361.035	56.27
361.251	52.39
361.467	0.47
361.683	80.87
361.898	58.01
362.114	72.35
362.33	40.38
362.546	50.65
362.762	41.93
362.977	46.58
363.193	14.03
363.409	88.62
363.624	17.52
363.84	-1.86
364.056	43.29
364.271	48.71
364.487	57.43
364.703	44.64
364.918	15.97
365.134	37.86
365.35	32.63
365.565	132.22
365.781	46.97
365.996	70.8
366.212	97.92
366.427	61.5
366.643	38.25
366.858	47.94
367.074	25.85
367.289	97.34
367.505	137.84
367.72	-7.28
367.936	29.72
368.151	81.26
368.367	116.72
368.582	60.92
368.798	42.32
369.013	105.29
369.228	75.25
369.444	73.51
369.659	111.87
369.874	65.37
370.09	110.9
370.305	-0.31
370.52	49.1
370.736	104.51
370.951	45.22
371.166	126.99
371.381	142.29
371.597	85.72
371.812	17.13
372.027	32.82
372.242	67.89
372.458	138.61
372.673	45.61
372.888	55.1
373.103	93.47
373.318	152.17
373.533	97.92
373.749	59.56
373.964	21.01
374.179	106.06
374.394	27.98
374.609	85.52
374.824	23.52
375.039	87.07
375.254	42.32
375.469	92.11
375.684	47.94
375.899	98.5
376.114	61.5
376.329	91.34
376.544	113.42
376.759	111.49
376.974	32.24
377.189	73.51
377.404	33.41
377.619	93.47
377.834	27.01
378.049	46.19
378.264	47.94
378.478	79.71
378.693	101.41
378.908	110.13
379.123	78.55
379.338	132.8
379.553	97.34
379.767	78.16
379.982	97.92
380.197	80.68
380.412	78.74
380.626	101.99
380.841	146.55
381.056	107.42
381.271	151.4
381.485	62.85
381.7	35.92
381.915	94.63
382.129	51.81
382.344	69.83
382.559	61.3
382.773	116.72
382.988	27.4
383.202	76.42
383.417	78.16
383.632	175.03
383.846	81.84
384.061	93.85
384.275	56.27
384.49	75.64
384.704	106.64
384.919	101.99
385.133	99.09
385.348	109.94
385.562	64.02
385.777	116.72
385.991	90.56
386.206	103.93
386.42	89.01
386.634	143.65
386.849	117.3
387.063	119.62
387.277	103.54
387.492	75.06
387.706	59.95
387.92	90.75
388.135	132.41
388.349	129.5
388.563	113.23
388.778	120.01
388.992	126.99
389.206	125.24
389.42	179.49
389.635	106.64
389.849	115.75
390.063	159.53
390.277	139.58
390.491	195.57
390.706	146.17
390.92	152.75
391.134	124.27
391.348	140.74
391.562	89.4
391.776	123.69
391.99	130.09
392.205	176
392.419	124.47
392.633	139.58
392.847	180.27
393.061	101.41
393.275	158.57
393.489	72.54
393.703	93.27
393.917	136.48
394.131	49.1
394.345	107.61
394.559	139
394.773	98.7
394.986	169.8
395.2	119.82
395.414	175.03
395.628	101.99
395.842	156.24
396.056	136.48
396.27	107.22
396.484	149.07
396.697	138.22
396.911	176.58
397.125	110.13
397.339	120.4
397.553	119.43
397.766	175.03
397.98	151.2
398.194	197.32
398.408	153.14
398.621	211.65
398.835	215.72
399.049	200.8
399.262	254.86
399.476	245.36
399.69	264.93
399.903	280.05
400.117	229.86
400.331	233.74
400.544	224.05
400.758	360.64
400.971	254.08
401.185	279.27
401.398	218.43
401.612	270.16
401.826	261.06
402.039	292.25
402.253	215.72
402.466	286.25
402.68	259.12
402.893	241.88
403.106	270.36
403.32	250.4
403.533	280.43
403.747	246.14
403.96	249.43
404.174	297.87
404.387	207.2
404.6	240.33
404.814	312.79
405.027	246.72
405.24	271.91
405.454	254.86
405.667	287.41
405.88	220.76
406.094	290.31
406.307	315.69
406.52	281.4
406.733	240.52
406.947	234.71
407.16	326.74
407.373	321.12
407.586	276.56
407.799	258.54
408.012	301.75
408.226	290.51
408.439	325.77
408.652	278.88
408.865	299.61
409.078	332.36
409.291	310.66
409.504	284.7
409.717	325.58
409.93	331.58
410.143	324.99
410.357	239.94
410.57	214.75
410.783	281.6
410.996	270.16
411.209	313.76
411.421	335.46
411.634	334.49
411.847	313.95
412.06	318.21
412.273	332.94
412.486	336.43
412.699	410.82
412.912	346.89
413.125	383.89
413.338	344.56
413.55	362.97
413.763	339.14
413.976	365.88
414.189	294
414.402	328.48
414.615	399.59
414.827	322.86
415.04	360.45
415.253	337.39
415.466	402.69
415.678	420.9
415.891	356.77
416.104	336.43
416.316	351.93
416.529	327.71
416.742	385.83
416.954	412.76
417.167	376.73
417.38	344.18
417.592	424
417.805	359.48
418.017	298.84
418.23	383.51
418.442	319.96
418.655	329.45
418.868	374.01
419.08	384.28
419.293	408.89
419.505	372.66
419.718	378.86
419.93	399.78
420.142	337.98
420.355	398.04
420.567	418.57
420.78	400.75
420.992	392.23
421.205	457.32
421.417	335.84
421.629	378.66
421.842	373.43
422.054	353.28
422.266	405.4
422.479	463.72
422.691	362.39
422.903	386.22
423.115	352.31
423.328	363.16
423.54	396.68
423.752	380.99
423.964	352.7
424.177	379.24
424.389	392.23
424.601	486.58
424.813	421.87
425.025	435.04
425.238	442.79
425.45	378.28
425.662	402.3
425.874	726.63
426.086	379.24
426.298	459.26
426.51	420.32
426.722	416.64
426.934	374.01
427.146	443.37
427.358	363.36
427.57	422.64
427.782	386.99
427.994	390.29
428.206	386.8
428.418	363.94
428.63	445.7
428.842	454.22
429.054	432.14
429.266	429.62
429.478	360.84
429.69	429.62
429.902	347.66
430.114	419.93
430.325	417.61
430.537	372.66
430.749	345.53
430.961	298.45
431.173	319.96
431.384	369.56
431.596	291.09
431.808	371.88
432.02	435.82
432.231	477.28
432.443	542.77
432.655	479.22
432.867	424.97
433.078	462.56
433.29	517.39
433.502	509.25
433.713	510.41
433.925	509.83
434.136	529.4
434.348	439.31
434.56	387.77
434.771	541.22
434.983	391.45
435.194	422.26
435.406	461.2
435.617	530.75
435.829	595.66
436.04	536.76
436.252	532.5
436.463	577.06
436.675	579
436.886	543.93
437.098	585.58
437.309	598.76
437.521	532.89
437.732	535.21
437.943	516.03
438.155	540.44
438.366	476.51
438.578	572.99
438.789	517
439	543.93
439.211	510.41
439.423	509.44
439.634	550.52
439.845	544.9
440.057	531.14
440.268	595.85
440.479	543.15
440.69	584.03
440.902	548.19
441.113	536.76
441.324	530.95
441.535	585.39
441.746	633.63
441.957	556.52
442.168	583.45
442.38	616.2
442.591	649.33
442.802	580.35
443.013	583.84
443.224	652.23
443.435	602.83
443.646	599.92
443.857	585.39
444.068	603.6
444.279	574.35
444.49	705.32
444.701	592.56
444.912	770.42
445.123	646.62
445.334	644.29
445.545	632.86
445.756	609.03
445.967	603.02
446.178	628.6
446.388	670.83
446.599	645.65
446.81	657.27
447.021	622.78
447.232	664.44
447.443	709.2
447.653	614.84
447.864	710.55
448.075	690.21
448.286	714.04
448.496	668.31
448.707	704.16
448.918	628.98
449.129	784.18
449.339	664.05
449.55	683.23
449.761	676.84
449.971	717.14
450.182	702.22
450.393	724.31
450.603	679.94
450.814	769.26
451.024	720.63
451.235	738.26
451.446	775.07
451.656	794.06
451.867	720.24
452.077	753.37
452.288	791.15
452.498	781.66
452.709	716.17
452.919	719.27
453.13	683.62
453.34	742.52
453.55	630.73
453.761	739.03
453.971	705.9
454.182	749.5
454.392	712.68
454.602	811.88
454.813	773.91
455.023	757.44
455.233	672.77
455.444	718.88
455.654	648.55
455.864	737.68
456.075	709.97
456.285	680.71
456.495	722.95
456.705	754.92
456.916	770.61
457.126	810.91
457.336	751.82
457.546	684.2
457.756	701.83
457.967	793.28
458.177	734.58
458.387	758.79
458.597	696.21
458.807	748.14
459.017	718.11
459.227	746.98
459.437	713.46
459.647	763.64
459.857	801.03
460.068	709.58
460.278	800.26
460.488	795.8
460.698	807.62
460.908	756.47
461.117	721.6
461.327	766.16
461.537	770.03
461.747	806.84
461.957	804.13
462.167	883.57
462.377	834.94
462.587	802.97
462.797	830.48
463.007	812.27
463.216	839.59
463.426	875.04
463.636	836.29
463.846	775.07
464.056	781.46
464.265	821.76
464.475	744.26
464.685	811.49
464.895	854.31
465.104	812.08
465.314	855.28
465.524	789.02
465.733	764.41
465.943	840.94
466.153	889.38
466.362	852.57
466.572	838.62
466.782	866.52
466.991	839.2
467.201	897.91
467.41	762.28
467.62	850.44
467.829	823.7
468.039	845.98
468.249	847.14
468.458	850.82
468.668	875.62
468.877	884.15
469.086	904.69
469.296	869.81
469.505	888.22
469.715	969.59
469.924	895.97
470.134	931.04
470.343	946.34
470.552	871.94
470.762	869.62
470.971	853.54
471.18	883.57
471.39	910.69
471.599	835.71
471.808	911.47
472.018	878.53
472.227	964.55
472.436	989.94
472.645	963.39
472.855	952.35
473.064	1040.89
473.273	987.61
473.482	983.74
473.691	1037.4
473.901	1000.98
474.11	955.84
474.319	1091.85
474.528	978.7
474.737	1062.78
474.946	1066.47
475.155	1032.75
475.364	1112
475.573	1053.1
475.783	1061.43
475.992	1096.3
476.201	1128.85
476.41	1057.94
476.619	1011.05
476.828	1055.81
477.037	989.55
477.245	1038.18
477.454	1087.58
477.663	1099.98
477.872	1096.11
478.081	1193.56
478.29	1087.78
478.499	1229.79
478.708	1164.89
478.917	1249.56
479.125	1155.78
479.334	1174.58
479.543	1166.63
479.752	1190.27
479.961	1212.55
480.169	1239.48
480.378	1207.9
480.587	1335.58
480.796	1247.62
481.004	1205.58
481.213	1218.75
481.422	1263.89
481.63	1266.22
481.839	1254.4
482.048	1341.2
482.256	1271.84
482.465	1311.56
482.674	1294.51
482.882	1318.14
483.091	1385.37
483.299	1318.34
483.508	1325.51
483.716	1329.19
483.925	1332.29
484.134	1268.35
484.342	1350.5
484.551	1368.71
484.759	1364.45
484.967	1354.18
485.176	1397.58
485.384	1386.54
485.593	1413.27
485.801	1344.11
486.01	1328.8
486.218	1285.98
486.426	1157.53
486.635	1217.78
486.843	1151.91
487.051	1210.03
487.26	1240.26
487.468	1266.99
487.676	1295.67
487.885	1273.19
488.093	1330.74
488.301	1355.54
488.509	1359.41
488.717	1424.7
488.926	1383.44
489.134	1396.22
489.342	1382.66
489.55	1351.86
489.758	1405.72
489.967	1396.22
490.175	1525.07
490.383	1469.07
490.591	1557.03
490.799	1475.47
491.007	1526.62
491.215	1517.32
491.423	1458.61
491.631	1481.28
491.839	1481.08
492.047	1493.1
492.255	1442.34
492.463	1437.3
492.671	1434
492.879	1501.04
493.087	1479.73
493.295	1463.07
493.503	1545.8
493.711	1553.93
493.919	1600.63
494.127	1564.59
494.334	1579.7
494.542	1518.67
494.75	1574.08
494.958	1560.71
495.166	1623.68
495.374	1613.61
495.581	1612.64
495.789	1606.44
495.997	1659.14
496.205	1566.33
496.412	1576.21
496.62	1589.58
496.828	1618.06
497.035	1602.76
497.243	1642.86
497.451	1617.68
497.658	1635.11
497.866	1632.59
498.074	1709.13
498.281	1593.65
498.489	1735.67
498.696	1601.01
498.904	1576.6
499.112	1574.28
499.319	1675.03
499.527	1642.67
499.734	1674.83
499.942	1587.65
500.149	1614.38
500.357	1658.36
500.564	1606.05
500.771	1656.04
500.979	1603.53
501.186	1584.74
501.394	1621.55
501.601	1580.86
501.808	1615.35
502.016	1555.48
502.223	1605.28
502.43	1601.4
502.638	1618.26
502.845	1621.36
503.052	1731.41
503.26	1641.51
503.467	1719.78
503.674	1707.96
503.881	1710.48
504.089	1726.17
504.296	1726.17
504.503	1624.65
504.71	1625.23
504.917	1619.23
505.125	1670.76
505.332	1695.95
505.539	1708.74
505.746	1787.21
505.953	1760.47
506.16	1759.5
506.367	1777.13
506.574	1838.16
506.781	1855.4
506.988	1796.89
507.195	1792.63
507.402	1768.41
507.609	1792.44
507.816	1750.01
508.023	1713.97
508.23	1735.86
508.437	1662.43
508.644	1724.62
508.851	1786.43
509.058	1795.54
509.265	1787.79
509.472	1810.45
509.679	1888.73
509.885	1761.82
510.092	1798.44
510.299	1802.51
510.506	1751.75
510.713	1795.34
510.92	1807.74
511.126	1806.77
511.333	1855.99
511.54	1870.13
511.746	1874.97
511.953	1905.97
512.16	1938.13
512.367	1847.65
512.573	1819.95
512.78	1838.74
512.987	1846.1
513.193	1793.99
513.4	1715.71
513.606	1807.94
513.813	1822.08
514.02	1816.65
514.226	1862.96
514.433	1853.08
514.639	1768.22
514.846	1819.56
515.052	1772.87
515.259	1839.52
515.465	1842.42
515.672	1833.7
515.878	1872.65
516.085	1830.22
516.291	1904.62
516.497	1844.17
516.704	1852.5
516.91	1804.45
517.117	1708.93
517.323	1623.88
517.529	1670.18
517.736	1656.62
517.942	1623.88
518.148	1688.98
518.354	1724.62
518.561	1732.37
518.767	1717.46
518.973	1792.24
519.179	1789.14
519.386	1775.97
519.592	1768.22
519.798	1762.02
520.004	1948.79
520.21	1867.03
520.417	1900.16
520.623	1931.16
520.829	1939.88
521.035	1976.88
521.241	1966.42
521.447	1949.37
521.653	2097.2
521.859	1967
522.065	1998.2
522.271	2075.89
522.477	2052.25
522.683	2071.04
522.889	2010.6
523.095	2026.29
523.301	2023
523.507	1971.85
523.713	2023.38
523.919	1965.07
524.125	2049.93
524.331	2061.55
524.537	2123.94
524.742	2142.93
524.948	2152.81
525.154	2121.03
525.36	2221.59
525.566	2108.83
525.772	2205.31
525.977	2106.31
526.183	2126.07
526.389	2208.61
526.595	2104.18
526.8	2041.4
527.006	1944.14
527.212	1915.47
527.417	1877.69
527.623	1925.93
527.829	1973.59
528.034	2060
528.24	2049.73
528.446	2054.38
528.651	2183.81
528.857	2161.33
529.062	2217.71
529.268	2208.8
529.473	2236.12
529.679	2226.43
529.884	2319.24
530.09	2262.08
530.295	2295.79
530.501	2249.68
530.706	2260.92
530.912	2210.16
531.117	2260.14
531.323	2303.54
531.528	2312.84
531.733	2366.9
531.939	2278.35
532.144	2352.56
532.35	2291.34
532.555	2335.7
532.76	2311.29
532.966	2307.8
533.171	2285.33
533.376	2198.34
533.581	2173.73
533.787	2233.79
533.992	2276.61
534.197	2312.07
534.402	2264.99
534.607	2309.55
534.813	2424.63
535.018	2299.28
535.223	2293.27
535.428	2334.35
535.633	2364.57
535.838	2381.23
536.043	2349.46
536.249	2478.3
536.454	2380.85
536.659	2441.1
536.864	2353.33
537.069	2346.75
537.274	2372.13
537.479	2351.2
537.684	2407.2
537.889	2322.53
538.094	2467.26
538.299	2369.22
538.504	2407.2
538.708	2363.8
538.913	2448.85
539.118	2442.46
539.323	2444.59
539.528	2344.62
539.733	2368.06
539.938	2376.97
540.142	2411.65
540.347	2339.77
540.552	2341.71
540.757	2332.99
540.962	2342.1
541.166	2244.25
541.371	2236.5
541.576	2295.21
541.781	2249.87
541.985	2405.84
542.19	2371.55
542.395	2462.61
542.599	2494.96
542.804	2421.53
543.008	2471.71
543.213	2391.7
543.418	2360.5
543.622	2430.83
543.827	2346.55
544.031	2464.55
544.236	2425.02
544.44	2486.44
544.645	2509.11
544.849	2411.85
545.054	2492.06
545.258	2549.41
545.463	2505.23
545.667	2427.93
545.872	2486.63
546.076	2475.01
546.281	2443.81
546.485	2447.88
546.689	2472.3
546.894	2511.82
547.098	2485.86
547.302	2465.32
547.507	2471.33
547.711	2471.71
547.915	2520.54
548.119	2391.89
548.324	2432.58
548.528	2536.43
548.732	2433.55
548.936	2512.21
549.141	2522.67
549.345	2490.12
549.549	2473.65
549.753	2503.68
549.957	2538.94
550.161	2579.05
550.366	2520.34
550.57	2490.9
550.774	2525.38
550.978	2526.93
551.182	2533.52
551.386	2474.04
551.59	2482.76
551.794	2478.11
551.998	2498.45
552.202	2503.88
552.406	2470.55
552.61	2509.11
552.814	2493.61
553.018	2546.31
553.222	2507.75
553.426	2475.59
553.63	2558.51
553.833	2473.46
554.037	2458.93
554.241	2510.66
554.445	2499.03
554.649	2535.46
554.853	2481.98
555.056	2527.71
555.26	2580.99
555.464	2511.43
555.668	2540.49
555.871	2536.81
556.075	2566.84
556.279	2469.2
556.483	2456.02
556.686	2470.55
556.89	2494.19
557.094	2479.08
557.297	2408.94
557.501	2505.43
557.704	2381.82
557.908	2489.15
558.112	2390.73
558.315	2522.48
558.519	2418.82
558.722	2437.61
558.926	2388.21
559.129	2297.34
559.333	2331.63
559.536	2313.81
559.74	2311.29
559.943	2294.05
560.147	2296.37
560.35	2323.88
560.553	2298.31
560.757	2307.22
560.96	2386.08
561.164	2356.63
561.367	2407.78
561.57	2348.1
561.774	2367.67
561.977	2354.88
562.18	2326.98
562.384	2425.8
562.587	2319.62
562.79	2327.76
562.993	2349.27
563.197	2355.66
563.4	2416.69
563.603	2421.73
563.806	2447.69
564.009	2360.7
564.212	2357.98
564.416	2268.47
564.619	2305.67
564.822	2254.72
565.025	2346.36
565.228	2329.31
565.431	2297.34
565.634	2233.79
565.837	2282.62
566.04	2236.31
566.243	2237.28
566.446	2161.33
566.649	2244.64
566.852	2166.56
567.055	2212.67
567.258	2259.95
567.461	2281.45
567.664	2264.6
567.867	2177.22
568.07	2223.14
568.273	2236.12
568.475	2303.54
568.678	2199.69
568.881	2227.21
569.084	2172.37
569.287	2073.76
569.489	2123.94
569.692	2170.44
569.895	2183.61
570.098	2139.24
570.3	2144.28
570.503	2059.42
570.706	2106.11
570.909	2073.18
571.111	2009.43
571.314	2030.36
571.516	2051.67
571.719	2073.37
571.922	1986.96
572.124	2059.61
572.327	2070.66
572.529	2006.72
572.732	1973.4
572.935	2077.05
573.137	2129.94
573.34	2039.46
573.542	2097.39
573.745	2095.26
573.947	2048.96
574.15	2030.55
574.352	2049.35
574.554	2112.89
574.757	2016.8
574.959	1971.07
575.162	2014.08
575.364	1998.97
575.566	2104.56
575.769	1970.3
575.971	1983.86
576.173	1896.09
576.376	1982.5
576.578	2021.83
576.78	2056.51
576.982	1959.64
577.185	1994.71
577.387	1917.21
577.589	1938.72
577.791	1978.43
577.993	1988.12
578.196	1955.18
578.398	1954.41
578.6	1979.21
578.802	1892.02
579.004	1892.22
579.206	1939.68
579.408	1920.12
579.61	1877.49
579.812	1966.62
580.014	1869.94
580.216	1847.27
580.418	1910.43
580.62	1881.75
580.822	1874.97
581.024	1938.33
581.226	1962.74
581.428	1926.32
581.63	2025.9
581.832	1902.87
582.034	1988.31
582.236	1923.99
582.438	1957.7
582.64	1942.4
582.841	1965.84
583.043	2031.71
583.245	1959.64
583.447	1945.88
583.649	1885.24
583.85	1934.65
584.052	1948.02
584.254	1873.04
584.456	1979.21
584.657	1871.29
584.859	1937.17
585.061	1884.66
585.262	1868.77
585.464	1857.34
585.666	1910.43
585.867	1864.12
586.069	1965.07
586.27	1893.57
586.472	1862.38
586.674	1849.98
586.875	1849.01
587.077	1838.16
587.278	1881.75
587.48	1874
587.681	1967.58
587.883	1906.75
588.084	1804.25
588.285	1835.06
588.487	1828.86
588.688	1857.54
588.89	1719.78
589.091	1713.19
589.292	1771.51
589.494	1695.76
589.695	1649.06
589.896	1575.63
590.098	1579.7
590.299	1623.68
590.5	1632.98
590.702	1655.65
590.903	1666.5
591.104	1767.44
591.305	1744.58
591.507	1751.75
591.708	1728.31
591.909	1713.39
592.11	1798.06
592.311	1763.76
592.512	1694.98
592.714	1673.67
592.915	1693.43
593.116	1673.86
593.317	1745.94
593.518	1705.64
593.719	1720.56
593.92	1773.64
594.121	1748.65
594.322	1736.25
594.523	1744
594.724	1689.75
594.925	1696.92
595.126	1710.48
595.327	1757.95
595.528	1725.98
595.729	1694.4
595.929	1708.93
596.13	1745.36
596.331	1726.95
596.532	1757.95
596.733	1794.76
596.934	1772.67
597.135	1775.19
597.335	1789.34
597.536	1721.52
597.737	1710.68
597.938	1694.4
598.138	1749.81
598.339	1750.59
598.54	1748.46
598.74	1688.2
598.941	1662.63
599.142	1755.04
599.342	1738.19
599.543	1663.4
599.744	1726.37
599.944	1676.77
600.145	1690.14
600.345	1697.89
600.546	1793.02
600.746	1764.73
600.947	1787.79
601.147	1678.51
601.348	1760.08
601.548	1682.78
601.749	1700.02
601.949	1654.68
602.15	1643.25
602.35	1681.42
602.551	1719.01
602.751	1644.61
602.951	1676.19
603.152	1603.15
603.352	1698.08
603.552	1678.32
603.753	1726.37
603.953	1756.59
604.153	1700.41
604.354	1671.54
604.554	1717.46
604.754	1702.93
604.954	1651.97
605.155	1723.85
605.355	1675.61
605.555	1718.42
605.755	1748.84
605.955	1687.62
606.155	1714.16
606.356	1682.97
606.556	1730.24
606.756	1683.36
606.956	1638.02
607.156	1724.24
607.356	1643.25
607.556	1670.96
607.756	1655.07
607.956	1752.14
608.156	1706.22
608.356	1624.46
608.556	1705.83
608.756	1639.38
608.956	1614
609.156	1638.99
609.356	1613.03
609.556	1630.08
609.755	1636.66
609.955	1571.56
610.155	1637.83
610.355	1645.38
610.555	1582.22
610.755	1598.11
610.954	1489.22
611.154	1582.8
611.354	1611.67
611.554	1580.09
611.753	1560.33
611.953	1538.43
612.153	1591.33
612.352	1588.81
612.552	1525.26
612.752	1477.6
612.951	1564.2
613.151	1567.69
613.351	1524.48
613.55	1549.48
613.75	1537.27
613.949	1525.45
614.149	1543.47
614.348	1525.26
614.548	1475.27
