Data from gum_old_FLMT105791__148__15-46-37-252.txt Node

Date: Mon Mar 20 15:46:37 GMT 2023
User: antho
Spectrometer: FLMT10579
Trigger mode: 0
Integration Time (sec): 1.000000E-1
Scans to average: 10
Electric dark correction enabled: true
Nonlinearity correction enabled: false
Boxcar width: 0
XAxis mode: Wavelengths
Number of Pixels in Spectrum: 3648
>>>>>Begin Spectral Data<<<<<
345.248	-188.58
345.464	-188.58
345.681	-188.58
345.898	-211.64
346.114	-181.22
346.331	-61.87
346.548	45.85
346.764	-9.17
346.981	-19.63
347.197	-10.33
347.414	10.2
347.631	-22.93
347.847	58.06
348.064	29.38
348.28	61.55
348.497	-61.87
348.713	-19.25
348.93	25.12
349.146	55.35
349.363	-7.23
349.579	30.35
349.796	2.84
350.012	-43.46
350.229	51.08
350.445	21.25
350.661	7.49
350.878	-7.81
351.094	4
351.311	22.8
351.527	22.6
351.743	11.75
351.96	16.79
352.176	41.98
352.392	21.64
352.609	20.09
352.825	8.85
353.041	3.23
353.257	8.07
353.474	9.62
353.69	12.53
353.906	6.52
354.122	-20.41
354.339	70.85
354.555	35.97
354.771	-21.38
354.987	77.82
355.203	61.93
355.42	-0.84
355.636	-7.23
355.852	21.64
356.068	43.33
356.284	-43.46
356.5	70.27
356.716	10.4
356.932	24.15
357.148	45.27
357.364	6.14
357.58	58.45
357.796	79.76
358.012	61.74
358.228	54.77
358.444	-53.73
358.66	47.02
358.876	33.26
359.092	-13.24
359.308	34.23
359.524	45.27
359.74	0.9
359.956	12.53
360.172	16.02
360.388	84.02
360.604	24.93
360.819	82.28
361.035	39.85
361.251	32.48
361.467	5.17
361.683	49.53
361.898	32.87
362.114	64.45
362.33	45.66
362.546	76.47
362.762	47.21
362.977	39.46
363.193	-7.43
363.409	77.24
363.624	4.97
363.84	27.84
364.056	5.17
364.271	43.53
364.487	44.5
364.703	21.44
364.918	-14.4
365.134	6.91
365.35	12.53
365.565	133.81
365.781	35
365.996	45.27
366.212	97.78
366.427	72.59
366.643	2.84
366.858	23.38
367.074	6.72
367.289	93.32
367.505	134.78
367.72	-13.05
367.936	27.84
368.151	41.78
368.367	57.48
368.582	45.47
368.798	29.97
369.013	101.46
369.228	40.82
369.444	39.65
369.659	104.95
369.874	68.33
370.09	117.54
370.305	-17.5
370.52	27.84
370.736	84.8
370.951	60.19
371.166	75.3
371.381	112.31
371.597	66
371.812	3.23
372.027	12.72
372.242	39.85
372.458	114.05
372.673	7.49
372.888	25.7
373.103	84.6
373.318	120.06
373.533	66.97
373.749	50.7
373.964	-14.21
374.179	94.68
374.394	14.85
374.609	78.4
374.824	30.35
375.039	78.02
375.254	21.64
375.469	100.3
375.684	58.83
375.899	97.2
376.114	53.6
376.329	52.05
376.544	79.57
376.759	83.83
376.974	44.5
377.189	33.45
377.404	46.43
377.619	125.1
377.834	2.84
378.049	13.89
378.264	12.34
378.478	70.85
378.693	37.91
378.908	58.45
379.123	25.12
379.338	101.27
379.553	61.74
379.767	57.09
379.982	82.86
380.197	62.71
380.412	63.1
380.626	91.97
380.841	136.72
381.056	61.16
381.271	112.31
381.485	42.75
381.7	26.29
381.915	72.2
382.129	48.37
382.344	49.73
382.559	33.45
382.773	96.62
382.988	11.37
383.202	79.76
383.417	16.02
383.632	155.51
383.846	40.43
384.061	65.42
384.275	22.02
384.49	93.71
384.704	92.55
384.919	74.72
385.133	50.31
385.348	79.76
385.562	50.12
385.777	96.23
385.991	69.68
386.206	55.35
386.42	56.32
386.634	120.83
386.849	112.31
387.063	73.17
387.277	30.35
387.492	44.88
387.706	28.42
387.92	55.73
388.135	67.94
388.349	86.15
388.563	87.9
388.778	67.36
388.992	65.42
389.206	85.18
389.42	151.25
389.635	91.19
389.849	99.33
390.063	121.41
390.277	97.97
390.491	147.18
390.706	103.98
390.92	132.07
391.134	79.57
391.348	110.18
391.562	33.45
391.776	83.25
391.99	51.47
392.205	121.41
392.419	68.91
392.633	68.52
392.847	137.5
393.061	66
393.275	126.84
393.489	68.13
393.703	63.48
393.917	111.34
394.131	58.06
394.345	97.58
394.559	117.35
394.773	78.02
394.986	101.07
395.2	80.53
395.414	158.23
395.628	69.49
395.842	101.07
396.056	88.48
396.27	37.13
396.484	109.6
396.697	106.11
396.911	131.88
397.125	117.54
397.339	123.74
397.553	66.97
397.766	154.16
397.98	134.4
398.194	131.1
398.408	94.1
398.621	141.18
398.835	137.3
399.049	115.22
399.262	180.12
399.476	180.12
399.69	174.11
399.903	216.35
400.117	146.99
400.331	171.6
400.544	153.19
400.758	264.4
400.971	177.41
401.185	208.99
401.398	125.48
401.612	199.5
401.826	190.97
402.039	202.21
402.253	168.88
402.466	211.51
402.68	170.05
402.893	165.01
403.106	208.6
403.32	165.4
403.533	202.4
403.747	146.02
403.96	198.33
404.174	209.96
404.387	130.33
404.6	158.42
404.814	232.43
405.027	183.61
405.24	181.09
405.454	145.44
405.667	209.76
405.88	128.78
406.094	176.63
406.307	236.89
406.52	204.14
406.733	150.09
406.947	140.01
407.16	220.61
407.373	248.9
407.586	149.31
407.799	155.71
408.012	233.01
408.226	175.08
408.439	228.17
408.652	148.15
408.865	203.76
409.078	253.36
409.291	243.48
409.504	155.51
409.717	260.33
409.93	231.27
410.143	232.43
410.357	145.63
410.57	141.95
410.783	184.38
410.996	196.59
411.209	162.3
411.421	237.86
411.634	235.34
411.847	181.28
412.06	222.16
412.273	190.39
412.486	241.73
412.699	307.02
412.912	217.71
413.125	240.76
413.338	239.6
413.55	245.8
413.763	216.35
413.976	236.11
414.189	192.91
414.402	229.91
414.615	280.09
414.827	204.53
415.04	276.41
415.253	216.16
415.466	310.12
415.678	324.27
415.891	230.11
416.104	240.38
416.316	235.34
416.529	202.4
416.742	253.74
416.954	259.75
417.167	252
417.38	226.81
417.592	274.67
417.805	223.52
418.017	171.79
418.23	250.26
418.442	229.53
418.655	205.89
418.868	247.16
419.08	268.66
419.293	269.63
419.505	241.93
419.718	264.01
419.93	306.25
420.142	226.23
420.355	283.19
420.567	293.07
420.78	273.7
420.992	235.53
421.205	294.82
421.417	212.67
421.629	245.03
421.842	230.3
422.054	204.14
422.266	275.06
422.479	311.09
422.691	243.48
422.903	272.93
423.115	226.23
423.328	237.66
423.54	252.39
423.752	254.33
423.964	256.46
424.177	270.79
424.389	238.83
424.601	380.84
424.813	278.93
425.025	294.04
425.238	300.82
425.45	229.33
425.662	231.08
425.874	608.3
426.086	268.47
426.298	285.91
426.51	284.36
426.722	276.8
426.934	254.13
427.146	294.43
427.358	218.09
427.57	284.36
427.782	290.75
427.994	254.33
428.206	265.56
428.418	235.53
428.63	312.26
428.842	319.62
429.054	286.49
429.266	315.16
429.478	237.66
429.69	256.84
429.902	201.05
430.114	273.7
430.325	279.71
430.537	239.79
430.749	232.63
430.961	208.79
431.173	223.71
431.384	264.21
431.596	151.64
431.808	206.66
432.02	260.72
432.231	311.29
432.443	334.34
432.655	344.03
432.867	258.78
433.078	300.24
433.29	358.37
433.502	338.22
433.713	361.47
433.925	318.07
434.136	354.49
434.348	271.96
434.56	226.62
434.771	384.14
434.983	264.01
435.194	296.17
435.406	290.75
435.617	343.84
435.829	416.88
436.04	371.16
436.252	346.36
436.463	372.12
436.675	380.65
436.886	376.77
437.098	353.33
437.309	430.25
437.521	354.11
437.732	346.55
437.943	346.55
438.155	359.72
438.366	305.47
438.578	406.22
438.789	318.26
439	345.77
439.211	319.04
439.423	364.18
439.634	371.16
439.845	352.94
440.057	370.57
440.268	397.31
440.479	355.66
440.69	388.2
440.902	336.28
441.113	338.22
441.324	339.77
441.535	394.02
441.746	415.72
441.957	346.16
442.168	348.68
442.38	418.04
442.591	407.77
442.802	361.47
443.013	381.04
443.224	421.34
443.435	377.55
443.646	383.75
443.857	390.34
444.068	349.07
444.279	357.98
444.49	469.97
444.701	390.14
444.912	488.57
445.123	448.46
445.334	409.13
445.545	432.38
445.756	396.15
445.967	343.06
446.178	410.1
446.388	435.29
446.599	450.2
446.81	440.32
447.021	404.29
447.232	443.81
447.443	453.89
447.653	371.54
447.864	487.98
448.075	430.44
448.286	455.05
448.496	455.05
448.707	457.18
448.918	409.9
449.129	518.02
449.339	435.67
449.55	450.4
449.761	432.77
449.971	492.25
450.182	416.69
450.393	460.09
450.603	433.54
450.814	461.83
451.024	494.96
451.235	471.13
451.446	525.18
451.656	531.38
451.867	456.02
452.077	477.52
452.288	525.77
452.498	527.51
452.709	409.52
452.919	485.85
453.13	453.5
453.34	507.36
453.55	424.24
453.761	497.09
453.971	491.28
454.182	476.55
454.392	453.89
454.602	558.51
454.813	479.46
455.023	493.22
455.233	418.04
455.444	451.75
455.654	407
455.864	448.46
456.075	435.09
456.285	460.09
456.495	462.8
456.705	508.91
456.916	543.98
457.126	535.45
457.336	480.04
457.546	417.46
457.756	427.54
457.967	517.63
458.177	482.17
458.387	489.34
458.597	457.18
458.807	474.42
459.017	456.79
459.227	480.04
459.437	444.39
459.647	512.59
459.857	503.68
460.068	459.12
460.278	545.53
460.488	487.02
460.698	531.38
460.908	478.3
461.117	450.4
461.327	488.95
461.537	519.95
461.747	498.64
461.957	497.87
462.167	596.29
462.377	550.95
462.587	533.71
462.797	579.05
463.007	501.74
463.216	577.5
463.426	591.06
463.636	548.82
463.846	472.1
464.056	506
464.265	550.76
464.475	502.32
464.685	511.23
464.895	553.47
465.104	499.22
465.314	546.69
465.524	518.79
465.733	479.65
465.943	614.5
466.153	604.04
466.362	564.13
466.572	540.68
466.782	513.17
466.991	543.01
467.201	570.71
467.41	470.35
467.62	563.55
467.829	526.73
468.039	543.01
468.249	526.54
468.458	553.47
468.668	586.99
468.877	571.3
469.086	613.92
469.296	603.26
469.505	546.5
469.715	660.42
469.924	590.09
470.134	659.45
470.343	634.26
470.552	556.57
470.762	550.76
470.971	527.9
471.18	575.75
471.39	574.98
471.599	544.75
471.808	619.15
472.018	583.89
472.227	654.61
472.436	657.51
472.645	600.94
472.855	600.55
473.064	677.86
473.273	654.8
473.482	637.36
473.691	680.18
473.901	648.02
474.11	631.36
474.319	712.73
474.528	639.88
474.737	720.68
474.946	654.41
475.155	674.56
475.364	741.6
475.573	660.61
475.783	686.58
475.992	711.38
476.201	734.24
476.41	676.69
476.619	662.36
476.828	682.7
477.037	664.68
477.245	667.01
477.454	716.8
477.663	691.23
477.872	676.69
478.081	793.33
478.29	680.18
478.499	822.2
478.708	736.56
478.917	824.33
479.125	746.06
479.334	737.34
479.543	743.54
479.752	760.59
479.961	785.19
480.169	791.39
480.378	755.36
480.587	892.14
480.796	824.72
481.004	773.76
481.213	790.81
481.422	787.13
481.63	803.79
481.839	824.33
482.048	878.97
482.256	816.77
482.465	847.58
482.674	846.61
482.882	866.76
483.091	895.44
483.299	857.85
483.508	864.63
483.716	833.82
483.925	835.18
484.134	825.69
484.342	845.84
484.551	896.21
484.759	858.62
484.967	861.72
485.176	912.29
485.384	889.82
485.593	911.71
485.801	858.24
486.01	868.12
486.218	803.21
486.426	755.94
486.635	773.18
486.843	773.76
487.051	773.96
487.26	774.54
487.468	828.2
487.676	838.86
487.885	817.35
488.093	831.5
488.301	871.22
488.509	892.72
488.717	946.97
488.926	879.74
489.134	904.35
489.342	906.09
489.55	857.65
489.758	893.11
489.967	899.7
490.175	1002.19
490.383	905.9
490.591	1036.68
490.799	930.89
491.007	996.76
491.215	985.14
491.423	972.35
491.631	945.81
491.839	957.05
492.047	1015.95
492.255	942.32
492.463	899.7
492.671	896.99
492.879	973.32
493.087	952.78
493.295	974.68
493.503	963.83
493.711	1022.73
493.919	1023.31
494.127	1043.65
494.334	1067.68
494.542	950.85
494.75	1011.49
494.958	1021.56
495.166	1051.21
495.374	1062.64
495.581	1037.65
495.789	1057.21
495.997	1118.83
496.205	1011.68
496.412	1026.02
496.62	1017.11
496.828	1054.89
497.035	1025.83
497.243	1085.5
497.451	1045.59
497.658	1037.45
497.866	1062.06
498.074	1124.83
498.281	1016.33
498.489	1139.56
498.696	1052.18
498.904	1014.98
499.112	1034.74
499.319	1140.91
499.527	1039.39
499.734	1107.98
499.942	1017.69
500.149	1062.06
500.357	1080.27
500.564	1048.69
500.771	1077.75
500.979	1022.92
501.186	995.41
501.394	1065.93
501.601	1059.35
501.808	1073.68
502.016	1046.75
502.223	1024.28
502.43	1079.49
502.638	1034.16
502.845	996.96
503.052	1126.19
503.26	1060.9
503.467	1140.72
503.674	1071.36
503.881	1090.54
504.089	1175.4
504.296	1101.78
504.503	1039.39
504.71	1077.56
504.917	1043.07
505.125	1127.35
505.332	1076.78
505.539	1109.91
505.746	1187.22
505.953	1139.17
506.16	1122.7
506.367	1200.97
506.574	1220.93
506.781	1218.22
506.988	1125.41
507.195	1146.92
507.402	1112.43
507.609	1194.58
507.816	1133.16
508.023	1131.61
508.23	1116.69
508.437	1084.92
508.644	1161.26
508.851	1193.42
509.058	1186.64
509.265	1158.54
509.472	1178.69
509.679	1271.11
509.885	1146.34
510.092	1179.08
510.299	1162.03
510.506	1138.59
510.713	1195.16
510.92	1166.29
511.126	1201.75
511.333	1229.07
511.54	1215.31
511.746	1255.22
511.953	1271.11
512.16	1267.82
512.367	1198.84
512.573	1211.24
512.78	1237.4
512.987	1217.44
513.193	1176.37
513.4	1144.4
513.606	1176.37
513.813	1245.15
514.02	1221.12
514.226	1268.01
514.433	1234.49
514.639	1155.64
514.846	1220.93
515.052	1178.89
515.259	1205.04
515.465	1220.74
515.672	1223.45
515.878	1342.22
516.085	1227.52
516.291	1323.42
516.497	1259.29
516.704	1214.34
516.91	1201.56
517.117	1138.39
517.323	1125.61
517.529	1114.18
517.736	1152.93
517.942	1149.05
518.148	1138.59
518.354	1201.17
518.561	1193.61
518.767	1214.34
518.973	1240.69
519.179	1257.16
519.386	1217.06
519.592	1209.69
519.798	1217.06
520.004	1351.13
520.21	1274.99
520.417	1324.97
520.623	1350.35
520.829	1354.03
521.035	1330.79
521.241	1348.61
521.447	1379.8
521.653	1480.36
521.859	1336.21
522.065	1404.99
522.271	1482.88
522.477	1439.48
522.683	1490.05
522.889	1402.67
523.095	1442
523.301	1413.52
523.507	1387.36
523.713	1436.57
523.919	1410.61
524.125	1479.2
524.331	1471.64
524.537	1529.57
524.742	1529.38
524.948	1553.4
525.154	1546.62
525.36	1630.32
525.566	1539.64
525.772	1573.16
525.977	1503.03
526.183	1555.92
526.389	1615.59
526.595	1541.19
526.8	1520.46
527.006	1459.63
527.212	1441.03
527.417	1399.76
527.623	1432.11
527.829	1498.38
528.034	1517.36
528.24	1491.6
528.446	1538.29
528.651	1611.33
528.857	1590.6
529.062	1645.04
529.268	1602.22
529.473	1633.03
529.679	1648.53
529.884	1700.26
530.09	1689.02
530.295	1681.27
530.501	1685.15
530.706	1676.04
530.912	1656.09
531.117	1670.04
531.323	1687.09
531.528	1717.7
531.733	1752.19
531.939	1693.29
532.144	1761.68
532.35	1721.38
532.555	1803.72
532.76	1732.04
532.966	1754.32
533.171	1689.8
533.376	1664.22
533.581	1611.14
533.787	1688.64
533.992	1711.89
534.197	1760.52
534.402	1699.68
534.607	1725.45
534.813	1841.31
535.018	1730.29
535.223	1746.37
535.428	1766.33
535.633	1775.63
535.838	1794.42
536.043	1812.05
536.249	1890.33
536.454	1809.73
536.659	1843.63
536.864	1779.7
537.069	1766.33
537.274	1822.32
537.479	1802.75
537.684	1824.07
537.889	1742.69
538.094	1872.7
538.299	1771.37
538.504	1799.27
538.708	1813.41
538.913	1877.73
539.118	1779.5
539.323	1846.35
539.528	1792.68
539.733	1800.43
539.938	1827.75
540.142	1864.75
540.347	1804.3
540.552	1770.2
540.757	1807.02
540.962	1771.17
541.166	1725.06
541.371	1701.04
541.576	1738.43
541.781	1711.3
541.985	1823.87
542.19	1774.47
542.395	1873.47
542.599	1928.5
542.804	1825.23
543.008	1918.23
543.213	1852.35
543.418	1799.46
543.622	1879.09
543.827	1767.49
544.031	1922.3
544.236	1943.8
544.44	1877.93
544.645	1963.95
544.849	1865.53
545.054	1911.45
545.258	1968.6
545.463	1938.96
545.667	1845.96
545.872	1940.51
546.076	1921.91
546.281	1913
546.485	1870.18
546.689	1906.6
546.894	1925.4
547.098	1896.14
547.302	1852.74
547.507	1889.36
547.711	1897.11
547.915	1944.77
548.119	1848.09
548.324	1845.77
548.528	1944.58
548.732	1852.35
548.936	1958.14
549.141	1923.85
549.345	1906.21
549.549	1914.55
549.753	1881.03
549.957	2029.63
550.161	1990.3
550.366	1964.92
550.57	1873.28
550.774	1920.16
550.978	1907.96
551.182	1907.18
551.386	1861.65
551.59	1883.35
551.794	1885.29
551.998	1898.46
552.202	1898.27
552.406	1892.07
552.61	1950.2
552.814	1878.12
553.018	2012.58
553.222	1891.1
553.426	1910.09
553.63	2000.18
553.833	1865.14
554.037	1852.55
554.241	1917.26
554.445	1918.81
554.649	1931.21
554.853	1852.93
555.056	1957.17
555.26	1951.94
555.464	1926.75
555.668	1942.83
555.871	1929.46
556.075	1947.48
556.279	1892.85
556.483	1869.01
556.686	1925.01
556.89	1884.71
557.094	1930.82
557.297	1826
557.501	1915.51
557.704	1813.41
557.908	1883.16
558.112	1848.87
558.315	1922.1
558.519	1843.25
558.722	1860.1
558.926	1824.26
559.129	1767.49
559.333	1742.3
559.536	1803.53
559.74	1754.12
559.943	1756.84
560.147	1748.5
560.35	1769.82
560.553	1768.85
560.757	1725.64
560.96	1865.53
561.164	1770.59
561.367	1893.81
561.57	1793.65
561.774	1836.66
561.977	1740.95
562.18	1752.38
562.384	1861.07
562.587	1771.37
562.79	1726.61
562.993	1737.65
563.197	1765.17
563.4	1849.06
563.603	1811.47
563.806	1866.69
564.009	1756.84
564.212	1773.11
564.416	1693.29
564.619	1779.12
564.822	1688.25
565.025	1801.2
565.228	1712.08
565.431	1726.42
565.634	1649.11
565.837	1654.73
566.04	1705.69
566.243	1668.1
566.446	1570.06
566.649	1692.9
566.852	1615.98
567.055	1631.67
567.258	1701.42
567.461	1744.82
567.664	1718.67
567.867	1615.98
568.07	1671.97
568.273	1657.44
568.475	1720.22
568.678	1625.28
568.881	1614.24
569.084	1620.44
569.287	1522.98
569.489	1546.81
569.692	1621.79
569.895	1620.82
570.098	1564.25
570.3	1543.91
570.503	1497.99
570.706	1524.53
570.909	1494.11
571.111	1457.5
571.314	1487.53
571.516	1509.81
571.719	1500.9
571.922	1490.24
572.124	1498.76
572.327	1513.1
572.529	1467.18
572.732	1461.76
572.935	1531.89
573.137	1568.13
573.34	1474.74
573.542	1559.99
573.745	1526.08
573.947	1499.73
574.15	1475.9
574.352	1420.1
574.554	1506.71
574.757	1452.85
574.959	1445.1
575.162	1461.18
575.364	1431.73
575.566	1544.88
575.769	1435.99
575.971	1430.95
576.173	1352.48
576.376	1431.15
576.578	1456.91
576.78	1499.93
576.982	1361.2
577.185	1431.34
577.387	1394.92
577.589	1346.48
577.791	1434.05
577.993	1468.15
578.196	1380.58
578.398	1432.89
578.6	1456.72
578.802	1341.83
579.004	1340.86
579.206	1336.4
579.408	1363.53
579.61	1355.78
579.812	1418.17
580.014	1312.77
580.216	1371.08
580.418	1367.21
580.62	1321.68
580.822	1293.78
581.024	1358.3
581.226	1372.05
581.428	1324.39
581.63	1440.06
581.832	1326.52
582.034	1395.11
582.236	1337.37
582.438	1378.45
582.64	1399.76
582.841	1409.45
583.043	1451.88
583.245	1385.81
583.447	1369.34
583.649	1333.3
583.85	1378.83
584.052	1405.38
584.254	1318.39
584.456	1359.85
584.657	1297.27
584.859	1337.57
585.061	1330.79
585.262	1304.24
585.464	1289.71
585.666	1359.46
585.867	1295.14
586.069	1359.07
586.27	1321.29
586.472	1290.68
586.674	1295.91
586.875	1296.3
587.077	1282.74
587.278	1295.52
587.48	1292.23
587.681	1394.72
587.883	1281.38
588.084	1214.92
588.285	1253.29
588.487	1265.69
588.688	1299.2
588.89	1197.49
589.091	1200.2
589.292	1220.16
589.494	1194
589.695	1158.74
589.896	1088.41
590.098	1078.14
590.299	1184.89
590.5	1092.48
590.702	1163.19
590.903	1153.12
591.104	1248.25
591.305	1196.52
591.507	1267.04
591.708	1212.21
591.909	1181.41
592.11	1258.71
592.311	1187.61
592.512	1181.41
592.714	1144.4
592.915	1142.27
593.116	1156.22
593.317	1186.64
593.518	1172.69
593.719	1178.89
593.92	1203.3
594.121	1214.15
594.322	1190.9
594.523	1163
594.724	1142.27
594.925	1187.99
595.126	1205.04
595.327	1183.92
595.528	1228.49
595.729	1155.25
595.929	1140.14
596.13	1146.34
596.331	1188.19
596.532	1186.83
596.733	1220.54
596.934	1204.85
597.135	1233.52
597.335	1207.56
597.536	1160.29
597.737	1165.71
597.938	1158.16
598.138	1165.91
598.339	1161.84
598.54	1181.21
598.74	1162.61
598.941	1176.56
599.142	1228.68
599.342	1188.77
599.543	1143.04
599.744	1116.69
599.944	1144.21
600.145	1140.72
600.345	1182.37
600.546	1237.79
600.746	1234.69
600.947	1249.22
601.147	1168.23
601.348	1229.65
601.548	1160.87
601.749	1186.06
601.949	1101.39
602.15	1116.11
602.35	1162.81
602.551	1200.78
602.751	1113.01
602.951	1136.46
603.152	1078.33
603.352	1185.47
603.552	1143.04
603.753	1174.82
603.953	1161.26
604.153	1149.05
604.354	1144.01
604.554	1109.14
604.754	1141.88
604.954	1129.48
605.155	1154.67
605.355	1144.98
605.555	1188.38
605.755	1212.21
605.955	1147.5
606.155	1199.04
606.356	1140.14
606.556	1169.78
606.756	1162.23
606.956	1085.31
607.156	1189.35
607.356	1088.99
607.556	1127.35
607.756	1127.74
607.956	1157.19
608.156	1147.89
608.356	1085.69
608.556	1137.23
608.756	1148.08
608.956	1055.47
609.156	1112.82
609.356	1080.66
609.556	1059.35
609.755	1103.33
609.955	1096.74
610.155	1102.36
610.355	1081.43
610.555	1104.68
610.755	1087.05
610.954	1001.61
611.154	1080.85
611.354	1123.67
611.554	1074.46
611.753	1056.05
611.953	993.86
612.153	1094.41
612.352	1097.51
612.552	1023.11
612.752	965.18
612.951	1047.72
613.151	1042.68
613.351	1012.26
613.55	1036.29
613.75	1057.99
613.949	1041.33
614.149	1047.33
614.348	1010.91
614.548	1014.98
614.747	989.98
614.947	976.81
615.146	958.21
615.346	1061.48
615.545	1050.05
615.745	1003.93
615.944	1057.99
616.144	1028.15
