Data from gum_old_FLMT105791__192__15-48-19-249.txt Node

Date: Mon Mar 20 15:48:19 GMT 2023
User: antho
Spectrometer: FLMT10579
Trigger mode: 0
Integration Time (sec): 1.000000E-1
Scans to average: 10
Electric dark correction enabled: true
Nonlinearity correction enabled: false
Boxcar width: 0
XAxis mode: Wavelengths
Number of Pixels in Spectrum: 3648
>>>>>Begin Spectral Data<<<<<
345.248	-177
345.464	-177
345.681	-177
345.898	-196.57
346.114	-199.09
346.331	-52.81
346.548	26.24
346.764	-6.89
346.981	-5.54
347.197	-3.02
347.414	20.62
347.631	-24.53
347.847	85.91
348.064	-3.79
348.28	-6.89
348.497	-31.11
348.713	1.82
348.93	28.76
349.146	43.48
349.363	-2.63
349.579	34.37
349.796	21.97
350.012	-0.89
350.229	45.61
350.445	16.16
350.661	-15.61
350.878	3.96
351.094	48.91
351.311	46.39
351.527	35.92
351.743	23.91
351.96	32.63
352.176	58.4
352.392	60.72
352.609	43.48
352.825	2.99
353.041	31.47
353.257	15
353.474	30.31
353.69	35.15
353.906	13.64
354.122	-31.31
354.339	81.84
354.555	27.21
354.771	5.51
354.987	81.26
355.203	78.16
355.42	9.96
355.636	3.96
355.852	-15.03
356.068	14.22
356.284	-29.76
356.5	101.22
356.716	72.93
356.932	5.7
357.148	51.04
357.364	27.4
357.58	70.02
357.796	100.05
358.012	93.85
358.228	45.81
358.444	-45.64
358.66	79.9
358.876	46
359.092	-3.41
359.308	23.14
359.524	44.84
359.74	-0.31
359.956	12.48
360.172	44.64
360.388	78.74
360.604	19.07
360.819	106.84
361.035	37.86
361.251	50.65
361.467	6.28
361.683	46.58
361.898	49.68
362.114	61.3
362.33	19.65
362.546	61.69
362.762	39.61
362.977	64.79
363.193	-23.75
363.409	75.45
363.624	0.86
363.84	39.02
364.056	17.91
364.271	30.11
364.487	42.51
364.703	21.78
364.918	-7.28
365.134	16.94
365.35	36.31
365.565	148.49
365.781	44.64
365.996	64.79
366.212	131.05
366.427	36.89
366.643	27.21
366.858	52.59
367.074	0.86
367.289	127.76
367.505	166.12
367.72	3.18
367.936	22.17
368.151	101.99
368.367	85.52
368.582	59.17
368.798	39.99
369.013	104.32
369.228	70.02
369.444	41.74
369.659	107.03
369.874	93.66
370.09	107.42
370.305	-6.31
370.52	26.04
370.736	113.23
370.951	76.22
371.166	92.11
371.381	159.15
371.597	99.28
371.812	37.86
372.027	27.59
372.242	68.47
372.458	146.36
372.673	58.2
372.888	34.57
373.103	86.49
373.318	96.57
373.533	75.45
373.749	63.63
373.964	-7.48
374.179	96.95
374.394	24.3
374.609	130.09
374.824	18.68
375.039	113.62
375.254	23.72
375.469	119.62
375.684	59.17
375.899	117.1
376.114	58.2
376.329	95.79
376.544	100.25
376.759	92.3
376.974	48.13
377.189	74.29
377.404	47.94
377.619	122.92
377.834	19.46
378.049	54.91
378.264	28.37
378.478	80.49
378.693	72.15
378.908	118.27
379.123	50.07
379.338	126.99
379.553	94.44
379.767	89.2
379.982	103.15
380.197	83.78
380.412	99.28
380.626	69.25
380.841	165.54
381.056	85.33
381.271	155.47
381.485	62.27
381.7	68.09
381.915	106.45
382.129	78.35
382.344	101.41
382.559	47.36
382.773	107.22
382.988	-3.99
383.202	86.49
383.417	48.91
383.632	168.83
383.846	62.08
384.061	68.28
384.275	75.64
384.49	85.52
384.704	80.68
384.919	94.24
385.133	78.16
385.348	106.25
385.562	59.56
385.777	122.72
385.991	83
386.206	67.89
386.42	45.03
386.634	124.47
386.849	97.34
387.063	114.97
387.277	66.34
387.492	63.24
387.706	64.99
387.92	43.29
388.135	108.19
388.349	115.75
388.563	98.7
388.778	114.59
388.992	83.39
389.206	108.19
389.42	174.26
389.635	99.09
389.849	133.19
390.063	168.83
390.277	141.9
390.491	164.57
390.706	146.36
390.92	123.69
391.134	141.13
391.348	157.6
391.562	64.21
391.776	95.02
391.99	105.29
392.205	177.36
392.419	87.85
392.633	151.59
392.847	184.33
393.061	94.05
393.275	163.8
393.489	99.28
393.703	77.58
393.917	143.84
394.131	52.97
394.345	100.44
394.559	147.33
394.773	99.09
394.986	122.53
395.2	132.8
395.414	160.7
395.628	107.22
395.842	157.79
396.056	127.76
396.27	105.48
396.484	170
396.697	133.19
396.911	146.36
397.125	124.08
397.339	127.95
397.553	109.16
397.766	177.75
397.98	153.53
398.194	184.53
398.408	169.8
398.621	174.45
398.835	207
399.049	210.3
399.262	244.01
399.476	224.63
399.69	213.78
399.903	288.76
400.117	202.16
400.331	238
400.544	186.08
400.758	340.88
400.971	227.54
401.185	263.96
401.398	201
401.612	284.11
401.826	241.88
402.039	287.99
402.253	198.28
402.466	260.86
402.68	233.16
402.893	263.96
403.106	258.54
403.32	232.77
403.533	274.23
403.747	229.86
403.96	264.74
404.174	294.19
404.387	208.75
404.6	268.61
404.814	305.62
405.027	240.71
405.24	233.16
405.454	252.92
405.667	281.6
405.88	190.15
406.094	292.06
406.307	290.12
406.52	268.42
406.733	215.53
406.947	217.08
407.16	324.99
407.373	321.31
407.586	262.41
407.799	236.65
408.012	284.31
408.226	266.68
408.439	334.29
408.652	221.73
408.865	291.48
409.078	351.93
409.291	325.38
409.504	267.06
409.717	335.65
409.93	318.99
410.143	302.52
410.357	237.61
410.57	204.48
410.783	233.55
410.996	281.6
411.209	258.35
411.421	346.5
411.634	327.9
411.847	281.6
412.06	336.23
412.273	304.07
412.486	308.33
412.699	410.05
412.912	330.42
413.125	326.54
413.338	337.2
413.55	368.78
413.763	320.15
413.976	321.7
414.189	303.3
414.402	294
414.615	403.85
414.827	297.68
415.04	381.18
415.253	351.93
415.466	367.23
415.678	363.94
415.891	345.53
416.104	317.83
416.316	316.66
416.529	315.31
416.742	379.44
416.954	399.59
417.167	316.86
417.38	333.33
417.592	361.81
417.805	315.69
418.017	288.57
418.23	377.69
418.442	302.33
418.655	310.27
418.868	353.28
419.08	385.25
419.293	399.78
419.505	382.93
419.718	367.23
419.93	388.54
420.142	338.75
420.355	391.45
420.567	389.13
420.78	367.81
420.992	349.41
421.205	446.67
421.417	326.16
421.629	354.06
421.842	349.79
422.054	305.62
422.266	410.82
422.479	425.36
422.691	360.45
422.903	419.16
423.115	346.5
423.328	355.61
423.54	365.68
423.752	338.94
423.964	372.66
424.177	407.34
424.389	377.89
424.601	508.28
424.813	393.19
425.025	425.16
425.238	424.39
425.45	371.88
425.662	362
425.874	713.85
426.086	394.94
426.298	424.97
426.51	411.79
426.722	396.29
426.934	391.06
427.146	465.27
427.358	376.73
427.57	432.14
427.782	384.48
427.994	401.91
428.206	378.08
428.418	358.51
428.63	421.48
428.842	455
429.054	411.6
429.266	421.48
429.478	368.2
429.69	401.72
429.902	347.66
430.114	414.89
430.325	405.59
430.537	338.56
430.749	322.86
430.961	291.09
431.173	306.2
431.384	363.94
431.596	256.6
431.808	378.08
432.02	395.71
432.231	473.41
432.443	521.65
432.655	488.9
432.867	427.49
433.078	476.89
433.29	513.51
433.502	499.95
433.713	516.03
433.925	506.73
434.136	526.88
434.348	431.75
434.56	368.59
434.771	534.05
434.983	401.72
435.194	459.65
435.406	477.86
435.617	529.79
435.829	573.19
436.04	516.03
436.252	528.04
436.463	559.62
436.675	566.4
436.886	551.87
437.098	542.96
437.309	613.48
437.521	530.95
437.732	535.99
437.943	526.69
438.155	541.22
438.366	465.27
438.578	571.25
438.789	494.14
439	529.01
439.211	497.62
439.423	523.59
439.634	526.69
439.845	564.08
440.057	562.53
440.268	600.7
440.479	525.72
440.69	574.74
440.902	538.7
441.113	544.32
441.324	548.58
441.535	612.32
441.746	634.22
441.957	536.76
442.168	565.24
442.38	636.93
442.591	652.82
442.802	570.09
443.013	592.95
443.224	641.19
443.435	600.31
443.646	601.08
443.857	594.3
444.068	588.49
444.279	562.53
444.49	682.46
444.701	653.78
444.912	727.99
445.123	698.93
445.334	657.27
445.545	657.08
445.756	638.09
445.967	597.98
446.178	631.5
446.388	655.92
446.599	638.67
446.81	661.92
447.021	607.87
447.232	696.8
447.443	673.16
447.653	596.43
447.864	700.48
448.075	690.01
448.286	715.98
448.496	656.3
448.707	722.37
448.918	664.25
449.129	775.84
449.339	647.97
449.55	706.29
449.761	682.85
449.971	724.11
450.182	696.6
450.393	730.7
450.603	699.7
450.814	775.65
451.024	724.89
451.235	782.24
451.446	769.64
451.656	807.43
451.867	724.5
452.077	733.41
452.288	797.16
452.498	802.58
452.709	715.4
452.919	748.33
453.13	673.74
453.34	731.28
453.55	646.42
453.761	728.96
453.971	720.63
454.182	722.76
454.392	719.85
454.602	799.09
454.813	774.49
455.023	755.69
455.233	701.25
455.444	723.73
455.654	645.84
455.864	745.04
456.075	715.01
456.285	689.63
456.495	726.05
456.705	726.25
456.916	811.11
457.126	840.17
457.336	759.57
457.546	703.58
457.756	738.26
457.967	806.65
458.177	732.64
458.387	768.48
458.597	701.83
458.807	736.13
459.017	761.89
459.227	704.55
459.437	713.85
459.647	775.84
459.857	803.36
460.068	755.5
460.278	789.79
460.488	795.8
460.698	855.67
460.908	796.96
461.117	741.16
461.327	753.18
461.537	797.16
461.747	828.93
461.957	793.09
462.167	911.47
462.377	868.26
462.587	798.32
462.797	886.47
463.007	810.53
463.216	872.33
463.426	872.91
463.636	858.19
463.846	782.24
464.056	819.24
464.265	858.57
464.475	790.76
464.685	838.62
464.895	853.15
465.104	835.52
465.314	870.78
465.524	797.54
465.733	784.56
465.943	904.88
466.153	897.13
466.362	859.93
466.572	857.8
466.782	810.53
466.991	867.29
467.201	898.68
467.41	758.41
467.62	843.85
467.829	825.25
468.039	872.91
468.249	846.17
468.458	889.77
468.668	880.08
468.877	879.5
469.086	953.9
469.296	929.1
469.505	887.25
469.715	971.92
469.924	931.04
470.134	944.4
470.343	927.74
470.552	925.22
470.762	915.15
470.971	869.23
471.18	893.26
471.39	941.3
471.599	877.56
471.808	956.03
472.018	907.21
472.227	999.82
472.436	1004.47
472.645	959.9
472.855	932.97
473.064	1036.63
473.273	1040.5
473.482	1003.11
473.691	1057.17
473.901	1012.6
474.11	965.91
474.319	1098.63
474.528	1012.02
474.737	1130.01
474.946	1061.62
475.155	1061.62
475.364	1104.44
475.573	1096.88
475.783	1093.98
475.992	1109.48
476.201	1121.49
476.41	1075.57
476.619	1074.41
476.828	1077.32
477.037	1070.53
477.245	1078.67
477.454	1148.23
477.663	1102.31
477.872	1132.15
478.081	1184.46
478.29	1118.2
478.499	1254.59
478.708	1204.61
478.917	1220.88
479.125	1162.56
479.334	1226.89
479.543	1175.35
479.752	1242.58
479.961	1209.64
480.169	1235.22
480.378	1192.4
480.587	1392.93
480.796	1267.96
481.004	1248.59
481.213	1275.32
481.422	1290.24
481.63	1287.14
481.839	1314.66
482.048	1358.06
482.256	1341.01
482.465	1329.38
482.674	1341.2
482.882	1359.61
483.091	1414.63
483.299	1332.48
483.508	1353.02
483.716	1350.89
483.925	1389.25
484.134	1316.79
484.342	1325.31
484.551	1398.55
484.759	1379.95
484.967	1398.94
485.176	1407.65
485.384	1402.81
485.593	1408.04
485.801	1386.15
486.01	1356.7
486.218	1295.47
486.426	1190.08
486.635	1188.33
486.843	1173.61
487.051	1228.63
487.26	1220.69
487.468	1318.14
487.676	1328.22
487.885	1340.04
488.093	1373.17
488.301	1434.2
488.509	1424.9
488.717	1475.66
488.926	1439.43
489.134	1429.35
489.342	1420.83
489.55	1402.23
489.758	1419.09
489.967	1445.24
490.175	1560.91
490.383	1483.41
490.591	1597.14
490.799	1534.17
491.007	1565.75
491.215	1524.87
491.423	1536.88
491.631	1517.12
491.839	1551.22
492.047	1558.39
492.255	1448.73
492.463	1458.03
492.671	1474.3
492.879	1547.35
493.087	1525.07
493.295	1558.2
493.503	1588.81
493.711	1641.89
493.919	1645.77
494.127	1609.15
494.334	1638.02
494.542	1535.92
494.75	1602.76
494.958	1624.65
495.166	1690.14
495.374	1670.38
495.581	1688.78
495.789	1695.37
495.997	1743.61
496.205	1623.68
496.412	1633.18
496.62	1671.34
496.828	1677.16
497.035	1700.41
497.243	1730.05
497.451	1726.76
497.658	1707.58
497.866	1726.76
498.074	1760.66
498.281	1693.43
498.489	1771.51
498.696	1662.82
498.904	1642.48
499.112	1651.58
499.319	1761.24
499.527	1688.01
499.734	1775.39
499.942	1669.41
500.149	1696.53
500.357	1748.46
500.564	1673.48
500.771	1725.01
500.979	1654.68
501.186	1661.27
501.394	1709.51
501.601	1663.59
501.808	1713.58
502.016	1654.88
502.223	1653.91
502.43	1677.93
502.638	1654.29
502.845	1675.99
503.052	1762.79
503.26	1679.48
503.467	1803.87
503.674	1767.06
503.881	1804.06
504.089	1848.04
504.296	1775.19
504.503	1713.39
504.71	1730.82
504.917	1721.33
505.125	1734.12
505.332	1772.09
505.539	1761.44
505.746	1870.52
505.953	1893.18
506.16	1845.91
506.367	1924.18
506.574	1942.78
506.781	1921.47
506.988	1830.02
507.195	1851.14
507.402	1835.06
507.609	1888.92
507.816	1807.94
508.023	1841.26
508.23	1809.49
508.437	1765.51
508.644	1851.72
508.851	1896.67
509.058	1884.27
509.265	1851.92
509.472	1885.82
509.679	1965.84
509.885	1888.34
510.092	1925.93
510.299	1926.12
510.506	1901.52
510.713	1892.8
510.92	1855.4
511.126	1917.21
511.333	1970.68
511.54	1943.56
511.746	1992.58
511.953	2009.43
512.16	2024.55
512.367	1973.59
512.573	1974.56
512.78	1990.45
512.987	1935.23
513.193	1924.18
513.4	1886.98
513.606	1906.55
513.813	1934.84
514.02	1936.97
514.226	2006.14
514.433	1986.18
514.639	1887.57
514.846	1943.37
515.052	1921.08
515.259	1994.13
515.465	1975.91
515.672	1935.62
515.878	2063.29
516.085	1995.68
516.291	2011.56
516.497	1993.55
516.704	1990.45
516.91	1900.16
517.117	1888.15
517.323	1732.37
517.529	1782.36
517.736	1786.62
517.942	1802.51
518.148	1799.02
518.354	1889.12
518.561	1895.12
518.767	1862.57
518.973	1916.63
519.179	1921.67
519.386	1926.9
519.592	1914.11
519.798	1941.23
520.004	2071.43
520.21	1987.93
520.417	2043.73
520.623	2115.61
520.829	2089.64
521.035	2100.49
521.241	2105.34
521.447	2140.6
521.653	2289.59
521.859	2119.09
522.065	2136.92
522.271	2263.63
522.477	2200.47
522.683	2241.93
522.889	2234.37
523.095	2173.73
523.301	2166.76
523.507	2133.04
523.713	2182.84
523.919	2114.83
524.125	2251.04
524.331	2211.12
524.537	2321.37
524.742	2287.46
524.948	2295.21
525.154	2338.8
525.36	2436.26
525.566	2347.91
525.772	2380.85
525.977	2289.79
526.183	2360.5
526.389	2351.78
526.595	2305.29
526.8	2298.5
527.006	2224.49
527.212	2117.54
527.417	2098.75
527.623	2102.43
527.829	2178.77
528.034	2222.36
528.24	2239.41
528.446	2242.32
528.651	2333.96
528.857	2388.4
529.062	2432.19
529.268	2422.11
529.473	2426.76
529.679	2452.73
529.884	2544.56
530.09	2458.93
530.295	2475.01
530.501	2496.13
530.706	2498.64
530.912	2431.8
531.117	2486.05
531.323	2524.03
531.528	2591.26
531.733	2557.16
531.939	2538.94
532.144	2575.56
532.35	2554.64
532.555	2574.79
532.76	2533.52
532.966	2479.08
533.171	2457.38
533.376	2414.95
533.581	2402.74
533.787	2504.07
533.992	2513.95
534.197	2543.4
534.402	2531
534.607	2542.24
534.813	2645.89
535.018	2532.16
535.223	2555.22
535.428	2537.39
535.633	2616.64
535.838	2617.22
536.043	2599.39
536.249	2698.2
536.454	2595.91
536.659	2664.11
536.864	2628.84
537.069	2590.09
537.274	2609.86
537.479	2594.55
537.684	2622.06
537.889	2550.38
538.094	2711.19
538.299	2611.02
538.504	2600.17
538.708	2642.99
538.913	2662.17
539.118	2634.85
539.323	2659.84
539.528	2596.49
539.733	2580.79
539.938	2597.26
540.142	2642.99
540.347	2593
540.552	2559.68
540.757	2568.39
540.962	2574.01
541.166	2470.16
541.371	2512.4
541.576	2577.5
541.781	2458.54
541.985	2624.58
542.19	2610.24
542.395	2708.28
542.599	2730.17
542.804	2693.55
543.008	2681.93
543.213	2632.52
543.418	2541.85
543.622	2671.47
543.827	2578.47
544.031	2668.76
544.236	2705.95
544.44	2672.63
544.645	2774.35
544.849	2682.32
545.054	2748.39
545.258	2805.93
545.463	2797.98
545.667	2666.24
545.872	2701.69
546.076	2731.72
546.281	2740.25
546.485	2649.77
546.689	2735.79
546.894	2742.77
547.098	2692.39
547.302	2660.81
547.507	2703.05
547.711	2717
547.915	2763.69
548.119	2672.44
548.324	2671.86
548.528	2767.18
548.732	2681.74
548.936	2749.55
549.141	2764.08
549.345	2682.9
549.549	2715.64
549.753	2723.39
549.957	2808.25
550.161	2832.08
550.366	2770.08
550.57	2751.87
550.774	2721.65
550.978	2739.86
551.182	2758.65
551.386	2699.75
551.59	2752.26
551.794	2676.5
551.998	2745.09
552.202	2706.73
552.406	2648.61
552.61	2747.61
552.814	2781.9
553.018	2789.07
553.222	2763.11
553.426	2723
553.63	2782.1
553.833	2704.99
554.037	2650.16
554.241	2725.91
554.445	2756.72
554.649	2754
554.853	2682.32
555.056	2802.44
555.26	2804.57
555.464	2758.85
555.668	2735.02
555.871	2784.23
556.075	2773.96
556.279	2686
556.483	2697.62
556.686	2704.4
556.89	2691.04
557.094	2704.02
557.297	2635.62
557.501	2706.73
557.704	2569.36
557.908	2715.84
558.112	2610.44
558.315	2699.17
558.519	2689.49
558.722	2615.47
558.926	2590.87
559.129	2529.84
559.333	2502.91
559.536	2566.26
559.74	2522.67
559.943	2543.98
560.147	2531.39
560.35	2542.82
560.553	2515.5
560.757	2488.18
560.96	2590.48
561.164	2546.31
561.367	2656.55
561.57	2580.02
561.774	2625.36
561.977	2558.71
562.18	2536.62
562.384	2648.02
562.587	2533.13
562.79	2530.61
562.993	2534.49
563.197	2559.68
563.4	2620.71
563.603	2644.92
563.806	2639.69
564.009	2549.41
564.212	2586.99
564.416	2481.4
564.619	2558.51
564.822	2475.98
565.025	2554.83
565.228	2494
565.431	2524.8
565.634	2453.31
565.837	2466.48
566.04	2452.34
566.243	2481.01
566.446	2366.51
566.649	2437.23
566.852	2373.87
567.055	2434.13
567.258	2446.72
567.461	2532.55
567.664	2479.27
567.867	2436.65
568.07	2437.23
568.273	2475.4
568.475	2498.45
568.678	2379.68
568.881	2388.21
569.084	2385.88
569.287	2273.51
569.489	2323.11
569.692	2410.3
569.895	2387.63
570.098	2307.42
570.3	2310.52
570.503	2247.35
570.706	2297.92
570.909	2269.05
571.111	2237.28
571.314	2183.22
571.516	2230.11
571.719	2271.57
571.922	2205.7
572.124	2236.31
572.327	2236.12
572.529	2226.82
572.732	2216.36
572.935	2277
573.137	2367.28
573.34	2245.42
573.542	2297.54
573.745	2258.59
573.947	2274.48
574.15	2240.77
574.352	2219.26
574.554	2314.97
574.757	2237.09
574.959	2195.04
575.162	2206.47
575.364	2179.54
575.566	2293.85
575.769	2167.14
575.971	2177.02
576.173	2063.1
576.376	2145.83
576.578	2220.23
576.78	2239.02
576.982	2076.66
577.185	2180.51
577.387	2104.56
577.589	2111.54
577.791	2203.57
577.993	2151.64
578.196	2168.11
578.398	2167.92
578.6	2196.4
578.802	2090.23
579.004	2071.63
579.206	2065.43
579.408	2130.91
579.61	2085.77
579.812	2148.35
580.014	2073.76
580.216	2090.23
580.418	2108.83
580.62	2114.25
580.822	2040.82
581.024	2094.1
581.226	2140.79
581.428	2110.76
581.63	2201.44
581.832	2083.06
582.034	2156.29
582.236	2148.35
582.438	2147.19
582.64	2192.72
582.841	2212.48
583.043	2210.74
583.245	2138.47
583.447	2156.49
583.649	2110.96
583.85	2110.18
584.052	2112.7
584.254	2077.63
584.456	2174.7
584.657	2053.41
584.859	2123.74
585.061	2043.73
585.262	2077.44
585.464	2040.05
585.666	2109.21
585.867	2030.94
586.069	2107.08
586.27	2019.9
586.472	2036.75
586.674	2017.18
586.875	2015.05
587.077	1976.88
587.278	2008.08
587.48	2038.11
587.681	2161.72
587.883	2088.68
588.084	1974.36
588.285	2022.22
588.487	1966.03
588.688	2027.65
588.89	1929.8
589.091	1878.07
589.292	1895.51
589.494	1823.44
589.695	1786.24
589.896	1765.31
590.098	1742.06
590.299	1805.61
590.5	1778.49
590.702	1770.54
590.903	1805.22
591.104	1911.78
591.305	1857.73
591.507	1922.83
591.708	1879.82
591.909	1908.49
592.11	1955.96
592.311	1942.4
592.512	1880.98
592.714	1871.49
592.915	1818.59
593.116	1843.78
593.317	1853.08
593.518	1856.76
593.719	1881.56
593.92	1918.95
594.121	1971.46
594.322	1881.17
594.523	1855.21
594.724	1835.45
594.925	1859.09
595.126	1879.04
595.327	1886.21
595.528	1864.51
595.729	1881.17
595.929	1880.59
596.13	1895.32
596.331	1904.03
596.532	1879.82
596.733	1941.82
596.934	1920.7
597.135	1913.33
597.335	1925.93
597.536	1834.29
597.737	1869.35
597.938	1882.92
598.138	1889.12
598.339	1876.14
598.54	1874.2
598.74	1867.22
598.941	1863.54
599.142	1950.53
599.342	1893.96
599.543	1812.78
599.744	1837.39
599.944	1844.75
600.145	1841.84
600.345	1830.99
600.546	1903.84
600.746	1912.95
600.947	1955.18
601.147	1869.55
601.348	1912.56
601.548	1815.1
601.749	1861.8
601.949	1816.85
602.15	1780.23
602.35	1815.69
602.551	1858.89
602.751	1771.32
602.951	1777.52
603.152	1754.27
603.352	1865.87
603.552	1826.92
603.753	1851.72
603.953	1896.28
604.153	1860.25
604.354	1839.32
604.554	1819.95
604.754	1856.95
604.954	1801.15
605.155	1881.37
605.355	1827.5
605.555	1841.84
605.755	1887.76
605.955	1802.32
606.155	1878.85
606.356	1820.34
606.556	1864.9
606.756	1829.25
606.956	1742.26
607.156	1870.32
607.356	1797.67
607.556	1833.12
607.756	1790.89
607.956	1872.45
608.156	1798.83
608.356	1801.54
608.556	1839.32
608.756	1752.52
608.956	1757.95
609.156	1789.53
609.356	1746.13
609.556	1750.39
609.755	1766.86
609.955	1746.71
610.155	1750.39
610.355	1765.31
610.555	1753.49
610.755	1722.69
610.954	1683.36
611.154	1761.05
611.354	1769.77
611.554	1723.07
611.753	1703.89
611.953	1684.91
612.153	1753.3
612.352	1726.17
612.552	1634.53
612.752	1666.69
612.951	1701.18
613.151	1700.02
613.351	1661.27
613.55	1692.66
613.75	1693.04
613.949	1717.84
614.149	1712.42
614.348	1660.49
614.548	1634.73
