Data from gum_old_FLMT105791__40__15-43-02-258.txt Node

Date: Mon Mar 20 15:43:02 GMT 2023
User: antho
Spectrometer: FLMT10579
Trigger mode: 0
Integration Time (sec): 1.000000E-1
Scans to average: 10
Electric dark correction enabled: true
Nonlinearity correction enabled: false
Boxcar width: 0
XAxis mode: Wavelengths
Number of Pixels in Spectrum: 3648
>>>>>Begin Spectral Data<<<<<
345.248	-175.68
345.464	-175.68
345.681	-175.68
345.898	-155.34
346.114	-167.35
346.331	-34.05
346.548	28.72
346.764	-6.93
346.981	-7.12
347.197	-18.94
347.414	23.3
347.631	-20.88
347.847	47.71
348.064	2.95
348.28	18.65
348.497	-44.71
348.713	11.29
348.93	41.12
349.146	46.16
349.363	16.71
349.579	50.62
349.796	31.63
350.012	20.39
350.229	54.3
350.445	42.48
350.661	18.26
350.878	25.62
351.094	44.61
351.311	57.59
351.527	74.64
351.743	16.71
351.96	62.24
352.176	56.04
352.392	44.61
352.609	73.48
352.825	15.94
353.041	32.79
353.257	41.9
353.474	48.87
353.69	49.45
353.906	41.51
354.122	20.78
354.339	98.86
354.555	53.14
354.771	34.15
354.987	75.22
355.203	88.59
355.42	44.61
355.636	31.63
355.852	19.81
356.068	45.77
356.284	11.29
356.5	116.49
356.716	66.12
356.932	32.4
357.148	80.07
357.364	30.08
357.58	79.87
357.796	96.92
358.012	90.72
358.228	62.63
358.444	-23.01
358.66	79.68
358.876	59.72
359.092	26.4
359.308	84.33
359.524	75.61
359.74	38.6
359.956	26.4
360.172	35.5
360.388	112.42
360.604	45
360.819	124.63
361.035	72.51
361.251	78.71
361.467	43.06
361.683	77.16
361.898	78.52
362.114	94.02
362.33	62.05
362.546	91.88
362.762	52.75
362.977	82.2
363.193	48.1
363.409	109.32
363.624	51.59
363.84	36.47
364.056	68.83
364.271	86.27
364.487	83.75
364.703	64.76
364.918	51.2
365.134	54.69
365.35	57.98
365.565	180.81
365.781	101.38
365.996	97.5
366.212	139.93
366.427	117.27
366.643	88.78
366.858	74.06
367.074	61.85
367.289	150.01
367.505	213.95
367.72	80.84
367.936	60.3
368.151	133.54
368.367	102.54
368.582	86.65
368.798	90.72
369.013	145.75
369.228	113.39
369.444	102.73
369.659	180.23
369.874	114.17
370.09	156.6
370.305	57.01
370.52	101.18
370.736	174.61
370.951	95.76
371.166	159.89
371.381	178.68
371.597	136.25
371.812	90.14
372.027	88.2
372.242	97.12
372.458	152.14
372.673	83.36
372.888	88.78
373.103	138.58
373.318	179.26
373.533	109.32
373.749	122.11
373.964	58.75
374.179	175.39
374.394	61.47
374.609	151.37
374.824	81.62
375.039	120.75
375.254	78.32
375.469	138.38
375.684	97.12
375.899	160.86
376.114	121.72
376.329	135.28
376.544	127.73
376.759	131.8
376.974	93.24
377.189	126.95
377.404	101.96
377.619	138.38
377.834	90.53
378.049	123.27
378.264	97.5
378.478	151.95
378.693	124.63
378.908	184.11
379.123	115.13
379.338	178.1
379.553	159.5
379.767	154.85
379.982	138.77
380.197	157.76
380.412	122.69
380.626	145.17
380.841	210.65
381.056	183.33
381.271	198.45
381.485	130.44
381.7	107
381.915	163.38
382.129	120.75
382.344	144.97
382.559	88.59
382.773	166.48
382.988	65.92
383.202	109.71
383.417	80.65
383.632	193.41
383.846	102.15
384.061	129.28
384.275	109.32
384.49	138
384.704	169.38
384.919	148.46
385.133	156.79
385.348	188.37
385.562	139.16
385.777	214.33
385.991	147.68
386.206	150.59
386.42	144.78
386.634	212.01
386.849	159.5
387.063	167.64
387.277	156.79
387.492	130.05
387.706	106.8
387.92	129.86
388.135	200
388.349	171.9
388.563	179.07
388.778	182.56
388.992	194.38
389.206	189.92
389.42	254.24
389.635	195.15
389.849	224.8
390.063	254.05
390.277	212.59
390.491	283.69
390.706	215.3
390.92	243.78
391.134	217.05
391.348	258.31
391.562	181.2
391.776	214.14
391.99	227.51
392.205	295.9
392.419	202.51
392.633	225.18
392.847	255.79
393.061	166.48
393.275	236.61
393.489	152.53
393.703	154.08
393.917	167.25
394.131	133.15
394.345	157.56
394.559	213.36
394.773	200.77
394.986	240.1
395.2	226.15
395.414	255.6
395.628	225.18
395.842	258.31
396.056	256.76
396.27	186.43
396.484	245.33
396.697	244.56
396.911	236.23
397.125	206.78
397.339	205.61
397.553	178.3
397.766	253.66
397.98	243.01
398.194	283.31
398.408	266.45
398.621	313.34
398.835	335.42
399.049	349.76
399.262	398.97
399.476	367.78
399.69	385.8
399.903	476.47
400.117	347.24
400.331	394.52
400.544	376.11
400.758	473.37
400.971	398.59
401.185	418.93
401.398	343.76
401.612	431.33
401.826	430.94
402.039	435.2
402.253	391.42
402.466	475.31
402.68	452.25
402.893	459.81
403.106	439.66
403.32	391.03
403.533	448.38
403.747	435.01
403.96	444.7
404.174	466.59
404.387	378.82
404.6	441.6
404.814	481.12
405.027	435.59
405.24	437.34
405.454	424.35
405.667	475.12
405.88	393.74
406.094	443.73
406.307	489.84
406.52	443.15
406.733	404.01
406.947	404.4
407.16	502.24
407.373	452.06
407.586	408.08
407.799	433.46
408.012	482.67
408.226	482.48
408.439	512.51
408.652	419.32
408.865	507.47
409.078	537.31
409.291	519.87
409.504	476.28
409.717	540.99
409.93	519.87
410.143	507.28
410.357	451.67
410.57	410.41
410.783	450.51
410.996	474.15
411.209	466.98
411.421	549.52
411.634	513.09
411.847	502.63
412.06	527.23
412.273	583.23
412.486	562.3
412.699	638.45
412.912	541.18
413.125	574.51
413.338	568.89
413.55	564.63
413.763	541.18
413.976	565.79
414.189	531.69
414.402	532.47
414.615	645.03
414.827	541.18
415.04	581.68
415.253	575.87
415.466	601.83
415.678	663.63
415.891	590.78
416.104	558.04
416.316	581.29
416.529	544.28
416.742	597.95
416.954	620.23
417.167	588.46
417.38	593.11
417.592	601.44
417.805	525.88
418.017	577.03
418.23	620.04
418.442	561.72
418.655	566.76
418.868	600.47
419.08	632.05
419.293	632.83
419.505	602.6
419.718	608.22
419.93	621.59
420.142	608.03
420.355	622.75
420.567	628.56
420.78	596.21
420.992	582.84
421.205	688.43
421.417	594.27
421.629	666.15
421.842	634.18
422.054	603.38
422.266	693.66
422.479	691.73
422.691	595.63
422.903	638.06
423.115	601.83
423.328	613.84
423.54	636.7
423.752	629.34
423.964	613.84
424.177	640.19
424.389	613.84
424.601	703.93
424.813	669.06
425.025	678.16
425.238	707.42
425.45	658.4
425.662	631.86
425.874	941.66
426.086	651.23
426.298	678.74
426.51	688.04
426.722	658.01
426.934	654.33
427.146	681.26
427.358	624.88
427.57	671.19
427.782	652.78
427.994	626.05
428.206	610.74
428.418	629.53
428.63	718.27
428.842	737.26
429.054	711.68
429.266	666.15
429.478	611.9
429.69	634.96
429.902	598.92
430.114	656.08
430.325	593.69
430.537	560.75
430.749	576.25
430.961	482.67
431.173	525.88
431.384	552.62
431.596	468.72
431.808	597.95
432.02	679.71
432.231	779.69
432.443	822.31
432.655	779.11
432.867	720.59
433.078	767.48
433.29	804.68
433.502	769.61
433.713	831.42
433.925	813.79
434.136	844.79
434.348	712.07
434.56	697.54
434.771	816.31
434.983	690.95
435.194	726.21
435.406	796.93
435.617	838.2
435.829	883.34
436.04	844.98
436.252	841.11
436.463	920.93
436.675	906.2
436.886	909.11
437.098	912.4
437.309	962.2
437.521	892.06
437.732	893.61
437.943	838.01
438.155	883.54
438.366	838.01
438.578	909.5
438.789	817.86
439	819.79
439.211	813.98
439.423	854.86
439.634	829.29
439.845	877.92
440.057	891.09
440.268	936.82
440.479	890.9
440.69	905.04
440.902	906.01
441.113	870.94
441.324	870.17
441.535	933.14
441.746	1014.7
441.957	921.9
442.168	984.09
442.38	966.46
442.591	1005.6
442.802	969.37
443.013	968.01
443.224	1002.11
443.435	990.87
443.646	963.55
443.857	963.36
444.068	970.33
444.279	931.97
444.49	1096.85
444.701	999.01
444.912	1109.83
445.123	1070.7
445.334	1012.38
445.545	1059.46
445.756	994.75
445.967	987.19
446.178	991.45
446.388	985.64
446.599	1006.76
446.81	1030.01
447.021	961.42
447.232	1068.18
447.443	1089.49
447.653	1047.25
447.864	1110.41
448.075	1044.73
448.286	1092.01
448.496	1095.3
448.707	1106.93
448.918	1038.15
449.129	1159.04
449.339	1110.41
449.55	1072.44
449.761	1098.21
449.971	1129.21
450.182	1113.13
450.393	1138.7
450.603	1093.36
450.814	1176.48
451.024	1141.99
451.235	1194.31
451.446	1226.86
451.656	1264.06
451.867	1148.19
452.077	1152.84
452.288	1228.41
452.498	1198.38
452.709	1130.37
452.919	1135.79
453.13	1070.89
453.34	1136.18
453.55	1046.86
453.761	1119.91
453.971	1112.35
454.182	1143.16
454.392	1129.01
454.602	1207.09
454.813	1230.92
455.023	1175.32
455.233	1074.96
455.444	1138.12
455.654	1062.95
455.864	1130.37
456.075	1151.88
456.285	1151.49
456.495	1142.58
456.705	1182.1
456.916	1224.72
457.126	1268.71
457.336	1187.91
457.546	1115.06
457.756	1173.96
457.967	1223.95
458.177	1179.19
458.387	1189.66
458.597	1142.77
458.807	1151.29
459.017	1159.82
459.227	1158.27
459.437	1172.99
459.647	1242.36
459.857	1235.96
460.068	1184.23
460.278	1269.67
460.488	1246.81
460.698	1299.32
460.908	1234.61
461.117	1219.88
461.327	1251.85
461.537	1261.92
461.747	1268.32
461.957	1235.19
462.167	1375.07
462.377	1328.38
462.587	1253.79
462.797	1333.42
463.007	1263.67
463.216	1365.97
463.426	1389.8
463.636	1342.91
463.846	1245.65
464.056	1265.41
464.265	1317.72
464.475	1239.26
464.685	1313.46
464.895	1322.95
465.104	1277.42
465.314	1323.54
465.524	1276.07
465.733	1271.03
465.943	1362.09
466.153	1385.34
466.362	1374.3
466.572	1353.76
466.782	1312.69
466.991	1361.12
467.201	1405.3
467.41	1259.79
467.62	1319.27
467.829	1368.29
468.039	1354.73
468.249	1367.52
468.458	1389.99
468.668	1411.11
468.877	1398.71
469.086	1463.62
469.296	1475.05
469.505	1383.02
469.715	1470.2
469.924	1437.46
470.134	1465.36
470.343	1430.68
470.552	1436.1
470.762	1403.75
470.971	1420.22
471.18	1422.54
471.39	1446.18
471.599	1416.92
471.808	1478.53
472.018	1458.58
472.227	1514.96
472.436	1570.95
472.645	1542.47
472.855	1524.06
473.064	1606.79
473.273	1598.08
473.482	1540.73
473.691	1588.97
473.901	1574.63
474.11	1555.06
474.319	1646.32
474.528	1571.53
474.737	1686.42
474.946	1618.03
475.155	1648.84
475.364	1694.37
475.573	1664.14
475.783	1718.39
475.992	1726.34
476.201	1741.84
476.41	1723.62
476.619	1643.22
476.828	1661.04
477.037	1646.9
477.245	1693.01
477.454	1743.77
477.663	1738.35
477.872	1757.34
478.081	1858.28
478.29	1785.82
478.499	1880.56
478.708	1874.55
478.917	1914.85
479.125	1833.87
479.334	1865.25
479.543	1876.88
479.752	1902.65
479.961	1930.16
480.169	1979.18
480.378	1904.2
480.587	2056.48
480.796	1978.98
481.004	1951.08
481.213	2025.48
481.422	2007.27
481.63	2036.53
481.839	2085.16
482.048	2081.67
482.256	2057.06
482.465	2123.71
482.674	2132.82
482.882	2099.49
483.091	2194.24
483.299	2065.59
483.508	2157.04
483.716	2140.18
483.925	2153.55
484.134	2082.25
484.342	2123.13
484.551	2210.32
484.759	2145.02
484.967	2257.78
485.176	2220.2
485.384	2237.05
485.593	2200.82
485.801	2191.14
486.01	2125.65
486.218	2018.51
486.426	1897.8
486.635	1855.18
486.843	1879.2
487.051	1922.02
487.26	1933.45
487.468	2029.36
487.676	2079.54
487.885	2052.22
488.093	2130.11
488.301	2232.02
488.509	2231.44
488.717	2286.85
488.926	2269.8
489.134	2274.64
489.342	2209.35
489.55	2186.68
489.758	2275.8
489.967	2284.72
490.175	2405.03
490.383	2396.12
490.591	2495.51
490.799	2407.55
491.007	2491.83
491.215	2446.88
491.423	2394.76
491.631	2410.26
491.839	2353.5
492.047	2440.88
492.255	2276.19
492.463	2310.68
492.671	2317.07
492.879	2412.2
493.087	2382.36
493.295	2394.38
493.503	2473.43
493.711	2524.57
493.919	2489.89
494.127	2509.46
494.334	2551.51
494.542	2464.51
494.75	2568.36
494.958	2536.2
495.166	2647.6
495.374	2599.36
495.581	2646.44
495.789	2663.3
495.997	2712.7
496.205	2548.6
496.412	2557.71
496.62	2575.14
496.828	2592.19
497.035	2596.26
497.243	2664.85
497.451	2657.29
497.658	2654.58
497.866	2617.96
498.074	2718.9
498.281	2594.91
498.489	2703.98
498.696	2594.13
498.904	2539.69
499.112	2551.7
499.319	2663.49
499.527	2627.65
499.734	2680.74
499.942	2597.23
500.149	2625.32
500.357	2685
500.564	2590.84
500.771	2587.35
500.979	2531.16
501.186	2492.61
501.394	2586.57
501.601	2550.15
501.808	2541.24
502.016	2546.08
502.223	2548.21
502.43	2585.22
502.638	2551.89
502.845	2536.01
503.052	2699.14
503.26	2609.24
503.467	2690.81
503.674	2663.88
503.881	2658.84
504.089	2738.67
504.296	2666.59
504.503	2574.37
504.71	2603.82
504.917	2606.53
505.125	2629.97
505.332	2637.14
505.539	2697.59
505.746	2749.32
505.953	2759.98
506.16	2783.61
506.367	2860.53
506.574	2887.66
506.781	2840.96
506.988	2786.91
507.195	2801.83
507.402	2788.85
507.609	2805.7
507.816	2739.05
508.023	2738.47
508.23	2707.28
508.437	2656.13
508.644	2732.66
508.851	2771.6
509.058	2763.08
509.265	2809.96
509.472	2822.75
509.679	2915.17
509.885	2833.99
510.092	2877.78
510.299	2832.83
510.506	2789.04
510.713	2863.05
510.92	2832.05
511.126	2857.82
511.333	2930.48
511.54	2868.48
511.746	2978.33
511.953	2958.57
512.16	2992.67
512.367	2927.76
512.573	2889.79
512.78	2925.05
512.987	2880.49
513.193	2858.79
513.4	2763.08
513.606	2817.33
513.813	2868.67
514.02	2828.95
514.226	2931.83
514.433	2890.95
514.639	2793.69
514.846	2805.9
515.052	2813.45
515.259	2833.6
515.465	2824.3
515.672	2870.61
515.878	2931.25
516.085	2871.96
516.291	2965.35
516.497	2866.34
516.704	2848.52
516.91	2785.75
517.117	2607.89
517.323	2567.2
517.529	2579.79
517.736	2558.87
517.942	2586.77
518.148	2666.59
518.354	2743.9
518.561	2736.34
518.767	2651.29
518.973	2704.76
519.179	2736.73
519.386	2759.98
519.592	2742.54
519.798	2788.26
520.004	2916.33
520.21	2869.44
520.417	2933.19
520.623	2957.6
520.829	2941.91
521.035	2976.39
521.241	2981.04
521.447	3010.49
521.653	3115.31
521.859	2968.06
522.065	3048.85
522.271	3125.97
522.477	3094.58
522.683	3128.87
522.889	3058.15
523.095	3045.95
523.301	3060.48
523.507	2984.34
523.713	3029.29
523.919	2994.99
524.125	3097.68
524.331	3154.45
524.537	3259.26
524.742	3237.56
524.948	3249
525.154	3243.38
525.36	3330.37
525.566	3213.93
525.772	3286
525.977	3158.32
526.183	3203.47
526.389	3258.49
526.595	3172.27
526.8	3120.15
527.006	2984.53
527.212	2964.38
527.417	2939.39
527.623	2907.03
527.829	2995.38
528.034	3075.98
528.24	3070.36
528.446	3147.47
528.651	3235.24
528.857	3190.48
529.062	3300.14
529.268	3331.92
529.473	3357.11
529.679	3345.48
529.884	3463.47
530.09	3382.1
530.295	3345.87
530.501	3377.64
530.706	3350.91
530.912	3346.64
531.117	3377.26
531.323	3394.31
531.528	3496.22
531.733	3470.84
531.939	3421.24
532.144	3500.48
532.35	3453.59
532.555	3489.82
532.76	3389.85
532.966	3377.06
533.171	3319.52
533.376	3226.91
533.581	3255.97
533.787	3305.38
533.992	3400.89
534.197	3357.11
534.402	3391.01
534.607	3407.67
534.813	3460.96
535.018	3377.06
535.223	3470.06
535.428	3418.33
535.633	3500.48
535.838	3531.48
536.043	3524.89
536.249	3618.47
536.454	3484.4
536.659	3535.35
536.864	3530.12
537.069	3458.63
537.274	3511.91
537.479	3470.84
537.684	3410.39
537.889	3398.76
538.094	3546.79
538.299	3446.81
538.504	3464.44
538.708	3503.97
538.913	3545.43
539.118	3494.09
539.323	3512.88
539.528	3432.67
539.733	3434.22
539.938	3458.63
540.142	3475.49
540.347	3465.41
540.552	3394.69
540.757	3351.49
540.962	3384.04
541.166	3325.72
541.371	3317.58
541.576	3367.38
541.781	3338.7
541.985	3480.33
542.19	3398.76
542.395	3559.38
542.599	3556.67
542.804	3496.22
543.008	3592.51
543.213	3466.96
543.418	3437.9
543.622	3528.96
543.827	3423.76
544.031	3560.93
544.236	3539.04
544.44	3591.54
544.645	3634.36
544.849	3600.26
545.054	3609.37
545.258	3650.05
545.463	3672.91
545.667	3498.54
545.872	3628.55
546.076	3621.77
546.281	3593.67
546.485	3601.62
546.689	3676.79
546.894	3690.55
547.098	3616.34
547.302	3604.52
547.507	3598.71
547.711	3647.53
547.915	3665.36
548.119	3552.4
548.324	3578.56
548.528	3641.33
548.732	3579.92
548.936	3617.5
549.141	3627.77
549.345	3609.37
549.549	3592.7
549.753	3600.26
549.957	3686.28
550.161	3683.38
550.366	3611.11
550.57	3579.14
550.774	3600.26
550.978	3639.78
551.182	3604.33
551.386	3567.13
551.59	3587.67
551.794	3588.25
551.998	3643.47
552.202	3584.76
552.406	3570.23
552.61	3639.78
552.814	3649.66
553.018	3639.59
553.222	3581.85
553.426	3625.06
553.63	3689.19
553.833	3617.89
554.037	3542.33
554.241	3600.45
554.445	3627
554.649	3651.6
554.853	3563.25
555.056	3694.03
555.26	3701.01
555.464	3649.66
555.668	3647.34
555.871	3644.43
556.075	3663.42
556.279	3612.66
556.483	3581.08
556.686	3566.93
556.89	3563.83
557.094	3619.63
557.297	3447.59
557.501	3532.64
557.704	3473.55
557.908	3563.06
558.112	3508.62
558.315	3614.4
558.519	3487.11
558.722	3438.09
558.926	3472.77
559.129	3321.46
559.333	3403.61
559.536	3349.74
559.74	3347.23
559.943	3304.41
560.147	3338.31
560.35	3287.75
560.553	3398.37
560.757	3327.08
560.96	3444.49
561.164	3406.71
561.367	3496.22
561.57	3442.55
561.774	3438.87
561.977	3369.31
562.18	3364.86
562.384	3439.64
562.587	3343.54
562.79	3349.16
562.993	3342.38
563.197	3355.56
563.4	3428.21
563.603	3404.96
563.806	3485.75
564.009	3356.53
564.212	3380.94
564.416	3262.95
564.619	3335.99
564.822	3272.44
565.025	3397.21
565.228	3313.32
565.431	3334.83
565.634	3262.36
565.837	3240.66
566.04	3190.48
566.243	3210.25
566.446	3108.14
566.649	3244.54
566.852	3116.47
567.055	3195.33
567.258	3232.14
567.461	3267.6
567.664	3262.95
567.867	3180.41
568.07	3184.48
568.273	3196.68
568.475	3273.8
568.678	3121.9
568.881	3164.91
569.084	3137.4
569.287	3047.5
569.489	3108.53
569.692	3162
569.895	3180.41
570.098	3042.07
570.3	3005.07
570.503	2987.63
570.706	3012.82
570.909	3013.4
571.111	2905.48
571.314	2951.4
571.516	3011.85
571.719	2941.71
571.922	2937.45
572.124	2963.61
572.327	2988.02
572.529	2940.36
572.732	2985.89
572.935	3038.97
573.137	3092.64
573.34	3013.4
573.542	3121.51
573.745	3057.19
573.947	3038.78
574.15	3015.53
574.352	2999.45
574.554	3091.48
574.757	3013.79
574.959	2932.22
575.162	3010.11
575.364	2931.44
575.566	3047.89
575.769	2922.92
575.971	2976.2
576.173	2778.38
576.376	2904.9
576.578	2933.77
576.78	2941.91
576.982	2841.16
577.185	2933.38
577.387	2872.54
577.589	2901.03
577.791	2909.55
577.993	2925.83
578.196	2883.39
578.398	2926.41
578.6	2878.36
578.802	2794.85
579.004	2837.09
579.206	2781.48
579.408	2868.28
579.61	2778.58
579.812	2907.03
580.014	2828.76
580.216	2790.59
580.418	2860.15
580.62	2839.22
580.822	2781.48
581.024	2858.6
581.226	2924.66
581.428	2844.26
581.63	2958.37
581.832	2823.91
582.034	2891.92
582.236	2825.27
582.438	2913.62
582.64	2913.62
582.841	2929.89
583.043	2989.18
583.245	2915.94
583.447	2932.61
583.649	2916.14
583.85	2895.79
584.052	2938.23
584.254	2804.93
584.456	2931.64
584.657	2808.8
584.859	2879.71
585.061	2856.85
585.262	2860.92
585.464	2801.83
585.666	2914.78
585.867	2799.5
586.069	2873.32
586.27	2848.71
586.472	2801.05
586.674	2761.72
586.875	2773.35
587.077	2744.48
587.278	2840.19
587.48	2759.98
587.681	2919.63
587.883	2802.6
588.084	2710.96
588.285	2786.71
588.487	2747.77
588.688	2727.43
588.89	2670.27
589.091	2613.89
589.292	2593.74
589.494	2508.49
589.695	2486.21
589.896	2432.54
590.098	2412.98
590.299	2488.54
590.5	2486.99
590.702	2529.61
590.903	2569.72
591.104	2668.14
591.305	2642.76
591.507	2654.58
591.708	2686.55
591.909	2635.4
592.11	2711.15
592.311	2678.22
592.512	2619.12
592.714	2586.38
592.915	2604.4
593.116	2659.42
593.317	2659.81
593.518	2630.75
593.719	2679.77
593.92	2663.3
594.121	2712.9
594.322	2656.52
594.523	2643.92
594.724	2610.4
594.925	2651.67
595.126	2634.04
595.327	2628.04
595.528	2661.36
595.729	2655.35
595.929	2646.05
596.13	2643.15
596.331	2655.35
596.532	2682.87
596.733	2724.91
596.934	2713.48
597.135	2699.53
597.335	2717.55
597.536	2648.38
597.737	2671.05
597.938	2642.95
598.138	2663.3
598.339	2658.07
598.54	2657.29
598.74	2610.79
598.941	2596.07
599.142	2693.52
599.342	2648.96
599.543	2635.01
599.744	2621.45
599.944	2605.75
600.145	2602.27
600.345	2628.04
600.546	2656.9
600.746	2680.93
600.947	2705.73
601.147	2616.99
601.348	2671.24
601.548	2582.89
601.749	2607.69
601.949	2563.13
602.15	2590.84
602.35	2583.09
602.551	2618.35
602.751	2526.9
602.951	2563.91
603.152	2481.56
603.352	2613.12
603.552	2604.79
603.753	2618.35
603.953	2634.24
604.153	2602.65
604.354	2631.14
604.554	2597.81
604.754	2618.93
604.954	2544.92
605.155	2637.53
605.355	2600.52
605.555	2661.55
605.755	2687.13
605.955	2610.4
606.155	2625.52
606.356	2604.59
606.556	2616.8
606.756	2587.74
606.956	2532.32
607.156	2632.88
607.356	2548.6
607.556	2642.95
607.756	2566.42
607.956	2628.81
608.156	2585.99
608.356	2545.11
608.556	2601.69
608.756	2535.62
608.956	2510.04
609.156	2584.44
609.356	2504.04
609.556	2506.75
609.755	2523.8
609.955	2456.96
610.155	2517.79
610.355	2527.29
610.555	2500.74
610.755	2480.21
610.954	2430.41
611.154	2453.28
611.354	2522.25
611.554	2460.64
611.753	2508.11
