Data from gum_old_FLMT105791__137__15-46-26-252.txt Node

Date: Mon Mar 20 15:46:26 GMT 2023
User: antho
Spectrometer: FLMT10579
Trigger mode: 0
Integration Time (sec): 1.000000E-1
Scans to average: 10
Electric dark correction enabled: true
Nonlinearity correction enabled: false
Boxcar width: 0
XAxis mode: Wavelengths
Number of Pixels in Spectrum: 3648
>>>>>Begin Spectral Data<<<<<
345.248	-161.68
345.464	-161.68
345.681	-161.68
345.898	-175.83
346.114	-168.85
346.331	-29.16
346.548	14.05
346.764	-6.1
346.981	-3
347.197	-16.18
347.414	22.38
347.631	-53.96
347.847	76.63
348.064	7.27
348.28	17.15
348.497	-29.74
348.713	0.68
348.93	35.17
349.146	9.59
349.363	19.47
349.579	24.51
349.796	15.21
350.012	-11.33
350.229	27.8
350.445	32.07
350.661	5.13
350.878	11.14
351.094	35.94
351.311	30.9
351.527	34.39
351.743	4.75
351.96	62.68
352.176	57.45
352.392	29.93
352.609	33.03
352.825	8.82
353.041	10.95
353.257	1.26
353.474	27.03
353.69	22.96
353.906	12.5
354.122	-16.18
354.339	68.3
354.555	15.98
354.771	10.56
354.987	64.81
355.203	84.18
355.42	2.03
355.636	7.65
355.852	15.4
356.068	32.26
356.284	4.55
356.5	66.75
356.716	8.43
356.932	24.12
357.148	44.08
357.364	49.31
357.58	56.28
357.796	65.39
358.012	77.01
358.228	25.48
358.444	-38.46
358.66	47.95
358.876	34.2
359.092	-9.78
359.308	22.38
359.524	48.34
359.74	30.13
359.956	1.45
360.172	3.78
360.388	64.03
360.604	34.2
360.819	105.3
361.035	36.72
361.251	21.41
361.467	-2.23
361.683	63.26
361.898	62.1
362.114	77.21
362.33	56.09
362.546	83.21
362.762	19.47
362.977	46.21
363.193	-19.08
363.409	96.39
363.624	-11.53
363.84	-16.76
364.056	4.94
364.271	51.25
364.487	17.34
364.703	37.49
364.918	-9.78
365.134	0.87
365.35	14.82
365.565	136.3
365.781	37.68
365.996	65
366.212	136.11
366.427	52.02
366.643	11.53
366.858	30.9
367.074	6.3
367.289	85.73
367.505	143.28
367.72	-9.98
367.936	4.55
368.151	86.12
368.367	61.9
368.582	46.01
368.798	35.17
369.013	71.59
369.228	61.51
369.444	54.93
369.659	102.01
369.874	74.5
370.09	95.03
370.305	-21.02
370.52	51.05
370.736	88.06
370.951	43.88
371.166	87.86
371.381	118.86
371.597	63.65
371.812	-6.3
372.027	7.85
372.242	63.45
372.458	115.38
372.673	36.13
372.888	47.37
373.103	65.58
373.318	137.08
373.533	57.83
373.749	59.96
373.964	-14.43
374.179	83.6
374.394	22.18
374.609	84.18
374.824	-9.2
375.039	108.98
375.254	19.08
375.469	91.74
375.684	41.17
375.899	109.56
376.114	30.71
376.329	44.08
376.544	71.59
376.759	48.92
376.974	33.81
377.189	57.25
377.404	28.58
377.619	103.56
377.834	10.56
378.049	-3
378.264	6.1
378.478	65.2
378.693	31.29
378.908	71.78
379.123	48.53
379.338	73.72
379.553	77.98
379.767	58.41
379.982	84.38
380.197	98.91
380.412	28.19
380.626	96.58
380.841	160.52
381.056	88.83
381.271	140.95
381.485	30.13
381.7	7.85
381.915	80.11
382.129	19.08
382.344	39.82
382.559	35.36
382.773	107.82
382.988	6.68
383.202	70.04
383.417	12.11
383.632	157.81
383.846	55.7
384.061	63.26
384.275	13.85
384.49	52.02
384.704	74.88
384.919	82.05
385.133	66.94
385.348	87.28
385.562	28.58
385.777	123.32
385.991	80.31
386.206	34.58
386.42	38.65
386.634	85.15
386.849	117.51
387.063	74.11
387.277	62.87
387.492	37.1
387.706	6.68
387.92	40.4
388.135	100.26
388.349	85.93
388.563	73.91
388.778	62.68
388.992	80.31
389.206	110.92
389.42	158
389.635	50.66
389.849	107.82
390.063	124.29
390.277	84.38
390.491	155.48
390.706	102.59
390.92	118.28
391.134	83.41
391.348	120.61
391.562	33.62
391.776	87.67
391.99	70.62
392.205	142.69
392.419	92.9
392.633	106.46
392.847	132.04
393.061	38.07
393.275	125.65
393.489	74.69
393.703	54.73
393.917	129.91
394.131	49.5
394.345	91.55
394.559	119.64
394.773	70.04
394.986	102.98
395.2	88.64
395.414	154.9
395.628	48.92
395.842	110.34
396.056	94.26
396.27	64.81
396.484	109.95
396.697	82.83
396.911	122.93
397.125	93.87
397.339	133.39
397.553	76.43
397.766	172.92
397.98	114.41
398.194	141.34
398.408	104.53
398.621	126.61
398.835	144.83
399.049	122.74
399.262	162.84
399.476	175.05
399.69	184.93
399.903	212.64
400.117	149.48
400.331	180.67
400.544	140.56
400.758	262.82
400.971	148.31
401.185	201.79
401.398	139.21
401.612	209.15
401.826	186.87
402.039	205.86
402.253	147.15
402.466	197.91
402.68	149.09
402.893	193.46
403.106	183.77
403.32	180.67
403.533	207.6
403.747	201.79
403.96	193.46
404.174	217.68
404.387	153.54
404.6	175.63
404.814	221.94
405.027	193.26
405.24	175.05
405.454	172.92
405.667	221.74
405.88	161.88
406.094	204.89
406.307	231.24
406.52	206.63
406.733	139.01
406.947	118.86
407.16	228.33
407.373	238.41
407.586	184.16
407.799	139.98
408.012	228.72
408.226	184.93
408.439	228.72
408.652	127.78
408.865	207.6
409.078	260.11
409.291	239.37
409.504	197.14
409.717	254.68
409.93	234.53
410.143	219.81
410.357	178.73
410.57	165.75
410.783	190.36
410.996	200.04
411.209	197.72
411.421	256.42
411.634	212.64
411.847	206.83
412.06	227.56
412.273	218.26
412.486	227.75
412.699	331.99
412.912	236.66
413.125	264.17
413.338	246.93
413.55	267.08
413.763	233.17
413.976	231.62
414.189	207.6
414.402	226.59
414.615	271.73
414.827	215.93
415.04	262.24
415.253	247.71
415.466	277.35
415.678	325.4
415.891	237.24
416.104	231.43
416.316	242.28
416.529	238.79
416.742	257.01
416.954	280.64
417.167	251.39
417.38	248.48
417.592	269.41
417.805	202.18
418.017	183.38
418.23	279.87
418.442	219.22
418.655	238.79
418.868	237.63
419.08	293.24
419.293	291.49
419.505	251.19
419.718	254.1
419.93	296.72
420.142	234.92
420.355	306.02
420.567	283.16
420.78	273.28
420.992	281.81
421.205	322.3
421.417	219.61
421.629	228.52
421.842	245.77
422.054	227.75
422.266	280.45
422.479	301.37
422.691	277.35
422.903	309.51
423.115	234.34
423.328	255.65
423.54	263.79
423.752	232.79
423.964	248.29
424.177	266.11
424.389	253.32
424.601	368.22
424.813	280.06
425.025	293.62
425.238	320.36
425.45	269.6
425.662	255.84
425.874	589.67
426.086	239.57
426.298	304.67
426.51	288.78
426.722	260.69
426.934	259.14
427.146	294.59
427.358	253.32
427.57	280.06
427.782	257.97
427.994	270.37
428.206	261.46
428.418	207.6
428.63	280.45
428.842	306.41
429.054	294.4
429.266	308.15
429.478	270.37
429.69	292.85
429.902	237.24
430.114	306.02
430.325	261.27
430.537	255.65
430.749	241.51
430.961	188.23
431.173	260.49
431.384	261.66
431.596	163.23
431.808	261.46
432.02	275.41
432.231	317.65
432.443	354.27
432.655	298.27
432.867	288.59
433.078	325.01
433.29	390.5
433.502	344
433.713	353.69
433.925	327.92
434.136	365.31
434.348	267.27
434.56	238.6
434.771	377.71
434.983	260.88
435.194	263.59
435.406	320.55
435.617	374.42
435.829	399.99
436.04	384.69
436.252	363.18
436.463	407.35
436.675	378.68
436.886	360.85
437.098	394.57
437.309	445.13
437.521	384.3
437.732	364.73
437.943	352.52
438.155	363.37
438.366	336.64
438.578	406.58
438.789	350.59
439	366.86
439.211	324.04
439.423	345.16
439.634	365.5
439.845	369.77
440.057	376.74
440.268	416.85
440.479	318.81
440.69	374.42
440.902	361.82
441.113	384.3
441.324	335.28
441.535	380.04
441.746	424.21
441.957	323.65
442.168	363.95
442.38	397.86
442.591	401.73
442.802	359.89
443.013	383.72
443.224	435.64
443.435	401.73
443.646	387.79
443.857	402.12
444.068	370.74
444.279	364.34
444.49	473.03
444.701	398.05
444.912	526.7
445.123	449.2
445.334	442.81
445.545	435.83
445.756	422.27
445.967	383.14
446.178	399.41
446.388	441.65
446.599	438.93
446.81	432.93
447.021	385.46
447.232	480.98
447.443	483.69
447.653	382.17
447.864	452.3
448.075	463.35
448.286	448.82
448.496	412.39
448.707	454.05
448.918	410.84
449.129	544.72
449.339	394.95
449.55	455.6
449.761	417.04
449.971	503.45
450.182	456.57
450.393	495.31
450.603	463.73
450.814	504.42
451.024	500.93
451.235	493.57
451.446	545.3
451.656	537.36
451.867	461.22
452.077	499
452.288	527.48
452.498	516.05
452.709	463.54
452.919	481.95
453.13	463.73
453.34	499.77
453.55	415.68
453.761	488.34
453.971	485.63
454.182	509.26
454.392	501.13
454.602	560.22
454.813	508.49
455.023	498.22
455.233	450.37
455.444	499.96
455.654	387.2
455.864	504.03
456.075	459.28
456.285	422.66
456.495	450.37
456.705	481.75
456.916	527.09
457.126	530.58
457.336	488.73
457.546	445.72
457.756	464.12
457.967	534.84
458.177	477.68
458.387	498.8
458.597	471.29
458.807	468.97
459.017	452.88
459.227	477.88
459.437	448.62
459.647	526.7
459.857	530.19
460.068	495.12
460.278	531.35
460.488	519.34
460.698	562.93
460.908	505
461.117	464.32
461.327	498.61
461.537	514.3
461.747	540.46
461.957	522.63
462.167	614.86
462.377	581.34
462.587	496.28
462.797	580.95
463.007	508.88
463.216	556.73
463.426	598.39
463.636	589.86
463.846	515.66
464.056	519.73
464.265	580.95
464.475	498.61
464.685	538.13
464.895	557.9
465.104	517.21
465.314	580.76
465.524	508.3
465.733	499.38
465.943	606.33
466.153	628.03
466.362	585.6
466.572	561.77
466.782	544.14
466.991	568.94
467.201	598.19
467.41	503.45
467.62	557.9
467.829	554.02
468.039	550.92
468.249	561
468.458	587.73
468.668	599.74
468.877	604.39
469.086	618.34
469.296	658.45
469.505	571.65
469.715	651.28
469.924	618.34
470.134	642.76
470.343	640.82
470.552	604.78
470.762	579.98
470.971	563.13
471.18	605.17
471.39	575.91
471.599	560.61
471.808	617.18
472.018	570.29
472.227	661.55
472.436	663.68
472.645	641.01
472.855	588.12
473.064	703.98
473.273	651.28
473.482	676.47
473.691	672.59
473.901	659.61
474.11	627.84
474.319	731.49
474.528	648.76
474.737	744.86
474.946	672.21
475.155	697.01
475.364	733.04
475.573	684.8
475.783	719.87
475.992	727.04
476.201	740.99
476.41	674.92
476.619	655.74
476.828	707.27
477.037	670.66
477.245	718.51
477.454	725.87
477.663	693.52
477.872	705.34
478.081	830.69
478.29	700.49
478.499	842.51
478.708	760.36
478.917	852
479.125	755.13
479.334	776.83
479.543	758.62
479.752	782.45
479.961	758.04
480.169	823.14
480.378	784.97
480.587	927.37
480.796	838.83
481.004	821.39
481.213	853.17
481.422	834.95
481.63	822.17
481.839	862.47
482.048	909.74
482.256	846.58
482.465	846.97
482.674	870.02
482.882	888.43
483.091	956.63
483.299	864.98
483.508	900.83
483.716	853.36
483.925	898.7
484.134	862.08
484.342	846.77
484.551	879.71
484.759	859.56
484.967	913.42
485.176	907.8
485.384	922.72
485.593	939.19
485.801	885.52
486.01	900.05
486.218	825.27
486.426	776.83
486.635	801.63
486.843	770.63
487.051	827.2
487.26	775.09
487.468	845.8
487.676	860.92
487.885	873.7
488.093	888.04
488.301	904.51
488.509	900.44
488.717	953.91
488.926	918.65
489.134	898.89
489.342	939.77
489.55	895.4
489.758	927.76
489.967	912.07
490.175	1011.84
490.383	939.77
490.591	1065.32
490.799	925.63
491.007	1009.91
491.215	969.8
491.423	957.79
491.631	1001.96
491.839	981.62
492.047	1025.99
492.255	926.01
492.463	937.06
492.671	935.31
492.879	1026.57
493.087	955.08
493.295	991.89
493.503	1014.56
493.711	1077.53
493.919	1047.88
494.127	1047.69
494.334	1078.88
494.542	1000.61
494.75	1006.81
494.958	1025.99
495.166	1095.16
495.374	1047.88
495.581	1086.05
495.789	1073.84
495.997	1103.87
496.205	1061.44
496.412	1052.92
496.62	1052.73
496.828	1067.84
497.035	1072.88
497.243	1105.81
497.451	1107.56
497.658	1138.17
497.866	1092.25
498.074	1141.85
498.281	1068.61
498.489	1132.74
498.696	1071.52
498.904	1058.34
499.112	1069.39
499.319	1151.73
499.527	1083.14
499.734	1137.97
499.942	1062.03
500.149	1086.83
500.357	1127.9
500.564	1043.23
500.771	1121.51
500.979	1048.08
501.186	1044.98
501.394	1059.89
501.601	1063.77
501.808	1077.14
502.016	1098.64
502.223	1090.51
502.43	1081.79
502.638	1077.33
502.845	1082.76
503.052	1171.49
503.26	1078.11
503.467	1210.24
503.674	1096.32
503.881	1125.19
504.089	1205.01
504.296	1165.87
504.503	1065.32
504.71	1104.07
504.917	1053.5
505.125	1112.59
505.332	1131.19
505.539	1146.5
505.746	1245.5
505.953	1170.14
506.16	1168.01
506.367	1231.75
506.574	1229.42
506.781	1253.06
506.988	1153.86
507.195	1185.64
507.402	1176.72
507.609	1214.5
507.816	1176.72
508.023	1173.62
508.23	1135.65
508.437	1129.64
508.644	1185.05
508.851	1252.87
509.058	1217.22
509.265	1205.2
509.472	1217.8
509.679	1297.23
509.885	1215.47
510.092	1207.34
510.299	1232.52
510.506	1209.47
510.713	1231.55
510.92	1203.27
511.126	1245.7
511.333	1279.22
511.54	1250.35
511.746	1280.18
511.953	1344.9
512.16	1319.9
512.367	1272.05
512.573	1234.07
512.78	1254.8
512.987	1256.74
513.193	1234.65
513.4	1172.27
513.606	1239.89
513.813	1264.69
514.02	1245.5
514.226	1301.69
514.433	1313.32
514.639	1213.54
514.846	1275.15
515.052	1243.18
515.259	1288.9
515.465	1275.73
515.672	1275.34
515.878	1370.08
516.085	1278.05
516.291	1336.76
516.497	1304.4
516.704	1264.1
516.91	1254.22
517.117	1191.45
517.323	1132.16
517.529	1164.52
517.736	1187.38
517.942	1171.69
518.148	1153.28
518.354	1247.83
518.561	1243.37
518.767	1241.63
518.973	1282.7
519.179	1295.49
519.386	1274.95
519.592	1252.29
519.798	1250.15
520.004	1348.58
520.21	1310.8
520.417	1369.5
520.623	1426.27
520.829	1426.85
521.035	1395.85
521.241	1449.13
521.447	1445.64
521.653	1575.26
521.859	1437.31
522.065	1462.89
522.271	1565.57
522.477	1508.81
522.683	1561.12
522.889	1513.84
523.095	1511.52
523.301	1478.58
523.507	1456.49
523.713	1502.03
523.919	1459.59
524.125	1570.22
524.331	1548.33
524.537	1597.54
524.742	1608.01
524.948	1597.16
525.154	1636.49
525.36	1688.41
525.566	1602.97
525.772	1644.04
525.977	1555.11
526.183	1611.49
526.389	1643.07
526.595	1588.82
526.8	1623.89
527.006	1545.81
527.212	1445.06
527.417	1499.31
527.623	1454.56
527.829	1539.03
528.034	1582.04
528.24	1558.99
528.446	1570.42
528.651	1689.57
528.857	1663.61
529.062	1698.68
529.268	1680.66
529.473	1727.74
529.679	1720.96
529.884	1810.47
530.09	1755.64
530.295	1783.35
530.501	1776.18
530.706	1763.78
530.912	1687.64
531.117	1748.28
531.323	1760.68
531.528	1829.65
531.733	1816.86
531.939	1779.86
532.144	1819.38
532.35	1770.95
532.555	1838.37
532.76	1774.05
532.966	1815.31
533.171	1795.36
533.376	1746.34
533.581	1701.39
533.787	1751.77
533.992	1808.92
534.197	1844.96
534.402	1809.11
534.607	1830.81
534.813	1881.58
535.018	1805.43
535.223	1794.39
535.428	1866.08
535.633	1867.24
535.838	1880.03
536.043	1850.77
536.249	1972.25
536.454	1884.09
536.659	1927.11
536.864	1873.25
537.069	1840.5
537.274	1899.79
537.479	1875.57
537.684	1876.93
537.889	1819
538.094	1983.49
538.299	1865.11
538.504	1873.25
538.708	1926.33
538.913	1934.66
539.118	1894.94
539.323	1968.96
539.528	1876.73
539.733	1892.43
539.938	1893.59
540.142	1928.27
540.347	1874.6
540.552	1824.42
540.757	1869.95
540.962	1872.47
541.166	1814.15
541.371	1823.65
541.576	1859.3
541.781	1805.82
541.985	1870.34
542.19	1893.59
542.395	1971.28
542.599	1986.78
542.804	1942.22
543.008	1965.28
543.213	1899.59
543.418	1876.35
543.622	1934.28
543.827	1900.18
544.031	1940.28
544.236	1995.31
544.44	1965.08
544.645	2053.24
544.849	1967.99
545.054	2003.83
545.258	2039.09
545.463	2032.51
545.667	1936.79
545.872	1977.09
546.076	2009.45
546.281	1991.82
546.485	1974.77
546.689	2013.91
546.894	2026.89
547.098	2008.09
547.302	1930.59
547.507	2003.44
547.711	1961.4
547.915	2005.19
548.119	1953.26
548.324	1941.44
548.528	2023.01
548.732	1958.88
548.936	2017.39
549.141	2032.12
549.345	1986.01
549.549	2004.41
549.753	2023.98
549.957	2061.57
550.161	2083.85
550.366	1992.01
550.57	1975.54
550.774	2016.42
550.978	1997.05
551.182	2049.17
551.386	1980.58
551.59	2010.22
551.794	1977.67
551.998	2006.16
552.202	2010.03
552.406	1962.37
552.61	2051.49
552.814	2049.94
553.018	2063.31
553.222	2014.29
553.426	2028.05
553.63	2090.63
553.833	2013.32
554.037	1966.63
554.241	2040.45
554.445	2036.19
554.649	2006.74
554.853	1983.68
555.056	2026.11
555.26	2055.17
555.464	2008.67
555.668	2020.3
555.871	2037.93
556.075	2060.99
556.279	1987.94
556.483	1973.8
556.686	1998.41
556.89	1977.09
557.094	2023.4
557.297	1959.08
557.501	1998.41
557.704	1909.09
557.908	1984.07
558.112	1920.13
558.315	1994.92
558.519	1970.89
558.722	1923.23
558.926	1905.6
559.129	1864.33
559.333	1877.9
559.536	1841.66
559.74	1843.99
559.943	1794.97
560.147	1821.13
560.35	1820.16
560.553	1849.41
560.757	1799.62
560.96	1951.13
561.164	1879.06
561.367	1964.11
561.57	1861.43
561.774	1885.26
561.977	1862.98
562.18	1840.11
562.384	1977.09
562.587	1883.51
562.79	1823.26
562.993	1855.23
563.197	1876.54
563.4	1904.63
563.603	1941.25
563.806	1932.34
564.009	1847.86
564.212	1863.17
564.416	1779.28
564.619	1871.89
564.822	1758.16
565.025	1861.62
565.228	1800.4
565.431	1765.72
565.634	1716.31
565.837	1767.07
566.04	1746.15
566.243	1725.03
566.446	1671.17
566.649	1769.98
566.852	1695.97
567.055	1737.43
567.258	1787.61
567.461	1835.27
567.664	1828.88
567.867	1682.79
568.07	1761.84
568.273	1773.85
568.475	1820.93
568.678	1719.8
568.881	1695.97
569.084	1707.98
569.287	1616.14
569.489	1649.66
569.692	1688.02
569.895	1715.92
570.098	1652.57
570.3	1618.47
570.503	1552.4
570.706	1604.32
570.909	1595.02
571.111	1556.27
571.314	1584.76
571.516	1552.21
571.719	1569.06
571.922	1578.36
572.124	1582.82
572.327	1566.74
572.529	1517.14
572.732	1509.58
572.935	1618.66
573.137	1661.67
573.34	1574.29
573.542	1617.11
573.745	1605.87
573.947	1532.25
574.15	1574.49
574.352	1534.96
574.554	1627.19
574.757	1552.4
574.959	1509.97
575.162	1545.04
575.364	1493.11
575.566	1631.25
575.769	1482.26
575.971	1533.8
576.173	1418.13
576.376	1510.16
576.578	1540.19
576.78	1590.57
576.982	1423.56
577.185	1494.47
577.387	1444.87
577.589	1467.34
577.791	1511.91
577.993	1513.84
578.196	1472.77
578.398	1483.04
578.6	1506.87
578.802	1399.92
579.004	1421.62
579.206	1406.12
579.408	1466.76
579.61	1415.42
579.812	1478.97
580.014	1466.18
580.216	1411.55
580.418	1427.05
580.62	1394.5
580.822	1342.96
581.024	1393.91
581.226	1463.47
581.428	1407.86
581.63	1488.66
581.832	1415.42
582.034	1437.12
582.236	1431.31
582.438	1449.13
582.64	1462.69
582.841	1492.73
583.043	1510.36
583.245	1459.59
583.447	1419.49
583.649	1407.67
583.85	1432.66
584.052	1441.77
584.254	1372.8
584.456	1459.4
584.657	1356.13
584.859	1421.62
585.061	1390.62
585.262	1369.7
585.464	1336.95
585.666	1406.12
585.867	1343.15
586.069	1406.7
586.27	1369.7
586.472	1381.9
586.674	1357.3
586.875	1335.98
587.077	1358.85
587.278	1373.38
587.48	1346.83
587.681	1434.41
587.883	1383.65
588.084	1303.43
588.285	1349.35
588.487	1314.48
588.688	1348.77
588.89	1271.27
589.091	1249.57
589.292	1309.63
589.494	1258.29
589.695	1218.96
589.896	1144.37
590.098	1143.01
590.299	1201.72
590.5	1140.69
590.702	1173.24
590.903	1179.05
591.104	1267.2
591.305	1255.39
591.507	1309.05
591.708	1275.34
591.909	1223.61
592.11	1354.97
592.311	1272.63
592.512	1230.97
592.714	1217.6
592.915	1185.44
593.116	1206.95
593.317	1230.78
593.518	1255.19
593.719	1217.02
593.92	1273.02
594.121	1262.36
594.322	1262.17
594.523	1256.74
594.724	1182.73
594.925	1204.82
595.126	1250.74
595.327	1240.08
595.528	1266.82
595.729	1249.96
595.929	1192.42
596.13	1263.14
596.331	1256.16
596.532	1235.82
596.733	1305.37
596.934	1292.97
597.135	1262.94
597.335	1275.53
597.536	1201.91
597.737	1236.79
597.938	1193.39
598.138	1255.77
598.339	1249.57
598.54	1225.74
598.74	1208.69
598.941	1217.8
599.142	1281.54
599.342	1217.41
599.543	1186.22
599.744	1199.59
599.944	1199.59
600.145	1191.06
600.345	1214.31
600.546	1314.87
600.746	1284.45
600.947	1304.21
601.147	1230.97
601.348	1279.02
601.548	1166.65
601.749	1227.1
601.949	1155.41
602.15	1152.51
602.35	1201.91
602.551	1230.59
602.751	1169.36
602.951	1185.05
603.152	1135.84
603.352	1244.15
603.552	1220.9
603.753	1230.78
603.953	1213.73
604.153	1218.38
604.354	1198.42
604.554	1182.34
604.754	1216.64
604.954	1168.39
605.155	1233.3
605.355	1195.71
605.555	1223.8
605.755	1246.47
605.955	1194.55
606.155	1249.57
606.356	1201.91
606.556	1219.15
606.756	1192.22
606.956	1172.07
607.156	1270.3
607.356	1122.67
607.556	1204.43
607.756	1183.31
607.956	1247.44
608.156	1184.86
608.356	1110.27
608.556	1200.55
608.756	1159.87
608.956	1101.94
609.156	1188.54
609.356	1126.93
609.556	1121.89
609.755	1156.57
609.955	1153.86
610.155	1155.02
610.355	1166.65
610.555	1091.67
610.755	1145.34
610.954	1104.84
611.154	1118.99
611.354	1183.7
611.554	1069
611.753	1100.97
611.953	1037.03
612.153	1128.09
612.352	1153.09
612.552	1083.14
612.752	1057.96
612.951	1099.22
613.151	1099.81
613.351	1058.34
613.55	1070.16
613.75	1109.3
613.949	1095.93
614.149	1096.32
614.348	1071.52
614.548	1090.51
614.747	1022.11
614.947	1061.83
615.146	995.76
615.346	1087.41
615.545	1062.99
615.745	1087.21
615.944	1114.92
