Data from gum_old_FLMT105791__172__15-47-59-249.txt Node

Date: Mon Mar 20 15:47:59 GMT 2023
User: antho
Spectrometer: FLMT10579
Trigger mode: 0
Integration Time (sec): 1.000000E-1
Scans to average: 10
Electric dark correction enabled: true
Nonlinearity correction enabled: false
Boxcar width: 0
XAxis mode: Wavelengths
Number of Pixels in Spectrum: 3648
>>>>>Begin Spectral Data<<<<<
345.248	-178.86
345.464	-178.86
345.681	-178.86
345.898	-178.67
346.114	-175.76
346.331	-33.36
346.548	32.9
346.764	2.1
346.981	-32.78
347.197	-36.46
347.414	32.52
347.631	-4.29
347.847	67.97
348.064	9.27
348.28	24.19
348.497	-54.09
348.713	-7.98
348.93	30
349.146	60.03
349.363	31.94
349.579	46.85
349.796	9.66
350.012	4.62
350.229	59.06
350.445	37.36
350.661	7.72
350.878	13.72
351.094	28.84
351.311	36
351.527	27.09
351.743	0.16
351.96	28.25
352.176	44.34
352.392	40.46
352.609	62.94
352.825	18.57
353.041	43.95
353.257	9.27
353.474	11.4
353.69	56.54
353.906	34.65
354.122	0.36
354.339	84.64
354.555	24.77
354.771	21.47
354.987	84.25
355.203	76.11
355.42	16.63
355.636	2.68
355.852	19.34
356.068	37.94
356.284	-3.71
356.5	81.73
356.716	36.78
356.932	16.82
357.148	61.97
357.364	2.87
357.58	61
357.796	84.44
358.012	74.17
358.228	38.91
358.444	-49.05
358.66	52.47
358.876	52.86
359.092	24.19
359.308	57.51
359.524	58.67
359.74	29.8
359.956	-13.4
360.172	50.92
360.388	76.5
360.604	23.8
360.819	125.13
361.035	57.51
361.251	62.74
361.467	11.21
361.683	43.75
361.898	32.13
362.114	76.89
362.33	53.05
362.546	68.17
362.762	40.27
362.977	41.43
363.193	15.27
363.409	70.88
363.624	24.77
363.84	17.79
364.056	22.05
364.271	64.29
364.487	75.72
364.703	23.99
364.918	22.83
365.134	42.79
365.35	40.65
365.565	141.21
365.781	72.04
365.996	54.02
366.212	109.63
366.427	56.74
366.643	20.89
366.858	33.49
367.074	33.29
367.289	125.52
367.505	162.13
367.72	6.94
367.936	33.49
368.151	65.45
368.367	77.85
368.582	62.16
368.798	39.1
369.013	126.68
369.228	48.6
369.444	53.05
369.659	113.12
369.874	73.2
370.09	122.03
370.305	-22.7
370.52	12.17
370.736	121.45
370.951	60.22
371.166	100.14
371.381	125.71
371.597	90.84
371.812	16.05
372.027	18.57
372.242	51.5
372.458	154.97
372.673	36.59
372.888	61.77
373.103	94.9
373.318	154.58
373.533	75.92
373.749	65.84
373.964	-10.11
374.179	114.67
374.394	39.49
374.609	96.26
374.824	13.92
375.039	88.9
375.254	16.44
375.469	88.12
375.684	51.5
375.899	87.15
376.114	54.99
376.329	80.18
376.544	92.58
376.759	106.72
376.974	54.02
377.189	40.85
377.404	43.95
377.619	108.27
377.834	14.31
378.049	40.85
378.264	48.6
378.478	71.65
378.693	35.62
378.908	91.42
379.123	72.82
379.338	101.3
379.553	87.15
379.767	69.14
379.982	99.94
380.197	97.81
380.412	81.92
380.626	86.57
380.841	159.42
381.056	103.43
381.271	150.32
381.485	57.51
381.7	28.84
381.915	93.55
382.129	54.22
382.344	68.55
382.559	62.16
382.773	77.85
382.988	14.31
383.202	76.69
383.417	55.57
383.632	171.05
383.846	50.73
384.061	83.47
384.275	53.83
384.49	83.47
384.704	114.86
384.919	80.76
385.133	62.74
385.348	78.44
385.562	48.4
385.777	128.03
385.991	78.05
386.206	71.65
386.42	50.15
386.634	157.1
386.849	112.53
387.063	100.14
387.277	68.17
387.492	76.69
387.706	74.75
387.92	36.59
388.135	119.9
388.349	112.92
388.563	101.1
388.778	113.12
388.992	115.63
389.206	123
389.42	184.03
389.635	109.43
389.849	141.21
390.063	158.45
390.277	129.58
390.491	181.51
390.706	153.42
390.92	147.22
391.134	122.42
391.348	137.92
391.562	65.65
391.776	117.77
391.99	104.78
392.205	156.32
392.419	109.82
392.633	107.11
392.847	167.95
393.061	85.8
393.275	150.12
393.489	87.35
393.703	89.87
393.917	134.23
394.131	72.43
394.345	135.59
394.559	114.28
394.773	106.92
394.986	123.19
395.2	105.75
395.414	159.23
395.628	105.56
395.842	145.08
396.056	142.18
396.27	69.91
396.484	139.47
396.697	137.33
396.911	165.04
397.125	138.88
397.339	139.08
397.553	116.22
397.766	172.02
397.98	151.09
398.194	187.52
398.408	124.55
398.621	178.6
398.835	195.85
399.049	182.09
399.262	246.61
399.476	229.36
399.69	224.71
399.903	273.93
400.117	185.19
400.331	210.96
400.544	187.71
400.758	313.06
400.971	239.05
401.185	222.58
401.398	170.66
401.612	277.22
401.826	244.67
402.039	218.71
402.253	199.14
402.466	274.9
402.68	231.69
402.893	263.46
403.106	231.88
403.32	201.08
403.533	257.07
403.747	243.12
403.96	234.21
404.174	252.03
404.387	220.06
404.6	278.77
404.814	265.01
405.027	238.47
405.24	238.86
405.454	203.4
405.667	274.51
405.88	156.52
406.094	272.18
406.307	286.91
406.52	265.4
406.733	200.69
406.947	192.75
407.16	331.28
407.373	269.86
407.586	234.79
407.799	235.56
408.012	267.73
408.226	257.85
408.439	312.68
408.652	225.3
408.865	275.09
409.078	319.07
409.291	306.48
409.504	232.27
409.717	307.06
409.93	320.43
410.143	282.84
410.357	206.89
410.57	233.05
410.783	229.56
410.996	268.5
411.209	254.16
411.421	338.44
411.634	301.05
411.847	267.73
412.06	287.29
412.273	313.26
412.486	291.36
412.699	393.08
412.912	300.08
413.125	324.3
413.338	308.22
413.55	323.72
413.763	303.57
413.976	302.41
414.189	257.46
414.402	296.01
414.615	384.36
414.827	276.45
415.04	348.52
415.253	334.57
415.466	354.72
415.678	378.94
415.891	344.64
416.104	312.68
416.316	311.13
416.529	304.93
416.742	344.06
416.954	389.59
417.167	323.14
417.38	326.24
417.592	345.61
417.805	274.31
418.017	295.24
418.23	330.89
418.442	290.78
418.655	333.6
418.868	322.75
419.08	374.09
419.293	369.06
419.505	340.19
419.718	330.31
419.93	379.91
420.142	330.5
420.355	391.14
420.567	360.34
420.78	339.22
420.992	349.1
421.205	404.32
421.417	339.41
421.629	346.19
421.842	322.36
422.054	332.44
422.266	394.24
422.479	402.96
422.691	323.91
422.903	385.14
423.115	330.69
423.328	357.63
423.54	338.25
423.752	363.83
423.964	346.58
424.177	374.29
424.389	352.59
424.601	487.44
424.813	409.16
425.025	410.71
425.238	392.31
425.45	373.32
425.662	366.34
425.874	679.83
426.086	400.06
426.298	396.57
426.51	361.31
426.722	368.09
426.934	366.15
427.146	402.19
427.358	347.16
427.57	382.62
427.782	371.77
427.994	352.59
428.206	352.59
428.418	316.36
428.63	418.66
428.842	447.91
429.054	426.99
429.266	453.14
429.478	359.56
429.69	375.06
429.902	324.88
430.114	387.66
430.325	375.64
430.537	352.98
430.749	330.89
430.961	247.58
431.173	275.86
431.384	350.07
431.596	231.5
431.808	326.82
432.02	408.77
432.231	447.33
432.443	484.92
432.655	440.94
432.867	391.14
433.078	423.5
433.29	523.67
433.502	444.42
433.713	492.67
433.925	449.85
434.136	501
434.348	374.67
434.56	358.01
434.771	528.32
434.983	343.87
435.194	417.88
435.406	460.5
435.617	486.47
435.829	557.57
436.04	493.83
436.252	488.4
436.463	500.42
436.675	535.29
436.886	519.99
437.098	520.37
437.309	559.9
437.521	515.72
437.732	508.94
437.943	492.67
438.155	491.89
438.366	443.46
438.578	551.18
438.789	474.65
439	489.18
439.211	457.21
439.423	480.65
439.634	537.62
439.845	532.97
440.057	540.13
440.268	564.93
440.479	504.29
440.69	517.66
440.902	504.49
441.113	484.14
441.324	527.35
441.535	562.03
441.746	593.8
441.957	530.25
442.168	567.65
442.38	590.7
442.591	600
442.802	538
443.013	559.51
443.224	613.76
443.435	548.47
443.646	568.42
443.857	574.04
444.068	556.6
444.279	537.04
444.49	646.89
444.701	601.55
444.912	696.88
445.123	656
445.334	606.01
445.545	607.17
445.756	600.58
445.967	537.81
446.178	589.54
446.388	612.98
446.599	639.91
446.81	624.8
447.021	591.28
447.232	641.66
447.443	650.38
447.653	589.54
447.864	676.73
448.075	647.86
448.286	627.32
448.496	679.83
448.707	642.43
448.918	596.32
449.129	731.56
449.339	616.86
449.55	661.23
449.761	648.44
449.971	688.35
450.182	637.98
450.393	674.21
450.603	634.3
450.814	721.29
451.024	735.04
451.235	732.14
451.446	748.99
451.656	773.02
451.867	686.03
452.077	707.92
452.288	747.64
452.498	767.79
452.709	682.15
452.919	688.74
453.13	630.42
453.34	686.61
453.55	646.31
453.761	677.5
453.971	664.52
454.182	727.1
454.392	702.69
454.602	760.04
454.813	712.57
455.023	708.89
455.233	655.8
455.444	688.55
455.654	606.4
455.864	689.13
456.075	689.51
456.285	693.97
456.495	677.7
456.705	717.61
456.916	744.93
457.126	782.71
457.336	717.8
457.546	654.45
457.756	678.66
457.967	749.19
458.177	729.43
458.387	719.35
458.597	661.03
458.807	694.16
459.017	674.98
459.227	704.63
459.437	700.36
459.647	764.88
459.857	725.74
460.068	705.6
460.278	768.18
460.488	765.27
460.698	797.63
460.908	728.46
461.117	683.7
461.327	693.39
461.537	754.23
461.747	767.59
461.957	717.03
462.167	846.84
462.377	810.8
462.587	783.48
462.797	797.63
463.007	785.81
463.216	796.85
463.426	840.06
463.636	794.53
463.846	714.7
464.056	736.59
464.265	801.69
464.475	735.24
464.685	789.1
464.895	794.91
465.104	747.44
465.314	803.44
465.524	748.8
465.733	729.43
465.943	865.63
466.153	841.02
466.362	798.4
466.572	833.86
466.782	787.36
466.991	809.64
467.201	846.06
467.41	735.82
467.62	809.25
467.829	746.09
468.039	830.95
468.249	837.54
468.458	815.64
468.668	845.48
468.877	859.62
469.086	867.18
469.296	889.85
469.505	845.29
469.715	911.55
469.924	878.81
470.134	899.34
470.343	870.09
470.552	831.34
470.762	833.86
470.971	826.88
471.18	861.76
471.39	885.97
471.599	834.24
471.808	864.66
472.018	845.87
472.227	937.32
472.436	952.43
472.645	906.12
472.855	890.04
473.064	994.86
473.273	947.97
473.482	942.35
473.691	993.5
473.901	966.57
474.11	930.34
474.319	1030.51
474.528	913.87
474.737	1051.82
474.946	1014.82
475.155	1003.38
475.364	1053.57
475.573	1019.66
475.783	1022.37
475.992	1033.22
476.201	1081.08
476.41	1010.75
476.619	982.07
476.828	1000.48
477.037	997.18
477.245	1020.05
477.454	1048.14
477.663	1040.58
477.872	1048.53
478.081	1153.15
478.29	1070.03
478.499	1189.96
478.708	1122.15
478.917	1194.03
479.125	1106.65
479.334	1135.13
479.543	1123.12
479.752	1131.06
479.961	1120.02
480.169	1152.96
480.378	1160.9
480.587	1273.08
480.796	1188.22
481.004	1185.7
481.213	1192.29
481.422	1191.9
481.63	1201.2
481.839	1235.69
482.048	1269.79
482.256	1247.7
482.465	1267.66
482.674	1274.44
482.882	1269.79
483.091	1353.49
483.299	1269.79
483.508	1293.04
483.716	1258.55
483.925	1291.29
484.134	1254.67
484.342	1275.21
484.551	1302.72
484.759	1306.99
484.967	1309.31
485.176	1353.49
485.384	1342.25
485.593	1336.82
485.801	1335.85
486.01	1256.81
486.218	1224.06
486.426	1167.49
486.635	1111.3
486.843	1100.45
487.051	1165.74
487.26	1174.08
487.468	1235.3
487.676	1243.63
487.885	1236.08
488.093	1271.34
488.301	1345.74
488.509	1357.55
488.717	1386.81
488.926	1392.62
489.134	1358.33
489.342	1375.96
489.55	1336.05
489.758	1340.31
489.967	1377.12
490.175	1511.2
490.383	1423.82
490.591	1504.8
490.799	1433.7
491.007	1475.74
491.215	1459.47
491.423	1460.43
491.631	1447.07
491.839	1456.56
492.047	1495.7
492.255	1389.52
492.463	1373.25
492.671	1409.67
492.879	1449
493.087	1412.19
493.295	1489.88
493.503	1465.86
493.711	1528.63
493.919	1530.96
494.127	1544.13
494.334	1536.96
494.542	1469.35
494.75	1519.72
494.958	1515.26
495.166	1607.1
495.374	1564.67
495.581	1581.33
495.789	1555.76
495.997	1618.53
496.205	1545.3
496.412	1566.41
496.62	1571.26
496.828	1603.23
497.035	1550.72
497.243	1622.79
497.451	1591.6
497.658	1602.84
497.866	1620.47
498.074	1661.35
498.281	1581.53
498.489	1703.01
498.696	1592.96
498.904	1563.31
499.112	1576.68
499.319	1677.04
499.527	1594.89
499.734	1667.55
499.942	1612.72
500.149	1600.13
500.357	1606.71
500.564	1545.3
500.771	1619.31
500.979	1554.01
501.186	1537.16
501.394	1607.49
501.601	1564.09
501.808	1597.61
502.016	1580.95
502.223	1542
502.43	1573.58
502.638	1558.47
502.845	1563.12
503.052	1652.63
503.26	1560.99
503.467	1699.52
503.674	1665.03
503.881	1659.99
504.089	1727.61
504.296	1665.23
504.503	1567
504.71	1635
504.917	1592.57
505.125	1665.03
505.332	1660.58
505.539	1678.59
505.746	1754.54
505.953	1771.79
506.16	1753.77
506.367	1787.48
506.574	1742.34
506.781	1804.92
506.988	1714.63
507.195	1745.24
507.402	1721.02
507.609	1785.93
507.816	1701.65
508.023	1695.64
508.23	1660.77
508.437	1643.91
508.644	1720.64
508.851	1756.29
509.058	1768.1
509.265	1727.03
509.472	1807.44
509.679	1859.17
509.885	1766.17
510.092	1827
510.299	1794.07
510.506	1765
510.713	1787.09
510.92	1833.59
511.126	1801.82
511.333	1825.45
511.54	1812.67
511.746	1884.93
511.953	1883.77
512.16	1921.17
512.367	1851.22
512.573	1853.93
512.78	1866.53
512.987	1845.99
513.193	1829.91
513.4	1746.21
513.606	1811.7
513.813	1842.31
514.02	1864.98
514.226	1890.94
514.433	1879.7
514.639	1764.81
514.846	1833.59
515.052	1797.17
515.259	1855.68
515.465	1852.97
515.672	1835.14
515.878	1953.71
516.085	1858
516.291	1927.17
516.497	1893.85
516.704	1837.08
516.91	1779.34
517.117	1750.28
517.323	1677.82
517.529	1681.89
517.736	1687.51
517.942	1671.04
518.148	1729.55
518.354	1781.67
518.561	1758.22
518.767	1768.69
518.973	1789.22
519.179	1825.65
519.386	1775.85
519.592	1783.22
519.798	1812.09
520.004	1891.72
520.21	1896.75
520.417	1935.89
520.623	1967.28
520.829	1970.57
521.035	2002.73
521.241	1983.16
521.447	2039.54
521.653	2095.73
521.859	1983.55
522.065	2029.47
522.271	2160.64
522.477	2071.71
522.683	2144.75
522.889	2082.75
523.095	2085.08
523.301	2056.01
523.507	2002.73
523.713	2055.24
523.919	2026.37
524.125	2077.13
524.331	2095.15
524.537	2175.36
524.742	2198.61
524.948	2224.38
525.154	2226.12
525.36	2327.84
525.566	2212.75
525.772	2279.21
525.977	2157.92
526.183	2200.55
526.389	2241.62
526.595	2121.5
526.8	2152.31
527.006	2051.94
527.212	1958.17
527.417	1975.41
527.623	1982.97
527.829	2075.78
528.034	2094.57
528.24	2114.14
528.446	2111.23
528.651	2226.51
528.857	2204.42
529.062	2284.83
529.268	2253.44
529.473	2301.1
529.679	2275.34
529.884	2372.4
530.09	2379.96
530.295	2368.72
530.501	2347.22
530.706	2307.3
530.912	2274.95
531.117	2300.52
531.323	2375.5
531.528	2402.24
531.733	2421.23
531.939	2366.2
532.144	2368.72
532.35	2389.45
532.555	2406.89
532.76	2361.94
532.966	2376.66
533.171	2357.68
533.376	2317.57
533.581	2227.67
533.787	2311.57
533.992	2370.85
534.197	2384.41
534.402	2357.1
534.607	2386.35
534.813	2450.87
535.018	2382.28
535.223	2421.61
535.428	2379.96
535.633	2480.9
535.838	2483.81
536.043	2465.4
536.249	2546.39
536.454	2468.31
536.659	2473.15
536.864	2438.08
537.069	2453.97
537.274	2412.7
537.479	2452.81
537.684	2422.97
537.889	2381.31
538.094	2514.23
538.299	2458.62
538.504	2457.26
538.708	2485.55
538.913	2535.93
539.118	2465.21
539.323	2510.35
539.528	2424.13
539.733	2408.25
539.938	2481.87
540.142	2466.95
540.347	2433.63
540.552	2437.11
540.757	2407.86
540.962	2407.86
541.166	2357.48
541.371	2343.73
541.576	2373.76
541.781	2327.26
541.985	2463.66
542.19	2424.52
542.395	2518.29
542.599	2563.82
542.804	2449.71
543.008	2528.37
543.213	2431.11
543.418	2411.15
543.622	2503.38
543.827	2431.88
544.031	2557.62
544.236	2478.77
544.44	2552.97
544.645	2621.95
544.849	2552.2
545.054	2571.19
545.258	2657.6
545.463	2620.01
545.667	2505.7
545.872	2576.61
546.076	2555.49
546.281	2570.99
546.485	2539.8
546.689	2600.44
546.894	2622.53
547.098	2540.58
547.302	2537.28
547.507	2547.74
547.711	2561.11
547.915	2591.72
548.119	2528.18
548.324	2526.04
548.528	2635.71
548.732	2577.39
548.936	2563.05
549.141	2595.79
549.345	2520.04
549.549	2564.02
549.753	2583.39
549.957	2662.05
550.161	2704.29
550.366	2573.71
550.57	2572.74
550.774	2577.77
550.978	2589.98
551.182	2631.06
551.386	2519.46
551.59	2551.62
551.794	2578.36
551.998	2607.81
552.202	2572.16
552.406	2533.6
552.61	2592.5
552.814	2652.17
553.018	2687.05
553.222	2570.61
553.426	2572.74
553.63	2669.03
553.833	2564.02
554.037	2534.38
554.241	2596.18
554.445	2588.62
554.649	2567.89
554.853	2588.82
555.056	2631.64
555.26	2639.77
555.464	2605.87
555.668	2597.92
555.871	2608.39
556.075	2667.09
556.279	2584.94
556.483	2548.52
556.686	2593.86
556.89	2509.58
557.094	2561.89
557.297	2504.93
557.501	2570.22
557.704	2481.68
557.908	2564.79
558.112	2492.14
558.315	2594.24
558.519	2521.39
558.722	2522.94
558.926	2456.88
559.129	2415.41
559.333	2403.98
559.536	2421.42
559.74	2360
559.943	2374.92
560.147	2381.12
560.35	2419.48
560.553	2387.32
560.757	2371.63
560.96	2497.18
561.164	2465.98
561.367	2518.88
561.57	2471.6
561.774	2488.26
561.977	2393.33
562.18	2433.05
562.384	2506.86
562.587	2384.8
562.79	2434.01
562.993	2393.52
563.197	2434.01
563.4	2470.44
563.603	2468.5
563.806	2505.51
564.009	2414.64
564.212	2455.52
564.416	2375.7
564.619	2409.41
564.822	2318.93
565.025	2408.63
565.228	2375.11
565.431	2372.02
565.634	2313.7
565.837	2334.23
566.04	2315.25
566.243	2341.4
566.446	2190.86
566.649	2298.78
566.852	2244.72
567.055	2319.9
567.258	2320.87
567.461	2391
567.664	2402.05
567.867	2283.09
568.07	2329.39
568.273	2317.38
568.475	2350.51
568.678	2296.45
568.881	2265.26
569.084	2262.35
569.287	2136.03
569.489	2208.69
569.692	2274.75
569.895	2284.64
570.098	2184.27
570.3	2155.02
570.503	2142.23
570.706	2169.36
570.909	2167.61
571.111	2154.24
571.314	2082.94
571.516	2113.75
571.719	2114.52
571.922	2084.49
572.124	2134.67
572.327	2123.24
572.529	2090.11
572.732	2086.04
572.935	2151.72
573.137	2228.06
573.34	2136.42
573.542	2190.67
573.745	2150.17
573.947	2140.49
574.15	2110.65
574.352	2119.76
574.554	2189.31
574.757	2076.55
574.959	2069.38
575.162	2078.29
575.364	2036.44
575.566	2191.25
575.769	2076.55
575.971	2055.24
576.173	1945.38
576.376	2073.84
576.578	2072.29
576.78	2137.58
576.982	2003.9
577.185	2034.12
577.387	1955.07
577.589	1992.85
577.791	2054.08
577.993	2067.06
578.196	2004.86
578.398	2041.09
578.6	2058.92
578.802	1924.07
579.004	1922.33
579.206	1978.51
579.408	2033.93
579.61	1931.05
579.812	2007.77
580.014	1934.92
580.216	1938.8
580.418	1984.52
580.62	1964.76
580.822	1911.48
581.024	1961.46
581.226	1996.34
581.428	1973.28
581.63	2072.09
581.832	1956.81
582.034	1985.3
582.236	1953.52
582.438	2002.15
582.64	2030.44
582.841	2062.02
583.043	2050.2
583.245	1988.01
583.447	2032.18
583.649	2000.8
583.85	1996.53
584.052	2049.23
584.254	1974.06
584.456	2023.27
584.657	1951.78
584.859	1992.46
585.061	1925.43
585.262	1930.27
585.464	1926.78
585.666	1993.43
585.867	1893.07
586.069	2009.32
586.27	1922.33
586.472	1903.34
586.674	1896.75
586.875	1889.78
587.077	1896.56
587.278	1945.96
587.48	1915.35
587.681	2025.59
587.883	1929.3
588.084	1858.58
588.285	1870.02
588.487	1871.18
588.688	1935.5
588.89	1785.93
589.091	1776.44
589.292	1776.82
589.494	1730.71
589.695	1699.32
589.896	1609.04
590.098	1662.51
590.299	1696.81
590.5	1661.16
590.702	1713.27
590.903	1739.62
591.104	1801.62
591.305	1795.23
591.507	1830.69
591.708	1799.49
591.909	1757.26
592.11	1834.37
592.311	1801.04
592.512	1772.56
592.714	1750.86
592.915	1766.55
593.116	1761.71
593.317	1813.05
593.518	1783.41
593.719	1757.45
593.92	1822.94
594.121	1849.87
594.322	1809.57
594.523	1778.57
594.724	1760.16
594.925	1767.14
595.126	1776.63
595.327	1765.97
595.528	1758.61
595.729	1802.4
595.929	1745.24
596.13	1778.76
596.331	1767.33
596.532	1774.89
596.733	1854.52
596.934	1796.2
597.135	1821.39
597.335	1795.23
597.536	1754.54
597.737	1802.79
597.938	1752.41
598.138	1759.58
598.339	1806.27
598.54	1782.25
598.74	1771.79
598.941	1761.71
599.142	1811.31
599.342	1760.55
599.543	1766.55
599.744	1732.84
599.944	1775.08
600.145	1723.74
600.345	1765.59
600.546	1830.1
600.746	1802.4
600.947	1834.95
601.147	1771.4
601.348	1806.27
601.548	1730.91
601.749	1760.36
601.949	1713.66
602.15	1716.57
602.35	1746.99
602.551	1763.84
602.751	1670.07
602.951	1701.46
603.152	1657.48
603.352	1767.72
603.552	1730.52
603.753	1779.34
603.953	1783.41
604.153	1751.25
604.354	1700.1
604.554	1709.01
604.754	1723.74
604.954	1726.26
605.155	1742.14
605.355	1702.62
605.555	1764.81
605.755	1754.16
605.955	1735.75
606.155	1748.92
606.356	1706.49
606.556	1762.29
606.756	1734.97
606.956	1671.81
607.156	1782.44
607.356	1691.19
607.556	1759.39
607.756	1725.87
607.956	1754.16
608.156	1758.22
608.356	1660.19
608.556	1755.12
608.756	1702.04
608.956	1665.81
609.156	1698.74
609.356	1652.44
609.556	1668.33
609.755	1650.5
609.955	1668.33
610.155	1648.37
610.355	1683.44
610.555	1594.89
610.755	1656.51
610.954	1580.36
611.154	1671.62
611.354	1722.19
611.554	1610.01
611.753	1623.96
611.953	1543.36
612.153	1630.93
612.352	1651.66
612.552	1561.18
612.752	1526.5
612.951	1624.15
613.151	1607.68
613.351	1579.59
613.55	1584.24
613.75	1623.57
613.949	1571.84
614.149	1601.68
614.348	1593.73
614.548	1533.86
614.747	1514.68
