Data from gum_old_FLMT105791__119__15-46-08-253.txt Node

Date: Mon Mar 20 15:46:08 GMT 2023
User: antho
Spectrometer: FLMT10579
Trigger mode: 0
Integration Time (sec): 1.000000E-1
Scans to average: 10
Electric dark correction enabled: true
Nonlinearity correction enabled: false
Boxcar width: 0
XAxis mode: Wavelengths
Number of Pixels in Spectrum: 3648
>>>>>Begin Spectral Data<<<<<
345.248	-172.02
345.464	-172.02
345.681	-172.02
345.898	-172.6
346.114	-191.78
346.331	3.13
346.548	21.73
346.764	-11.01
346.981	-22.83
347.197	-11.79
347.414	16.5
347.631	-24.96
347.847	49.44
348.064	9.72
348.28	29.48
348.497	-51.5
348.713	-7.91
348.93	44.4
349.146	43.82
349.363	17.28
349.579	27.16
349.796	4.1
350.012	10.88
350.229	55.44
350.445	17.86
350.661	-24.57
350.878	27.93
351.094	21.54
351.311	60.48
351.527	25.22
351.743	-6.75
351.96	37.62
352.176	47.89
352.392	58.93
352.609	56.8
352.825	5.07
353.041	18.24
353.257	13.98
353.474	0.81
353.69	49.24
353.906	26.58
354.122	-6.75
354.339	52.34
354.555	27.16
354.771	12.43
354.987	69.59
355.203	91.87
355.42	21.73
355.636	8.36
355.852	-1.91
356.068	14.37
356.284	-18.37
356.5	91.29
356.716	46.73
356.932	36.84
357.148	46.92
357.364	46.53
357.58	75.98
357.796	73.46
358.012	82.96
358.228	53.31
358.444	-21.86
358.66	74.43
358.876	46.53
359.092	-3.26
359.308	54.67
359.524	52.73
359.74	17.86
359.956	17.28
360.172	21.15
360.388	79.27
360.604	28.51
360.819	87.02
361.035	52.54
361.251	61.64
361.467	22.51
361.683	51.96
361.898	43.43
362.114	79.86
362.33	53.31
362.546	57.38
362.762	11.85
362.977	20.96
363.193	13.4
363.409	63.78
363.624	22.51
363.84	23.86
364.056	25.03
364.271	53.7
364.487	28.32
364.703	14.37
364.918	0.03
365.134	36.07
365.35	11.46
365.565	149.41
365.781	61.06
365.996	65.52
366.212	89.16
366.427	56.99
366.643	36.26
366.858	40.14
367.074	18.63
367.289	107.95
367.505	164.72
367.72	-23.99
367.936	22.12
368.151	92.45
368.367	72.3
368.582	35.88
368.798	42.85
369.013	84.12
369.228	69.39
369.444	50.41
369.659	89.54
369.874	42.08
370.09	127.13
370.305	-21.67
370.52	41.88
370.736	114.34
370.951	10.11
371.166	79.86
371.381	101.17
371.597	105.82
371.812	21.15
372.027	17.28
372.242	56.22
372.458	136.24
372.673	30.26
372.888	70.17
373.103	80.24
373.318	147.28
373.533	61.84
373.749	70.56
373.964	12.82
374.179	88.38
374.394	20.38
374.609	89.54
374.824	21.93
375.039	90.9
375.254	46.92
375.469	119.96
375.684	77.72
375.899	119.96
376.114	61.06
376.329	75.01
376.544	94.58
376.759	101.17
376.974	38.59
377.189	52.15
377.404	48.86
377.619	89.74
377.834	14.76
378.049	32.39
378.264	39.94
378.478	76.17
378.693	64.16
378.908	97.29
379.123	76.37
379.338	126.16
379.553	115.89
379.767	77.34
379.982	107.17
380.197	106.79
380.412	84.31
380.626	84.51
380.841	154.45
381.056	99.42
381.271	158.13
381.485	89.16
381.7	54.86
381.915	92.64
382.129	44.4
382.344	68.04
382.559	78.31
382.773	122.48
382.988	15.53
383.202	64.36
383.417	45.56
383.632	149.41
383.846	58.54
384.061	75.01
384.275	63
384.49	63.58
384.704	90.9
384.919	98.07
385.133	56.03
385.348	104.66
385.562	24.64
385.777	107.56
385.991	90.12
386.206	80.63
386.42	32.39
386.634	118.02
386.849	81.41
387.063	85.47
387.277	63.78
387.492	38.78
387.706	43.43
387.92	59.51
388.135	110.08
388.349	76.37
388.563	106.01
388.778	81.21
388.992	122.67
389.206	116.86
389.42	168.4
389.635	77.14
389.849	140.31
390.063	139.53
390.277	124.42
390.491	164.52
390.706	124.81
390.92	119.77
391.134	117.64
391.348	133.91
391.562	57.19
391.776	101.75
391.99	87.8
392.205	130.81
392.419	64.74
392.633	116.86
392.847	165.69
393.061	83.15
393.275	123.45
393.489	65.52
393.703	88.38
393.917	86.64
394.131	54.09
394.345	83.34
394.559	151.54
394.773	82.96
394.986	112.99
395.2	119.77
395.414	144.37
395.628	94.77
395.842	122.29
396.056	113.96
396.27	57.77
396.484	132.75
396.697	127.71
396.911	170.72
397.125	129.46
397.339	150.57
397.553	117.64
397.766	159.68
397.98	154.45
398.194	176.73
398.408	142.63
398.621	164.14
398.835	154.26
399.049	183.12
399.262	195.72
399.476	174.79
399.69	199.2
399.903	255.97
400.117	155.42
400.331	195.14
400.544	160.07
400.758	296.85
400.971	195.72
401.185	214.12
401.398	151.16
401.612	232.92
401.826	210.05
402.039	217.61
402.253	143.6
402.466	224.97
402.68	190.1
402.893	213.93
403.106	218.77
403.32	193.59
403.533	233.5
403.747	191.84
403.96	236.4
404.174	224.2
404.387	167.82
404.6	194.94
404.814	231.95
405.027	198.43
405.24	196.49
405.454	203.27
405.667	240.67
405.88	146.12
406.094	240.47
406.307	248.22
406.52	206.95
406.733	163.17
406.947	160.07
407.16	269.73
407.373	265.27
407.586	191.45
407.799	201.34
408.012	246.67
408.226	222.07
408.439	303.05
408.652	167.43
408.865	250.93
409.078	283.87
409.291	266.43
409.504	229.24
409.717	269.92
409.93	268.76
410.143	247.83
410.357	187.39
410.57	175.37
410.783	240.86
410.996	227.49
411.209	235.05
411.421	307.32
411.634	263.92
411.847	202.11
412.06	252.29
412.273	248.61
412.486	231.37
412.699	380.36
412.912	243.96
413.125	302.28
413.338	256.94
413.55	281.35
413.763	248.42
413.976	259.65
414.189	216.06
414.402	224.2
414.615	307.9
414.827	235.44
415.04	282.32
415.253	270.7
415.466	294.72
415.678	334.05
415.891	295.88
416.104	273.99
416.316	263.33
416.529	257.91
416.742	304.41
416.954	336.76
417.167	292.2
417.38	261.98
417.592	301.7
417.805	245.51
418.017	255
418.23	314.68
418.442	254.42
418.655	249.38
418.868	270.5
419.08	310.42
419.293	332.89
419.505	286.58
419.718	304.41
419.93	317.58
420.142	276.12
420.355	305.77
420.567	343.93
420.78	305.77
420.992	284.84
421.205	364.08
421.417	260.04
421.629	282.9
421.842	245.7
422.054	260.43
422.266	322.43
422.479	335.99
422.691	315.65
422.903	341.8
423.115	275.73
423.328	303.83
423.54	321.07
423.752	292.98
423.964	295.69
424.177	329.4
424.389	280.58
424.601	420.46
424.813	319.13
425.025	316.62
425.238	348.2
425.45	320.49
425.662	308.67
425.874	603.17
426.086	309.83
426.298	344.32
426.51	321.27
426.722	313.32
426.934	292.78
427.146	364.86
427.358	292.59
427.57	325.33
427.782	323.2
427.994	296.85
428.206	290.27
428.418	290.27
428.63	319.52
428.842	364.28
429.054	330.37
429.266	360.6
429.478	308.87
429.69	296.27
429.902	255.78
430.114	350.33
430.325	314.29
430.537	297.82
430.749	277.87
430.961	206.37
431.173	268.95
431.384	302.86
431.596	204.82
431.808	282.52
432.02	297.63
432.231	342.77
432.443	389.85
432.655	307.9
432.867	337.15
433.078	391.98
433.29	407.29
433.502	376.1
433.713	401.86
433.925	369.51
434.136	422.98
434.348	301.31
434.56	257.33
434.771	435.38
434.983	303.44
435.194	347.61
435.406	376.48
435.617	444.49
435.829	441.78
436.04	413.1
436.252	410.97
436.463	459.02
436.675	429.38
436.886	410.58
437.098	433.06
437.309	455.34
437.521	402.25
437.732	437.13
437.943	379
438.155	406.13
438.366	351.49
438.578	462.7
438.789	432.28
439	404.96
439.211	391.4
439.423	390.05
439.634	429.76
439.845	416.78
440.057	401.28
440.268	445.07
440.479	402.83
440.69	424.34
440.902	422.4
441.113	395.66
441.324	421.05
441.535	432.67
441.746	512.49
441.957	416.01
442.168	427.83
442.38	468.13
442.591	486.14
442.802	375.71
443.013	440.81
443.224	462.12
443.435	437.13
443.646	442.36
443.857	450.49
444.068	441.19
444.279	417.17
444.49	519.66
444.701	453.59
444.912	585.15
445.123	518.69
445.334	485.18
445.545	491.38
445.756	477.81
445.967	435.58
446.178	500.29
446.388	489.44
446.599	500.87
446.81	488.28
447.021	469.68
447.232	491.18
447.443	509.59
447.653	446.81
447.864	525.67
448.075	493.7
448.286	522.18
448.496	491.96
448.707	557.64
448.918	502.03
449.129	609.95
449.339	483.04
449.55	539.04
449.761	494.86
449.971	548.34
450.182	491.18
450.393	555.31
450.603	491.57
450.814	560.93
451.024	562.09
451.235	576.62
451.446	612.47
451.656	626.03
451.867	532.26
452.077	546.59
452.288	627.19
452.498	585.34
452.709	520.24
452.919	553.76
453.13	502.81
453.34	576.43
453.55	491.18
453.761	580.89
453.971	549.11
454.182	590.19
454.392	533.81
454.602	611.11
454.813	549.11
455.023	578.37
455.233	532.84
455.444	531.48
455.654	492.54
455.864	527.41
456.075	546.59
456.285	514.82
456.495	542.14
456.705	551.24
456.916	624.87
457.126	627.58
457.336	586.51
457.546	491.38
457.756	522.96
457.967	602.78
458.177	556.09
458.387	559.96
458.597	533.22
458.807	551.44
459.017	521.21
459.227	554.34
459.437	546.98
459.647	614.79
459.857	577.98
460.068	552.6
460.278	612.66
460.488	604.33
460.698	628.74
460.908	570.81
461.117	510.56
461.327	567.91
461.537	600.45
461.747	628.16
461.957	599.68
462.167	738.98
462.377	645.79
462.587	592.32
462.797	645.4
463.007	634.36
463.216	635.91
463.426	651.22
463.636	643.08
463.846	559.96
464.056	585.54
464.265	630.1
464.475	577.21
464.685	617.31
464.895	633.97
465.104	585.73
465.314	649.86
465.524	578.76
465.733	588.44
465.943	674.08
466.153	674.66
466.362	674.27
466.572	637.65
466.782	587.86
466.991	612.66
467.201	686.09
467.41	557.25
467.62	616.15
467.829	618.09
468.039	653.93
468.249	617.31
468.458	633.39
468.668	660.71
468.877	673.89
469.086	685.9
469.296	697.33
469.505	642.69
469.715	755.07
469.924	694.62
470.134	728.91
470.343	724.07
470.552	673.89
470.762	667.69
470.971	613.44
471.18	658.58
471.39	665.55
471.599	598.9
471.808	727.55
472.018	667.1
472.227	724.84
472.436	748.28
472.645	701.4
472.855	696.94
473.064	771.53
473.273	742.47
473.482	751.19
473.691	782.77
473.901	756.03
474.11	708.76
474.319	831.6
474.528	755.07
474.737	814.93
474.946	776.76
475.155	778.12
475.364	814.74
475.573	773.08
475.783	790.13
475.992	792.07
476.201	834.31
476.41	766.69
476.619	727.17
476.828	795.36
477.037	779.67
477.245	783.16
477.454	820.55
477.663	774.05
477.872	826.36
478.081	901.54
478.29	807.38
478.499	932.15
478.708	855.23
478.917	950.75
479.125	865.31
479.334	863.56
479.543	855.23
479.752	881.58
479.961	873.83
480.169	942.81
480.378	870.54
480.587	1042
480.796	938.35
481.004	921.88
481.213	933.12
481.422	903.67
481.63	934.28
481.839	962.96
482.048	1006.16
482.256	947.46
482.465	1006.74
482.674	967.8
482.882	992.21
483.091	1049.56
483.299	980.78
483.508	972.84
483.716	980.78
483.925	1005.19
484.134	974.19
484.342	959.66
484.551	996.28
484.759	1007.71
484.967	1031.16
485.176	1055.37
485.384	1024.96
485.593	1032.71
485.801	1011.59
486.01	969.93
486.218	963.15
486.426	863.18
486.635	902.51
486.843	870.93
487.051	925.95
487.26	901.15
487.468	916.07
487.676	986.59
487.885	965.28
488.093	1036
488.301	1023.79
488.509	1029.8
488.717	1082.3
488.926	1082.3
489.134	1037.55
489.342	1088.5
489.55	1010.23
489.758	1062.15
489.967	1070.29
490.175	1154.57
490.383	1111.17
490.591	1182.47
490.799	1035.8
491.007	1148.76
491.215	1134.42
491.423	1118.54
491.631	1119.7
491.839	1112.92
492.047	1160.19
492.255	1092.38
492.463	1047.43
492.671	1093.54
492.879	1134.03
493.087	1109.82
493.295	1150.12
493.503	1156.51
493.711	1200.3
493.919	1188.67
494.127	1202.62
494.334	1179.57
494.542	1118.54
494.75	1145.08
494.958	1183.83
495.166	1255.9
495.374	1230.33
495.581	1220.06
495.789	1221.22
495.997	1257.06
496.205	1175.11
496.412	1186.15
496.62	1188.09
496.828	1213.66
497.035	1219.67
497.243	1227.03
497.451	1184.6
497.658	1232.85
497.866	1234.4
498.074	1290.58
498.281	1205.14
498.489	1313.25
498.696	1254.16
498.904	1178.02
499.112	1199.52
499.319	1242.73
499.527	1219.67
499.734	1298.91
499.942	1167.75
500.149	1204.37
500.357	1231.49
500.564	1199.52
500.771	1245.25
500.979	1176.85
501.186	1185.96
501.394	1243.11
501.601	1188.09
501.808	1222.58
502.016	1230.52
502.223	1192.93
502.43	1225.48
502.638	1243.89
502.845	1186.93
503.052	1273.34
503.26	1253.77
503.467	1337.86
503.674	1252.8
503.881	1238.08
504.089	1337.66
504.296	1342.31
504.503	1203.2
504.71	1259.78
504.917	1201.85
505.125	1258.81
505.332	1256.29
505.539	1293.68
505.746	1377.77
505.953	1324.88
506.16	1302.98
506.367	1385.32
506.574	1397.34
506.781	1393.46
506.988	1324.49
507.195	1354.71
507.402	1325.65
507.609	1369.05
507.816	1314.03
508.023	1291.16
508.23	1299.49
508.437	1245.44
508.644	1319.06
508.851	1345.99
509.058	1369.24
509.265	1348.71
509.472	1365.56
509.679	1463.99
509.885	1372.73
510.092	1378.54
510.299	1353.74
510.506	1345.61
510.713	1357.62
510.92	1343.86
511.126	1396.76
511.333	1411.67
511.54	1407.99
511.746	1437.44
511.953	1452.17
512.16	1440.93
512.367	1383.97
512.573	1382.81
512.78	1420.59
512.987	1428.53
513.193	1362.27
513.4	1314.22
513.606	1357.43
513.813	1391.91
514.02	1410.51
514.226	1458.95
514.433	1442.09
514.639	1358.98
514.846	1398.11
515.052	1380.48
515.259	1414.19
515.465	1419.04
515.672	1418.07
515.878	1555.05
516.085	1440.74
516.291	1491.69
516.497	1452.75
516.704	1430.47
516.91	1391.33
517.117	1341.34
517.323	1262.88
517.529	1289.81
517.736	1284.38
517.942	1316.35
518.148	1285.74
518.354	1374.09
518.561	1374.09
518.767	1327.78
518.973	1404.7
519.179	1401.79
519.386	1361.49
519.592	1413.81
519.798	1386.87
520.004	1488.98
520.21	1474.25
520.417	1504.67
520.623	1571.9
520.829	1561.44
521.035	1562.22
521.241	1568.22
521.447	1577.72
521.653	1651.15
521.859	1574.03
522.065	1598.25
522.271	1682.34
522.477	1599.8
522.683	1691.83
522.889	1632.93
523.095	1606.39
523.301	1609.3
523.507	1568.03
523.713	1636.81
523.919	1557.95
524.125	1670.13
524.331	1663.93
524.537	1760.61
524.742	1725.74
524.948	1758.68
525.154	1740.08
525.36	1854.77
525.566	1730.2
525.772	1793.74
525.977	1712.18
526.183	1780.96
526.389	1814.86
526.595	1716.44
526.8	1712.76
527.006	1636.81
527.212	1608.13
527.417	1586.82
527.623	1569.97
527.829	1664.9
528.034	1721.28
528.24	1707.33
528.446	1717.02
528.651	1811.18
528.857	1797.81
529.062	1847.8
529.268	1799.94
529.473	1825.52
529.679	1814.48
529.884	1943.51
530.09	1881.32
530.295	1913.09
530.501	1893.14
530.706	1890.81
530.912	1882.87
531.117	1895.07
531.323	1903.21
531.528	1946.42
531.733	1939.83
531.939	1907.47
532.144	1984.39
532.35	1973.93
532.555	1986.91
532.76	1952.62
532.966	1953.78
533.171	1866.01
533.376	1868.92
533.581	1823.97
533.787	1887.71
533.992	1963.85
534.197	1952.42
534.402	1905.34
534.607	1955.52
534.813	2038.64
535.018	1912.12
535.223	1966.95
535.428	1988.07
535.633	2013.65
535.838	2031.08
536.043	2017.13
536.249	2126.6
536.454	2020.62
536.659	2035.73
536.864	1996.6
537.069	2026.82
537.274	2022.56
537.479	2007.83
537.684	2026.05
537.889	1952.81
538.094	2107.03
538.299	2003.96
538.504	2032.25
538.708	2053.75
538.913	2073.9
539.118	1984
539.323	2073.9
539.528	1991.37
539.733	2036.7
539.938	2037.09
540.142	2043.1
540.347	2004.54
540.552	1955.52
540.757	1960.75
540.962	2009.38
541.166	1932.27
541.371	1935.95
541.576	1962.5
541.781	1892.75
541.985	2041.55
542.19	1985.75
542.395	2075.65
542.599	2113.23
542.804	2085.72
543.008	2101.61
543.213	2031.67
543.418	2038.64
543.622	2056.08
543.827	2009.38
544.031	2100.83
544.236	2115.95
544.44	2127.18
544.645	2177.36
544.849	2092.31
545.054	2150.24
545.258	2191.7
545.463	2183.56
545.667	2032.25
545.872	2100.83
546.076	2128.73
546.281	2105.1
546.485	2077
546.689	2107.03
546.894	2169.81
547.098	2103.55
547.302	2065.57
547.507	2119.82
547.711	2147.91
547.915	2151.4
548.119	2054.92
548.324	2085.14
548.528	2135.51
548.732	2085.91
548.936	2142.3
549.141	2149.85
549.345	2070.22
549.549	2172.71
549.753	2115.56
549.957	2208.36
550.161	2206.04
550.366	2132.41
550.57	2113.43
550.774	2127.18
550.978	2109.16
551.182	2156.25
551.386	2092.7
551.59	2106.84
551.794	2117.88
551.998	2162.45
552.202	2161.48
552.406	2094.83
552.61	2183.56
552.814	2141.91
553.018	2202.36
553.222	2142.68
553.426	2103.35
553.63	2176.39
553.833	2135.9
554.037	2074.68
554.241	2152.18
554.445	2171.16
554.649	2172.13
554.853	2117.69
555.056	2201.97
555.26	2189.76
555.464	2124.86
555.668	2178.53
555.871	2177.17
556.075	2195.77
556.279	2124.86
556.483	2085.72
556.686	2142.3
556.89	2105.68
557.094	2114.2
557.297	2026.63
557.501	2137.45
557.704	2023.53
557.908	2134.35
558.112	2020.23
558.315	2135.51
558.519	2090.37
558.722	2061.5
558.926	2026.43
559.129	1974.7
559.333	1944.67
559.536	1951.45
559.74	1939.05
559.943	1987.1
560.147	1952.23
560.35	1986.33
560.553	1963.27
560.757	1944.87
560.96	2022.95
561.164	1982.65
561.367	2095.21
561.57	2015
561.774	2023.14
561.977	2029.15
562.18	1958.62
562.384	2065.57
562.587	1951.45
562.79	1971.41
562.993	1961.53
563.197	2009.58
563.4	2038.64
563.603	1996.02
563.806	2095.21
564.009	1969.28
564.212	1994.27
564.416	1886.74
564.619	1952.04
564.822	1908.64
565.025	1982.84
565.228	1924.52
565.431	1983.23
565.634	1809.44
565.837	1897.01
566.04	1899.53
566.243	1876.28
566.446	1790.26
566.649	1885.58
566.852	1799.56
567.055	1841.41
567.258	1885
567.461	1947.58
567.664	1921.04
567.867	1817.38
568.07	1841.6
568.273	1843.54
568.475	1933.82
568.678	1844.51
568.881	1799.75
569.084	1834.82
569.287	1714.5
569.489	1771.46
569.692	1833.85
569.895	1814.67
570.098	1719.35
570.3	1728.06
570.503	1702.49
570.706	1748.02
570.909	1736.01
571.111	1662.96
571.314	1676.53
571.516	1714.5
571.719	1719.73
571.922	1686.99
572.124	1663.93
572.327	1724.38
572.529	1637.2
572.732	1693.19
572.935	1701.91
573.137	1784.06
573.34	1657.15
573.542	1748.02
573.745	1711.98
573.947	1727.68
574.15	1682.53
574.352	1629.83
574.554	1774.37
574.757	1636.23
574.959	1660.83
575.162	1656.38
575.364	1636.81
575.566	1757.9
575.769	1610.46
575.971	1620.92
576.173	1512.81
576.376	1614.53
576.578	1619.76
576.78	1687.76
576.982	1513.59
577.185	1608.13
577.387	1547.88
577.589	1551.37
577.791	1609.88
577.993	1616.47
578.196	1575.39
578.398	1578.49
578.6	1609.88
578.802	1528.12
579.004	1545.36
579.206	1553.5
579.408	1548.27
579.61	1527.54
579.812	1570.16
580.014	1527.54
580.216	1547.69
580.418	1530.05
580.62	1527.54
580.822	1447.71
581.024	1502.15
581.226	1571.71
581.428	1505.84
581.63	1630.42
581.832	1518.43
582.034	1558.92
582.236	1551.56
582.438	1585.85
582.64	1589.34
582.841	1633.52
583.043	1628.48
583.245	1582.37
583.447	1556.6
583.649	1542.65
583.85	1548.27
584.052	1561.44
584.254	1487.43
584.456	1562.41
584.657	1467.28
584.859	1530.25
585.061	1519.59
585.262	1496.34
585.464	1414.19
585.666	1556.79
585.867	1454.88
586.069	1561.83
586.27	1481.81
586.472	1493.24
586.674	1448.49
586.875	1435.12
587.077	1419.04
587.278	1491.5
587.48	1432.02
587.681	1566.87
587.883	1491.89
588.084	1412.45
588.285	1456.04
588.487	1436.47
588.688	1477.55
588.89	1400.05
589.091	1351.03
589.292	1369.44
589.494	1368.66
589.695	1311.12
589.896	1226.06
590.098	1203.01
590.299	1292.52
590.5	1278.96
590.702	1298.14
590.903	1319.64
591.104	1391.52
591.305	1352.39
591.507	1429.89
591.708	1378.54
591.909	1364.59
592.11	1457.79
592.311	1407.22
592.512	1376.03
592.714	1290.2
592.915	1312.28
593.116	1317.32
593.317	1373.31
593.518	1329.91
593.719	1357.62
593.92	1392.11
594.121	1437.44
594.322	1338.24
594.523	1373.7
594.724	1298.33
594.925	1351.23
595.126	1350.06
595.327	1350.26
595.528	1352.78
595.729	1358.39
595.929	1342.31
596.13	1324.88
596.331	1353.55
596.532	1366.14
596.733	1428.14
596.934	1425.24
597.135	1400.82
597.335	1383.19
597.536	1281.86
597.737	1363.63
597.938	1328.75
598.138	1389.78
598.339	1340.76
598.54	1346.96
598.74	1328.94
598.941	1369.44
599.142	1382.81
599.342	1352
599.543	1324.68
599.744	1314.22
599.944	1341.34
600.145	1345.8
600.345	1327.59
600.546	1408.77
600.746	1362.46
600.947	1415.94
601.147	1337.28
601.348	1354.52
601.548	1317.51
601.749	1308.02
601.949	1296.78
602.15	1296.78
602.35	1297.36
602.551	1344.25
602.751	1270.82
602.951	1299.49
603.152	1231.68
603.352	1322.36
603.552	1305.89
603.753	1293.49
603.953	1326.81
604.153	1322.36
604.354	1291.16
604.554	1312.48
604.754	1353.16
604.954	1278.18
605.155	1318.48
605.355	1290.97
605.555	1338.44
605.755	1366.34
605.955	1346.77
606.155	1328.75
606.356	1290.2
606.556	1350.06
606.756	1316.35
606.956	1240.01
607.156	1341.73
607.356	1275.28
607.556	1318.68
607.756	1295.62
607.956	1337.66
608.156	1314.41
608.356	1268.3
608.556	1334.95
608.756	1287.87
608.956	1249.9
609.156	1284.58
609.356	1217.15
609.556	1224.9
609.755	1250.86
609.955	1206.69
610.155	1279.15
610.355	1282.83
610.555	1249.12
610.755	1246.99
610.954	1164.07
611.154	1251.06
611.354	1292.33
611.554	1216.76
611.753	1201.85
611.953	1161.93
612.153	1268.5
612.352	1249.9
612.552	1201.85
612.752	1155.93
612.951	1192.55
613.151	1186.15
613.351	1167.55
613.55	1205.33
613.75	1212.89
613.949	1208.24
614.149	1193.32
614.348	1195.26
614.548	1140.23
614.747	1148.95
614.947	1162.9
615.146	1096.45
