Data from gum_old_FLMT105791__58__15-43-46-257.txt Node

Date: Mon Mar 20 15:43:46 GMT 2023
User: antho
Spectrometer: FLMT10579
Trigger mode: 0
Integration Time (sec): 1.000000E-1
Scans to average: 10
Electric dark correction enabled: true
Nonlinearity correction enabled: false
Boxcar width: 0
XAxis mode: Wavelengths
Number of Pixels in Spectrum: 3648
>>>>>Begin Spectral Data<<<<<
345.248	-166.17
345.464	-166.17
345.681	-166.17
345.898	-192.33
346.114	-160.94
346.331	-28.03
346.548	23.9
346.764	-2.65
346.981	-30.55
347.197	-3.23
347.414	-0.13
347.631	-7.1
347.847	61.09
348.064	17.31
348.28	35.33
348.497	-44.11
348.713	-21.83
348.93	22.73
349.146	41.33
349.363	14.21
349.579	58.96
349.796	28.93
350.012	0.45
350.229	34.55
350.445	12.46
350.661	17.31
350.878	24.28
351.094	53.93
351.311	45.98
351.527	60.51
351.743	3.16
351.96	54.12
352.176	70.2
352.392	30.68
352.609	60.71
352.825	-10.59
353.041	37.65
353.257	14.01
353.474	27
353.69	46.95
353.906	28.35
354.122	-16.79
354.339	68.26
354.555	6.07
354.771	22.93
354.987	79.69
355.203	83.38
355.42	43.08
355.636	39.59
355.852	-3.62
356.068	36.68
356.284	-1.49
356.5	89.38
356.716	40.95
356.932	39.4
357.148	70.39
357.364	33.58
357.58	72.53
357.796	77.76
358.012	67.49
358.228	33.97
358.444	-47.79
358.66	85.51
358.876	51.02
359.092	9.17
359.308	31.06
359.524	51.6
359.74	22.93
359.956	40.36
360.172	27.77
360.388	64
360.604	12.08
360.819	125.23
361.035	59.54
361.251	68.84
361.467	25.45
361.683	81.44
361.898	68.84
362.114	43.66
362.33	35.33
362.546	72.72
362.762	55.09
362.977	70.2
363.193	4.13
363.409	88.41
363.624	11.5
363.84	28.16
364.056	44.24
364.271	74.08
364.487	68.65
364.703	19.63
364.918	21.38
365.134	37.07
365.35	43.27
365.565	159.71
365.781	90.74
365.996	82.6
366.212	84.15
366.427	73.3
366.643	29.71
366.858	24.67
367.074	30.87
367.289	125.03
367.505	184.9
367.72	10.33
367.936	48.31
368.151	83.57
368.367	90.35
368.582	82.02
368.798	39.01
369.013	93.84
369.228	71.75
369.444	44.63
369.659	144.41
369.874	86.09
370.09	106.43
370.305	-10.2
370.52	70.2
370.736	125.61
370.951	70.39
371.166	127.74
371.381	129.88
371.597	90.35
371.812	53.15
372.027	51.8
372.242	70.98
372.458	156.42
372.673	39.4
372.888	40.36
373.103	71.36
373.318	152.16
373.533	115.73
373.749	78.92
373.964	15.18
374.179	81.44
374.394	28.35
374.609	114.18
374.824	19.44
375.039	97.52
375.254	26.22
375.469	110.89
375.684	75.04
375.899	96.94
376.114	56.45
376.329	82.21
376.544	113.99
376.759	110.89
376.974	57.61
377.189	70.2
377.404	49.08
377.619	119.61
377.834	36.88
378.049	32.81
378.264	22.93
378.478	88.41
378.693	81.83
378.908	128.33
379.123	67.1
379.338	100.43
379.553	101.78
379.767	100.43
379.982	101.01
380.197	111.86
380.412	65.74
380.626	100.43
380.841	149.25
381.056	95.78
381.271	142.08
381.485	55.48
381.7	62.45
381.915	94.03
382.129	76.01
382.344	71.94
382.559	61.87
382.773	110.69
382.988	43.08
383.202	55.67
383.417	42.3
383.632	149.83
383.846	44.05
384.061	86.28
384.275	64.39
384.49	97.91
384.704	110.5
384.919	90.16
385.133	95
385.348	107.01
385.562	65.55
385.777	125.23
385.991	91.9
386.206	83.96
386.42	90.54
386.634	126.97
386.849	110.31
387.063	129.1
387.277	80.08
387.492	77.95
387.706	66.33
387.92	70.78
388.135	126
388.349	105.08
388.563	127.74
388.778	111.28
388.992	138.4
389.206	125.03
389.42	178.31
389.635	98.88
389.849	144.6
390.063	168.43
390.277	135.3
390.491	215.32
390.706	135.49
390.92	161.26
391.134	127.94
391.348	178.7
391.562	95.58
391.776	122.9
391.99	125.42
392.205	167.07
392.419	127.36
392.633	122.32
392.847	164.17
393.061	95.58
393.275	179.28
393.489	103.33
393.703	95.58
393.917	128.52
394.131	66.91
394.345	128.91
394.559	154.29
394.773	97.33
394.986	157.58
395.2	133.36
395.414	184.32
395.628	114.57
395.842	161.26
396.056	151.57
396.27	103.53
396.484	163.01
396.697	144.6
396.911	192.65
397.125	109.73
397.339	143.24
397.553	137.24
397.766	183.54
397.98	158.36
398.194	187.03
398.408	150.61
398.621	200.59
398.835	218.81
399.049	215.71
399.262	255.42
399.476	251.94
399.69	242.83
399.903	280.03
400.117	217.84
400.331	262.2
400.544	188.19
400.758	325.17
400.971	259.3
401.185	272.86
401.398	204.08
401.612	300.95
401.826	274.41
402.039	296.11
402.253	216.87
402.466	264.34
402.68	240.12
402.893	296.5
403.106	269.57
403.32	249.42
403.533	278.09
403.747	251.74
403.96	278.29
404.174	315.87
404.387	206.41
404.6	291.85
404.814	321.88
405.027	267.63
405.24	273.05
405.454	291.27
405.667	311.61
405.88	225.59
406.094	267.44
406.307	336.02
406.52	308.32
406.733	245.74
406.947	238.18
407.16	311.8
407.373	334.47
407.586	275.57
407.799	225.2
408.012	292.43
408.226	283.32
408.439	319.55
408.652	231.01
408.865	332.92
409.078	391.24
409.291	338.15
409.504	268.21
409.717	315.68
409.93	344.93
410.143	325.75
410.357	261.62
410.57	263.95
410.783	283.32
410.996	301.73
411.209	292.62
411.421	384.65
411.634	310.84
411.847	299.02
412.06	338.93
412.273	339.9
412.486	356.95
412.699	423.98
412.912	340.09
413.125	355.4
413.338	341.83
413.55	367.6
413.763	327.69
413.976	357.72
414.189	331.57
414.402	319.94
414.615	408.48
414.827	326.72
415.04	379.42
415.253	379.62
415.466	427.08
415.678	425.15
415.891	361.4
416.104	356.17
416.316	339.12
416.529	316.65
416.742	409.45
416.954	421.46
417.167	386.78
417.38	370.12
417.592	413.13
417.805	334.67
418.017	332.34
418.23	409.06
418.442	352.68
418.655	362.18
418.868	381.55
419.08	410.23
419.293	410.23
419.505	415.46
419.718	388.33
419.93	396.08
420.142	374.58
420.355	414.49
420.567	421.08
420.78	409.06
420.992	358.69
421.205	439.87
421.417	341.06
421.629	399.57
421.842	380.78
422.054	349.2
422.266	437.55
422.479	459.25
422.691	387.17
422.903	412.36
423.115	392.6
423.328	365.67
423.54	387.75
423.752	375.16
423.964	389.3
424.177	400.35
424.389	393.37
424.601	529.77
424.813	411.97
425.025	423.98
425.238	451.11
425.45	393.57
425.662	399.38
425.874	693.29
426.086	411.2
426.298	439.1
426.51	429.41
426.722	417.59
426.934	395.12
427.146	415.85
427.358	398.6
427.57	445.49
427.782	385.43
427.994	386.01
428.206	361.6
428.418	382.72
428.63	467.58
428.842	456.92
429.054	451.69
429.266	459.63
429.478	393.18
429.69	397.83
429.902	361.4
430.114	418.95
430.325	404.22
430.537	371.09
430.749	364.7
430.961	273.64
431.173	336.22
431.384	372.83
431.596	315.49
431.808	373.42
432.02	444.33
432.231	489.28
432.443	503.81
432.655	496.44
432.867	477.07
433.078	492.76
433.29	535.19
433.502	498.58
433.713	518.73
433.925	491.02
434.136	558.06
434.348	433.48
434.56	425.53
434.771	559.61
434.983	412.75
435.194	462.15
435.406	503.23
435.617	546.24
435.829	575.69
436.04	531.9
436.252	531.13
436.463	566
436.675	588.67
436.886	555.73
437.098	576.27
437.309	604.17
437.521	553.02
437.732	568.52
437.943	535.78
438.155	577.82
438.366	505.94
438.578	557.48
438.789	533.64
439	544.69
439.211	496.25
439.423	526.09
439.634	553.79
439.845	544.88
440.057	539.84
440.268	596.81
440.479	549.73
440.69	572.59
440.902	569.88
441.113	560.19
441.324	554.18
441.535	609.59
441.746	620.83
441.957	573.75
442.168	600.87
442.38	621.41
442.591	629.36
442.802	584.6
443.013	598.74
443.224	631.49
443.435	615.6
443.646	605.14
443.857	619.86
444.068	602.62
444.279	573.17
444.49	698.72
444.701	619.67
444.912	746.57
445.123	696.78
445.334	637.49
445.545	671.59
445.756	628.77
445.967	596.81
446.178	625.09
446.388	649.89
446.599	642.14
446.81	643.69
447.021	570.46
447.232	654.16
447.443	708.6
447.653	608.43
447.864	688.25
448.075	667.91
448.286	704.53
448.496	681.86
448.707	739.79
448.918	676.24
449.129	759.94
449.339	647.37
449.55	703.37
449.761	660.16
449.971	715.57
450.182	657.64
450.393	701.43
450.603	646.6
450.814	744.25
451.024	719.25
451.235	767.88
451.446	803.53
451.656	790.75
451.867	709.37
452.077	732.43
452.288	776.8
452.498	801.21
452.709	710.15
452.919	715.19
453.13	694.84
453.34	721.58
453.55	662.1
453.761	728.17
453.971	691.74
454.182	725.26
454.392	717.7
454.602	774.08
454.813	758.2
455.023	762.65
455.233	681.47
455.444	716.54
455.654	650.09
455.864	681.09
456.075	713.64
456.285	694.07
456.495	716.35
456.705	724.29
456.916	798.11
457.126	808.18
457.336	740.95
457.546	683.41
457.756	721.58
457.967	807.6
458.177	732.62
458.387	758.58
458.597	710.92
458.807	737.27
459.017	735.72
459.227	725.84
459.437	717.9
459.647	764.78
459.857	757.81
460.068	730.1
460.278	790.17
460.488	803.15
460.698	814.19
460.908	714.6
461.117	748.12
461.327	747.93
461.537	780.87
461.747	801.21
461.957	790.36
462.167	909.71
462.377	825.43
462.587	821.75
462.797	856.62
463.007	776.22
463.216	857.2
463.426	885.68
463.636	886.85
463.846	761.88
464.056	787.26
464.265	845
464.475	767.3
464.685	820
464.895	838.6
465.104	805.47
465.314	843.45
465.524	782.22
465.733	783
465.943	903.9
466.153	922.88
466.362	860.11
466.572	856.04
466.782	835.12
466.991	837.44
467.201	886.46
467.41	781.06
467.62	811.67
467.829	834.73
468.039	858.95
468.249	849.06
468.458	870.57
468.668	902.35
468.877	891.88
469.086	913.58
469.296	916.88
469.505	899.83
469.715	929.66
469.924	845.96
470.134	927.73
470.343	959.69
470.552	887.23
470.762	894.6
470.971	875.61
471.18	881.61
471.39	901.38
471.599	847.13
471.808	929.28
472.018	902.54
472.227	983.91
472.436	1002.51
472.645	959.69
472.855	904.86
473.064	1038.55
473.273	1003.48
473.482	965.7
473.691	1024.02
473.901	990.11
474.11	984.69
474.319	1080.79
474.528	948.07
474.737	1058.51
474.946	1028.86
475.155	1036.22
475.364	1092.02
475.573	1040.29
475.783	1060.64
475.992	1073.04
476.201	1076.91
476.41	1058.51
476.619	1042.23
476.828	1082.92
477.037	1012.39
477.245	1042.04
477.454	1105.01
477.663	1090.67
477.872	1144.92
478.081	1149.18
478.29	1067.61
478.499	1210.6
478.708	1179.79
478.917	1220.67
479.125	1171.46
479.334	1165.65
479.543	1157.7
479.752	1180.37
479.961	1169.52
480.169	1249.73
480.378	1222.42
480.587	1323.16
480.796	1273.37
481.004	1222.22
481.213	1244.31
481.422	1234.62
481.63	1287.9
481.839	1271.43
482.048	1358.04
482.256	1285.58
482.465	1319.1
482.674	1332.08
482.882	1356.68
483.091	1370.63
483.299	1285.58
483.508	1374.7
483.716	1315.8
483.925	1331.88
484.134	1297.01
484.342	1334.4
484.551	1367.34
484.759	1334.6
484.967	1371.02
485.176	1393.49
485.384	1428.18
485.593	1410.16
485.801	1381.48
486.01	1351.06
486.218	1272.21
486.426	1159.64
486.635	1192
486.843	1158.87
487.051	1218.93
487.26	1216.22
487.468	1278.41
487.676	1315.03
487.885	1319.29
488.093	1358.23
488.301	1388.07
488.509	1406.67
488.717	1465.18
488.926	1397.95
489.134	1419.84
489.342	1420.43
489.55	1372.96
489.758	1441.93
489.967	1418.29
490.175	1526.21
490.383	1505.29
490.591	1570.39
490.799	1507.22
491.007	1564.38
491.215	1514.39
491.423	1512.84
491.631	1548.69
491.839	1476.03
492.047	1521.76
492.255	1495.6
492.463	1421.98
492.671	1478.55
492.879	1526.41
493.087	1492.31
493.295	1543.26
493.503	1542.29
493.711	1587.44
493.919	1578.72
494.127	1613.2
494.334	1599.06
494.542	1520.59
494.75	1570.97
494.958	1598.87
495.166	1667.07
495.374	1633.55
495.581	1645.37
495.789	1652.73
495.997	1692.64
496.205	1599.25
496.412	1587.05
496.62	1629.67
496.828	1644.01
497.035	1653.89
497.243	1650.02
497.451	1657.77
497.658	1661.25
497.866	1646.33
498.074	1702.52
498.281	1639.17
498.489	1704.27
498.696	1595.57
498.904	1606.42
499.112	1571.94
499.319	1652.92
499.527	1638.39
499.734	1690.12
499.942	1606.62
500.149	1636.65
500.357	1690.51
500.564	1602.74
500.771	1647.11
500.979	1603.52
501.186	1594.22
501.394	1626.38
501.601	1620.18
501.808	1644.98
502.016	1593.05
502.223	1619.6
502.43	1629.48
502.638	1632.19
502.845	1597.51
503.052	1733.33
503.26	1634.71
503.467	1744.18
503.674	1722.48
503.881	1709.11
504.089	1756.96
504.296	1698.26
504.503	1645.37
504.71	1670.17
504.917	1635.1
505.125	1683.92
505.332	1688.96
505.539	1727.51
505.746	1814.12
505.953	1777.89
506.16	1778.08
506.367	1813.34
506.574	1850.93
506.781	1819.35
506.988	1762.58
507.195	1792.03
507.402	1749.02
507.609	1831.17
507.816	1760.45
508.023	1765.49
508.23	1712.98
508.437	1674.62
508.644	1724.22
508.851	1807.34
509.058	1765.88
509.265	1778.86
509.472	1798.23
509.679	1876.31
509.885	1796.49
510.092	1824.39
510.299	1808.69
510.506	1776.34
510.713	1791.45
510.92	1797.07
511.126	1805.4
511.333	1837.18
511.54	1831.56
511.746	1906.73
511.953	1893.36
512.16	1891.23
512.367	1847.64
512.573	1820.51
512.78	1836.98
512.987	1802.69
513.193	1825.16
513.4	1744.18
513.606	1799.59
513.813	1840.86
514.02	1819.35
514.226	1877.67
514.433	1841.83
514.639	1765.49
514.846	1813.54
515.052	1807.92
515.259	1850.16
515.465	1813.34
515.672	1840.08
515.878	1900.14
516.085	1850.93
516.291	1906.15
516.497	1857.91
516.704	1835.43
516.91	1762.39
517.117	1706.78
517.323	1634.71
517.529	1671.52
517.736	1680.43
517.942	1677.92
518.148	1664.93
518.354	1751.15
518.561	1744.37
518.767	1762.78
518.973	1757.35
519.179	1771.5
519.386	1754.25
519.592	1759.29
519.798	1741.46
520.004	1898.79
520.21	1859.07
520.417	1912.16
520.623	1916.42
520.829	1941.41
521.035	1944.32
521.241	1895.49
521.447	1957.49
521.653	2057.47
521.859	1982.29
522.065	1961.17
522.271	2081.49
522.477	1976.29
522.683	2068.7
522.889	2004.57
523.095	1992.95
523.301	1977.84
523.507	1950.13
523.713	2024.92
523.919	1963.69
524.125	2050.1
524.331	2019.69
524.537	2148.53
524.742	2108.81
524.948	2100.67
525.154	2134.38
525.36	2212.27
525.566	2090.4
525.772	2158.99
525.977	2067.74
526.183	2118.3
526.389	2148.53
526.595	2089.05
526.8	2075.29
527.006	2005.74
527.212	1920.87
527.417	1912.74
527.623	1921.07
527.829	2007.67
528.034	2018.91
528.24	2062.31
528.446	2049.14
528.651	2143.49
528.857	2160.35
529.062	2225.25
529.268	2202.97
529.473	2235.33
529.679	2220.41
529.884	2353.12
530.09	2301.78
530.295	2260.32
530.501	2265.16
530.706	2257.41
530.912	2202.78
531.117	2268.26
531.323	2274.08
531.528	2313.41
531.733	2336.46
531.939	2281.24
532.144	2329.29
532.35	2313.21
532.555	2308.95
532.76	2283.18
532.966	2275.24
533.171	2252.96
533.376	2185.34
533.581	2159.96
533.787	2246.76
533.992	2241.72
534.197	2269.62
534.402	2278.14
534.607	2290.93
534.813	2359.71
535.018	2276.4
535.223	2265.36
535.428	2321.16
535.633	2368.24
535.838	2369.01
536.043	2364.56
536.249	2438.76
536.454	2344.79
536.659	2414.74
536.864	2336.46
537.069	2330.07
537.274	2350.8
537.479	2376.76
537.684	2344.02
537.889	2294.81
538.094	2452.52
538.299	2366.3
538.504	2381.22
538.708	2419.39
538.913	2467.82
539.118	2410.09
539.323	2392.46
539.528	2344.41
539.733	2368.24
539.938	2383.54
540.142	2353.9
540.347	2300.23
540.552	2288.41
540.757	2316.31
540.962	2335.11
541.166	2248.31
541.371	2235.71
541.576	2307.79
541.781	2182.24
541.985	2346.54
542.19	2295
542.395	2404.47
542.599	2416.48
542.804	2373.08
543.008	2448.45
543.213	2371.53
543.418	2347.31
543.622	2371.53
543.827	2331.62
544.031	2429.27
544.236	2446.9
544.44	2396.91
544.645	2515.68
544.849	2394.01
545.054	2427.33
545.258	2507.73
545.463	2485.26
545.667	2406.02
545.872	2447.67
546.076	2485.84
546.281	2466.47
546.485	2416.29
546.689	2508.12
546.894	2469.18
547.098	2444.77
547.302	2439.73
547.507	2437.4
547.711	2456.59
547.915	2486.23
548.119	2366.11
548.324	2381.8
548.528	2499.02
548.732	2421.9
548.936	2486.23
549.141	2511.22
549.345	2428.49
549.549	2459.88
549.753	2446.7
549.957	2516.07
550.161	2536.41
550.366	2468.21
550.57	2444.77
550.774	2437.99
550.978	2417.84
551.182	2516.45
551.386	2471.7
551.59	2438.57
551.794	2442.05
551.998	2473.64
552.202	2459.1
552.406	2431.79
552.61	2467.82
552.814	2466.27
553.018	2531.37
553.222	2434.11
553.426	2427.33
553.63	2496.69
553.833	2464.34
554.037	2388.77
554.241	2447.87
554.445	2468.6
554.649	2467.63
554.853	2424.62
555.056	2494.56
555.26	2498.44
555.464	2468.99
555.668	2480.22
555.871	2475.96
556.075	2507.93
556.279	2428.3
556.483	2446.51
556.686	2430.62
556.89	2455.62
557.094	2449.61
557.297	2373.47
557.501	2456.59
557.704	2360.49
557.908	2449.8
558.112	2346.34
558.315	2447.29
558.519	2401.37
558.722	2381.02
558.926	2344.99
559.129	2305.66
559.333	2260.51
559.536	2264.78
559.74	2268.84
559.943	2213.05
560.147	2278.34
560.35	2293.84
560.553	2255.28
560.757	2240.36
560.96	2363.2
561.164	2306.43
561.367	2387.81
561.57	2319.8
561.774	2300.62
561.977	2328.91
562.18	2239.2
562.384	2390.71
562.587	2272.72
562.79	2252.76
562.993	2281.83
563.197	2334.72
563.4	2347.31
563.603	2313.6
563.806	2377.92
564.009	2282.99
564.212	2297.33
564.416	2210.33
564.619	2276.4
564.822	2208.78
565.025	2303.14
565.228	2258.58
565.431	2264
565.634	2155.12
565.837	2238.62
566.04	2196.96
566.243	2199.68
566.446	2077.62
566.649	2184.95
566.852	2104.93
567.055	2154.73
567.258	2186.11
567.461	2247.73
567.664	2222.54
567.867	2130.7
568.07	2171.39
568.273	2194.45
568.475	2227.96
568.678	2155.5
568.881	2151.82
569.084	2140.39
569.287	2015.04
569.489	2054.95
569.692	2100.48
569.895	2141.36
570.098	2033.05
570.3	2030.54
570.503	1966.41
570.706	1982.68
570.909	2014.26
571.111	1991.2
571.314	1965.82
571.516	1990.82
571.719	1995.85
571.922	1964.27
572.124	1939.28
572.327	2031.5
572.529	1961.37
572.732	1986.75
572.935	2022.2
573.137	2122.18
573.34	1959.43
573.542	2064.05
573.745	2013.1
573.947	2034.22
574.15	1984.62
574.352	1991.59
574.554	2058.05
574.757	1982.87
574.959	1952.65
575.162	1963.31
575.364	1944.71
575.566	2061.73
575.769	1940.64
575.971	1946.06
576.173	1830.39
576.376	1908.67
576.578	1977.64
576.78	2042.35
576.982	1866.24
577.185	1937.54
577.387	1886.58
577.589	1883.09
577.791	1961.95
577.993	1952.07
578.196	1942.96
578.398	1921.07
578.6	1943.93
578.802	1859.65
579.004	1847.64
579.206	1876.7
579.408	1899.17
579.61	1856.94
579.812	1912.74
580.014	1856.55
580.216	1859.65
580.418	1869.34
580.62	1851.71
580.822	1867.79
581.024	1920.87
581.226	1910.22
581.428	1833.3
581.63	1929.01
581.832	1876.89
582.034	1956.52
582.236	1886.58
582.438	1890.46
582.64	1951.1
582.841	1941.8
583.043	1978.42
583.245	1908.67
583.447	1911.19
583.649	1901.89
583.85	1919.52
584.052	1930.37
584.254	1864.88
584.456	1958.27
584.657	1860.62
584.859	1913.32
585.061	1859.65
585.262	1869.14
585.464	1831.94
585.666	1891.23
585.867	1811.02
586.069	1909.44
586.27	1841.63
586.472	1868.37
586.674	1837.56
586.875	1848.22
587.077	1807.53
587.278	1848.41
587.48	1805.98
587.681	1927.46
587.883	1831.17
588.084	1760.84
588.285	1793.58
588.487	1823.61
588.688	1822.06
588.89	1758.71
589.091	1682.76
589.292	1709.88
589.494	1677.14
589.695	1635.48
589.896	1563.8
590.098	1587.24
590.299	1605.26
590.5	1591.31
590.702	1620.37
590.903	1628.9
591.104	1682.18
591.305	1689.73
591.507	1761.42
591.708	1692.06
591.909	1700.97
592.11	1774.01
592.311	1736.04
592.512	1667.84
592.714	1649.24
592.915	1686.44
593.116	1661.83
593.317	1673.85
593.518	1683.73
593.719	1655.83
593.92	1709.69
594.121	1755.22
594.322	1742.05
594.523	1711.43
594.724	1631.61
594.925	1649.82
595.126	1672.1
595.327	1633.55
595.528	1686.83
595.729	1702.13
595.929	1644.4
596.13	1655.83
596.331	1682.76
596.532	1687.6
596.733	1763.16
596.934	1727.13
597.135	1755.61
597.335	1722.67
597.536	1671.72
597.737	1684.12
597.938	1660.28
598.138	1685.28
598.339	1647.3
598.54	1690.7
598.74	1659.7
598.941	1696.9
599.142	1692.06
599.342	1666.1
599.543	1679.08
599.744	1660.28
599.944	1662.03
600.145	1656.22
600.345	1654.47
600.546	1738.56
600.746	1743.6
600.947	1737.59
601.147	1687.41
601.348	1733.71
601.548	1650.4
601.749	1673.27
601.949	1637.42
602.15	1604.68
602.35	1631.22
602.551	1675.78
602.751	1586.66
602.951	1646.53
603.152	1577.75
603.352	1654.08
603.552	1653.89
603.753	1706.2
603.953	1682.37
604.153	1659.9
604.354	1646.53
604.554	1660.67
604.754	1628.51
604.954	1639.94
605.155	1664.74
605.355	1657.77
605.555	1680.05
605.755	1711.63
605.955	1649.82
606.155	1696.9
606.356	1653.12
606.556	1696.71
606.756	1683.73
606.956	1615.72
607.156	1686.44
607.356	1625.22
607.556	1683.15
607.756	1662.22
607.956	1674.23
608.156	1667.45
608.356	1617.27
608.556	1681.02
608.756	1625.02
608.956	1607.97
609.156	1640.52
609.356	1592.86
609.556	1583.75
609.755	1622.89
609.955	1582.59
610.155	1619.6
610.355	1587.24
610.555	1563.22
610.755	1542.1
610.954	1532.41
611.154	1602.94
611.354	1632.97
611.554	1559.34
611.753	1587.82
611.953	1543.26
612.153	1600.42
612.352	1597.7
612.552	1505.09
612.752	1477.39
612.951	1560.5
613.151	1541.13
613.351	1542.1
613.55	1545.78
613.75	1577.36
613.949	1541.13
614.149	1538.42
614.348	1513.23
614.548	1509.36
