Data from gum_old_FLMT105791__4__15-42-26-259.txt Node

Date: Mon Mar 20 15:42:26 GMT 2023
User: antho
Spectrometer: FLMT10579
Trigger mode: 0
Integration Time (sec): 1.000000E-1
Scans to average: 10
Electric dark correction enabled: true
Nonlinearity correction enabled: false
Boxcar width: 0
XAxis mode: Wavelengths
Number of Pixels in Spectrum: 3648
>>>>>Begin Spectral Data<<<<<
345.248	-179.22
345.464	-179.22
345.681	-179.22
345.898	-186.97
346.114	-166.82
346.331	-50.96
346.548	43.79
346.764	6.97
346.981	-8.91
347.197	-13.95
347.414	2.32
347.631	16.27
347.847	41.46
348.064	4.26
348.28	21.31
348.497	-48.63
348.713	-13.95
348.93	22.28
349.146	26.35
349.363	-16.86
349.579	28.67
349.796	19.76
350.012	-4.46
350.229	27.32
350.445	46.11
350.661	10.66
350.878	0.19
351.094	31.58
351.311	72.85
351.527	46.89
351.743	3.1
351.96	57.54
352.176	48.63
352.392	42.43
352.609	66.07
352.825	-0.19
353.041	50.96
353.257	29.06
353.474	47.86
353.69	41.07
353.906	37.59
354.122	-0
354.339	69.75
354.555	31.58
354.771	41.66
354.987	52.7
355.203	81.18
355.42	29.64
355.636	12.59
355.852	13.17
356.068	65.1
356.284	-29.84
356.5	71.69
356.716	43.79
356.932	26.35
357.148	69.36
357.364	14.92
357.58	58.71
357.796	75.76
358.012	79.82
358.228	57.93
358.444	-10.07
358.66	64.91
358.876	61.22
359.092	16.08
359.308	46.5
359.524	39.52
359.74	24.22
359.956	33.13
360.172	61.81
360.388	63.94
360.604	31.39
360.819	118.57
361.035	49.6
361.251	87.77
361.467	1.74
361.683	74.21
361.898	50.57
362.114	70.91
362.33	47.27
362.546	74.01
362.762	31.77
362.977	41.27
363.193	15.11
363.409	89.12
363.624	19.76
363.84	32.55
364.056	36.04
364.271	46.31
364.487	68.78
364.703	55.8
364.918	21.7
365.134	39.91
365.35	58.12
365.565	127.1
365.781	65.29
365.996	90.29
366.212	145.31
366.427	73.24
366.643	86.99
366.858	58.51
367.074	32.55
367.289	134.85
367.505	195.1
367.72	52.7
367.936	54.83
368.151	112.18
368.367	79.44
368.582	80.79
368.798	72.27
369.013	117.8
369.228	76.72
369.444	93.19
369.659	120.51
369.874	84.09
370.09	146.28
370.305	15.69
370.52	89.9
370.736	136.2
370.951	92.03
371.166	144.15
371.381	129.42
371.597	100.55
371.812	59.48
372.027	36.81
372.242	95.71
372.458	166.82
372.673	61.22
372.888	74.98
373.103	90.09
373.318	161.39
373.533	110.63
373.749	99.39
373.964	29.06
374.179	116.44
374.394	57.93
374.609	111.02
374.824	39.33
375.039	124
375.254	43.59
375.469	141.63
375.684	75.37
375.899	117.99
376.114	89.9
376.329	122.64
376.544	130.97
376.759	108.69
376.974	74.4
377.189	80.79
377.404	81.18
377.619	159.26
377.834	93.97
378.049	61.22
378.264	77.31
378.478	109.08
378.693	95.32
378.908	116.44
379.123	109.85
379.338	138.72
379.553	104.82
379.767	114.7
379.982	123.03
380.197	102.1
380.412	94.16
380.626	122.25
380.841	174.37
381.056	138.14
381.271	175.92
381.485	90.67
381.7	82.15
381.915	135.62
382.129	88.15
382.344	85.44
382.559	102.49
382.773	117.02
382.988	36.81
383.202	119.93
383.417	48.63
383.632	173.79
383.846	88.15
384.061	118.38
384.275	81.18
384.49	124
384.704	149.19
384.919	129.23
385.133	104.43
385.348	143.95
385.562	101.91
385.777	138.72
385.991	106.17
386.206	100.17
386.42	95.71
386.634	146.67
386.849	117.8
387.063	127.1
387.277	93
387.492	112.37
387.706	98.81
387.92	93.97
388.135	145.31
388.349	149.19
388.563	115.28
388.778	138.53
388.992	151.7
389.206	144.92
389.42	227.85
389.635	128.07
389.849	163.52
390.063	199.17
390.277	139.11
390.491	220.1
390.706	176.7
390.92	181.35
391.134	165.27
391.348	187.93
391.562	149.57
391.776	175.34
391.99	161.2
392.205	208.28
392.419	146.28
392.633	155
392.847	210.22
393.061	107.92
393.275	190.07
393.489	130.59
393.703	111.21
393.917	168.17
394.131	96.1
394.345	143.18
394.559	171.08
394.773	141.24
394.986	161.59
395.2	167.2
395.414	213.32
395.628	155.58
395.842	192.97
396.056	178.44
396.27	127.68
396.484	183.87
396.697	190.07
396.911	184.83
397.125	126.9
397.339	162.55
397.553	140.85
397.766	201.3
397.98	226.3
398.194	231.33
398.408	196.85
398.621	246.06
398.835	264.08
399.049	279.77
399.262	299.92
399.476	296.05
399.69	302.63
399.903	347.78
400.117	289.65
400.331	317.75
400.544	270.86
400.758	413.65
400.971	325.69
401.185	340.22
401.398	266.4
401.612	338.67
401.826	331.11
402.039	331.5
402.253	292.17
402.466	346.61
402.68	316.97
402.893	320.46
403.106	315.03
403.32	330.73
403.533	354.56
403.747	329.56
403.96	355.91
404.174	354.56
404.387	285.78
404.6	355.72
404.814	385.56
405.027	348.16
405.24	328.21
405.454	300.89
405.667	365.41
405.88	279.19
406.094	347.39
406.307	371.99
406.52	341.38
406.733	324.53
406.947	272.6
407.16	411.33
407.373	378.97
407.586	321.43
407.799	333.25
408.012	366.57
408.226	345.06
408.439	402.22
408.652	339.64
408.865	380.71
409.078	419.85
409.291	407.64
409.504	374.9
409.717	400.86
409.93	397.76
410.143	394.86
410.357	298.76
410.57	307.28
410.783	324.53
410.996	357.46
411.209	326.27
411.421	410.16
411.634	390.98
411.847	361.92
412.06	399.89
412.273	393.5
412.486	415.78
412.699	476.42
412.912	448.52
413.125	442.32
413.338	390.21
413.55	441.55
413.763	393.31
413.976	411.91
414.189	399.7
414.402	407.45
414.615	489.79
414.827	401.06
415.04	454.53
415.253	441.74
415.466	461.89
415.678	500.26
415.891	447.75
416.104	432.64
416.316	439.81
416.529	402.03
416.742	490.57
416.954	494.44
417.167	447.36
417.38	461.89
417.592	492.31
417.805	419.66
418.017	400.67
418.23	460.54
418.442	382.84
418.655	432.25
418.868	450.85
419.08	478.94
419.293	506.26
419.505	472.36
419.718	458.41
419.93	483.4
420.142	427.6
420.355	504.71
420.567	478.17
420.78	466.54
420.992	463.25
421.205	547.72
421.417	451.43
421.629	475.26
421.842	440
422.054	422.18
422.266	495.22
422.479	511.49
422.691	447.75
422.903	502.39
423.115	449.3
423.328	468.09
423.54	496.57
423.752	478.75
423.964	476.42
424.177	505.29
424.389	473.71
424.601	587.25
424.813	509.94
425.025	519.63
425.238	503.36
425.45	482.43
425.662	494.64
425.874	806.38
426.086	501.61
426.298	527.57
426.51	520.99
426.722	510.72
426.934	461.12
427.146	521.96
427.358	472.55
427.57	548.69
427.782	479.72
427.994	506.84
428.206	457.44
428.418	476.81
428.63	530.48
428.842	573.1
429.054	523.31
429.266	518.27
429.478	485.34
429.69	490.96
429.902	437.48
430.114	506.65
430.325	468.09
430.537	409.78
430.749	425.47
430.961	349.71
431.173	401.83
431.384	430.89
431.596	353.39
431.808	440.58
432.02	539.39
432.231	556.64
432.443	600.42
432.655	590.15
432.867	516.92
433.078	587.44
433.29	610.11
433.502	587.05
433.713	628.71
433.925	605.27
434.136	626.58
434.348	526.6
434.56	478.94
434.771	650.41
434.983	522.15
435.194	539.78
435.406	582.02
435.617	628.52
435.829	709.11
436.04	644.6
436.252	614.95
436.463	678.7
436.675	699.23
436.886	662.23
437.098	696.72
437.309	738.76
437.521	670.75
437.732	681.6
437.943	632
438.155	652.73
438.366	578.53
438.578	704.85
438.789	645.76
439	634.33
439.211	607.4
439.423	629.29
439.634	654.87
439.845	700.4
440.057	697.49
440.268	720.74
440.479	648.47
440.69	696.72
440.902	653.9
441.113	643.63
441.324	668.62
441.535	705.05
441.746	797.46
441.957	705.05
442.168	715.51
442.38	735.27
442.591	730.81
442.802	707.95
443.013	751.16
443.224	770.92
443.435	775.57
443.646	750.77
443.857	733.14
444.068	759.88
444.279	724.81
444.49	823.62
444.701	754.65
444.912	866.63
445.123	812.38
445.334	762.4
445.545	786.23
445.756	774.6
445.967	718.8
446.178	749.22
446.388	774.41
446.599	784.1
446.81	786.03
447.021	717.64
447.232	792.43
447.443	819.94
447.653	785.65
447.864	856.75
448.075	826.53
448.286	827.49
448.496	827.69
448.707	866.83
448.918	803.86
449.129	870.31
449.339	795.91
449.55	858.88
449.761	802.31
449.971	853.46
450.182	818
450.393	860.63
450.603	814.9
450.814	883.49
451.024	892.01
451.235	909.06
451.446	943.74
451.656	930.76
451.867	833.89
452.077	872.25
452.288	903.25
452.498	910.81
452.709	864.69
452.919	864.31
453.13	820.91
453.34	863.92
453.55	774.02
453.761	869.34
453.971	856.17
454.182	878.26
454.392	897.44
454.602	920.3
454.813	902.86
455.023	893.17
455.233	850.55
455.444	880.19
455.654	789.52
455.864	854.62
456.075	884.65
456.285	859.66
456.495	860.04
456.705	886.59
456.916	920.88
457.126	969.9
457.336	907.51
457.546	844.35
457.756	882.13
457.967	943.36
458.177	863.53
458.387	897.24
458.597	842.61
458.807	889.88
459.017	863.73
459.227	881.16
459.437	882.32
459.647	942.97
459.857	917.01
460.068	883.49
460.278	964.47
460.488	940.84
460.698	972.22
460.908	925.53
461.117	910.42
461.327	900.34
461.537	945.68
461.747	976.1
461.957	979.78
462.167	1071.81
462.377	985.4
462.587	967.57
462.797	994.31
463.007	981.33
463.216	1015.43
463.426	1051.08
463.636	1012.52
463.846	885.81
464.056	944.32
464.265	986.95
464.475	933.09
464.685	980.94
464.895	1019.89
465.104	932.7
465.314	985.2
465.524	956.34
465.733	904.8
465.943	1028.8
466.153	1058.05
466.362	1054.37
466.572	999.54
466.782	986.56
466.991	1013.1
467.201	1032.29
467.41	954.98
467.62	999.35
467.829	973.39
468.039	1030.35
468.249	1028.41
468.458	1035
468.668	1066
468.877	1040.62
469.086	1118.5
469.296	1092.73
469.505	1023.57
469.715	1194.06
469.924	1101.07
470.134	1116.57
470.343	1125.87
470.552	1054.76
470.762	1061.35
470.971	1034.03
471.18	1058.63
471.39	1088.86
471.599	1036.94
471.808	1101.26
472.018	1100.87
472.227	1149.31
472.436	1204.14
472.645	1148.53
472.855	1158.03
473.064	1237.85
473.273	1217.31
473.482	1199.68
473.691	1222.93
473.901	1194.45
474.11	1156.09
474.319	1277.76
474.528	1187.28
474.737	1272.73
474.946	1239.4
475.155	1251.22
475.364	1307.41
475.573	1263.81
475.783	1295.98
475.992	1292.1
476.201	1324.46
476.41	1268.46
476.619	1246.38
476.828	1293.26
477.037	1263.62
477.245	1266.91
477.454	1313.61
477.663	1319.61
477.872	1367.86
478.081	1430.24
478.29	1333.76
478.499	1469.19
478.708	1406.22
478.917	1466.28
479.125	1420.94
479.334	1405.64
479.543	1385.87
479.752	1479.65
479.961	1420.17
480.169	1502.51
480.378	1441.09
480.587	1590.66
480.796	1486.43
481.004	1501.35
481.213	1527.7
481.422	1506.19
481.63	1506.58
481.839	1542.81
482.048	1598.03
482.256	1572.07
482.465	1570.9
482.674	1614.5
482.882	1610.81
483.091	1661.19
483.299	1592.02
483.508	1585.43
483.716	1637.55
483.925	1617.79
484.134	1572.07
484.342	1607.33
484.551	1635.61
484.759	1617.21
484.967	1671.26
485.176	1668.74
485.384	1667
485.593	1631.74
485.801	1629.8
486.01	1613.33
486.218	1520.53
486.426	1433.15
486.635	1428.89
486.843	1376.96
487.051	1444.19
487.26	1424.43
487.468	1478.87
487.676	1606.75
487.885	1567.22
488.093	1599.96
488.301	1689.67
488.509	1673.98
488.717	1730.16
488.926	1731.52
489.134	1691.22
489.342	1722.8
489.55	1639.68
489.758	1677.08
489.967	1754.19
490.175	1850.48
490.383	1799.91
490.591	1894.07
490.799	1811.34
491.007	1817.74
491.215	1842.73
491.423	1833.62
491.631	1804.56
491.839	1800.3
492.047	1853.97
492.255	1754.57
492.463	1732.49
492.671	1725.51
492.879	1781.89
493.087	1803.01
493.295	1841.95
493.503	1859.39
493.711	1924.3
493.919	1919.45
494.127	1938.83
494.334	1906.09
494.542	1841.18
494.75	1892.72
494.958	1889.23
495.166	1989.2
495.374	1977.58
495.581	1991.53
495.789	1982.03
495.997	2035.51
496.205	1922.17
496.412	1953.36
496.62	1932.43
496.828	1970.22
497.035	1954.33
497.243	1977
497.451	1982.03
497.658	2011.29
497.866	1990.56
498.074	2047.71
498.281	1970.22
498.489	2050.81
498.696	1959.37
498.904	1918.29
499.112	1910.93
499.319	2046.16
499.527	1982.42
499.734	2034.54
499.942	1958.2
500.149	1966.73
500.357	1996.76
500.564	1954.91
500.771	1981.45
500.979	1916.74
501.186	1936.5
501.394	1967.12
501.601	1928.95
501.808	1957.43
502.016	1903.76
502.223	1905.5
502.43	1943.48
502.638	1917.71
502.845	1936.89
503.052	2007.61
503.26	1950.07
503.467	2050.81
503.674	2032.6
503.881	2042.68
504.089	2059.92
504.296	2021.36
504.503	1969.05
504.71	2004.51
504.917	1957.23
505.125	2030.08
505.332	2006.25
505.539	2030.86
505.746	2095.18
505.953	2121.34
506.16	2120.76
506.367	2169.39
506.574	2204.84
506.781	2187.02
506.988	2106.61
507.195	2128.7
507.402	2086.85
507.609	2101.77
507.816	2111.07
508.023	2037.25
508.23	2030.47
508.437	2015.55
508.644	2083.17
508.851	2123.28
509.058	2164.35
509.265	2085.69
509.472	2155.63
509.679	2199.03
509.885	2119.98
510.092	2123.66
510.299	2143.04
510.506	2125.99
510.713	2116.3
510.92	2160.28
511.126	2165.32
511.333	2193.41
511.54	2200.77
511.746	2226.93
511.953	2214.92
512.16	2273.04
512.367	2168.42
512.573	2157.38
512.78	2226.35
512.987	2176.56
513.193	2145.94
513.4	2075.81
513.606	2178.69
513.813	2180.43
514.02	2155.63
514.226	2203.29
514.433	2189.34
514.639	2139.36
514.846	2117.66
515.052	2133.93
515.259	2150.79
515.465	2147.11
515.672	2164.54
515.878	2225.96
516.085	2180.43
516.291	2243.01
516.497	2204.84
516.704	2158.73
516.91	2096.54
517.117	2021.95
517.323	1923.91
517.529	1987.65
517.736	1957.23
517.942	1980.87
518.148	2011.1
518.354	2051.2
518.561	2051.2
518.767	2026.21
518.973	2117.46
519.179	2100.03
519.386	2087.24
519.592	2104.68
519.798	2099.83
520.004	2227.9
520.21	2196.51
520.417	2276.34
520.623	2248.05
520.829	2297.45
521.035	2269.94
521.241	2300.75
521.447	2256.96
521.653	2432.5
521.859	2329.81
522.065	2352.29
522.271	2439.86
522.477	2384.45
522.683	2422.23
522.889	2372.24
523.095	2364.1
523.301	2330.97
523.507	2249.21
523.713	2366.62
523.919	2319.54
524.125	2392.97
524.331	2401.3
524.537	2543.71
524.742	2521.62
524.948	2529.95
525.154	2485.97
525.36	2623.72
525.566	2464.08
525.772	2542.54
525.977	2474.93
526.183	2532.28
526.389	2533.25
526.595	2419.71
526.8	2420.87
527.006	2351.51
527.212	2297.45
527.417	2265.68
527.623	2232.74
527.829	2384.25
528.034	2371.85
528.24	2409.05
528.446	2428.43
528.651	2547.58
528.857	2522.2
529.062	2600.09
529.268	2598.73
529.473	2590.98
529.679	2632.06
529.884	2692.7
530.09	2620.43
530.295	2647.56
530.501	2673.91
530.706	2609.19
530.912	2591.76
531.117	2672.16
531.323	2690.76
531.528	2729.7
531.733	2716.72
531.939	2668.29
532.144	2710.91
532.35	2681.66
532.555	2716.53
532.76	2692.89
532.966	2648.33
533.171	2638.45
533.376	2587.88
533.581	2546.03
533.787	2581.68
533.992	2668.67
534.197	2646.97
534.402	2667.51
534.607	2669.26
534.813	2749.85
535.018	2666.74
535.223	2703.74
535.428	2720.79
535.633	2763.61
535.838	2801.2
536.043	2765.35
536.249	2865.72
536.454	2761.09
536.659	2803.91
536.864	2790.35
537.069	2727.57
537.274	2743.85
537.479	2685.92
537.684	2807.78
537.889	2670.03
538.094	2807.2
538.299	2758.57
538.504	2810.88
538.708	2783.37
538.913	2814.37
539.118	2791.12
539.323	2789.19
539.528	2757.99
539.733	2719.63
539.938	2785.12
540.142	2711.1
540.347	2698.9
540.552	2714.59
540.757	2690.76
540.962	2674.1
541.166	2636.51
541.371	2631.09
541.576	2694.25
541.781	2601.06
541.985	2754.31
542.19	2763.42
542.395	2814.37
542.599	2835.88
542.804	2788.22
543.008	2845.37
543.213	2763.22
543.418	2740.55
543.622	2808.75
543.827	2730.48
544.031	2875.98
544.236	2850.02
544.44	2845.37
544.645	2874.63
544.849	2820.96
545.054	2896.33
545.258	2887.22
545.463	2897.1
545.667	2851.57
545.872	2857.19
546.076	2858.35
546.281	2846.15
546.485	2821.15
546.689	2852.73
546.894	2873.27
547.098	2854.28
547.302	2835.49
547.507	2826.58
547.711	2850.8
547.915	2904.46
548.119	2764.39
548.324	2789.19
548.528	2848.86
548.732	2811.27
548.936	2871.72
549.141	2879.08
549.345	2823.48
549.549	2850.02
549.753	2832.2
549.957	2929.46
550.161	2883.35
550.366	2867.07
550.57	2821.15
550.774	2863.39
550.978	2868.04
551.182	2896.13
551.386	2814.57
551.59	2834.52
551.794	2811.66
551.998	2865.13
552.202	2881.6
552.406	2842.85
552.61	2920.55
552.814	2878.5
553.018	2922.48
553.222	2830.45
553.426	2820.38
553.63	2966.46
553.833	2834.52
554.037	2778.92
554.241	2798.29
554.445	2862.42
554.649	2811.47
554.853	2871.53
555.056	2892.65
555.26	2902.72
555.464	2832.58
555.668	2843.43
555.871	2881.6
556.075	2864.75
556.279	2828.9
556.483	2806.62
556.686	2808.17
556.89	2820.18
557.094	2804.88
557.297	2705.68
557.501	2824.83
557.704	2722.92
557.908	2782.02
558.112	2731.45
558.315	2841.88
558.519	2740.55
558.722	2733.19
558.926	2728.54
559.129	2665.38
559.333	2653.37
559.536	2635.93
559.74	2616.36
559.943	2600.86
560.147	2626.24
560.35	2636.12
560.553	2682.82
560.757	2624.11
560.96	2701.22
561.164	2634.77
561.367	2765.55
561.57	2689.6
561.774	2685.34
561.977	2676.23
562.18	2637.29
562.384	2749.08
562.587	2682.04
562.79	2670.03
562.993	2655.31
563.197	2677.97
563.4	2708.2
563.603	2720.02
563.806	2771.55
564.009	2649.88
564.212	2680.3
564.416	2614.04
564.619	2649.49
564.822	2588.27
565.025	2648.91
565.228	2631.86
565.431	2636.32
565.634	2517.75
565.837	2563.08
566.04	2502.63
566.243	2522.98
566.446	2455.16
566.649	2500.7
566.852	2458.65
567.055	2511.55
567.258	2543.51
567.461	2563.47
567.664	2601.25
567.867	2470.66
568.07	2569.28
568.273	2528.79
568.475	2593.5
568.678	2478.8
568.881	2485
569.084	2480.93
569.287	2348.6
569.489	2440.63
569.692	2473.76
569.895	2491.01
570.098	2424.55
570.3	2404.02
570.503	2378.63
570.706	2402.08
570.909	2372.24
571.111	2321.67
571.314	2316.25
571.516	2306.37
571.719	2371.47
571.922	2319.93
572.124	2321.09
572.327	2395.3
572.529	2309.27
572.732	2303.85
572.935	2354.22
573.137	2437.34
573.34	2331.36
573.542	2386.58
573.745	2368.56
573.947	2396.65
574.15	2354.03
574.352	2307.92
574.554	2395.1
574.757	2262.39
574.959	2306.17
575.162	2288.74
575.364	2264.32
575.566	2361.58
575.769	2231.97
575.971	2245.34
576.173	2158.73
576.376	2270.72
576.578	2295.32
576.78	2332.33
576.982	2199.42
577.185	2250.96
577.387	2200.77
577.589	2231.19
577.791	2271.69
577.993	2250.57
578.196	2220.73
578.398	2229.26
578.6	2229.45
578.802	2189.73
579.004	2122.11
579.206	2156.79
579.408	2224.99
579.61	2162.99
579.812	2196.9
580.014	2190.31
580.216	2159.51
580.418	2185.66
580.62	2181.98
580.822	2143.04
581.024	2189.15
581.226	2210.07
581.428	2187.99
581.63	2263.36
581.832	2146.72
582.034	2231.39
582.236	2165.32
582.438	2252.51
582.64	2280.99
582.841	2281.95
583.043	2299.78
583.245	2220.15
583.447	2239.33
583.649	2234.29
583.85	2230.22
584.052	2210.27
584.254	2142.46
584.456	2247.08
584.657	2174.43
584.859	2235.26
585.061	2168.81
585.262	2187.02
585.464	2142.26
585.666	2181.21
585.867	2137.61
586.069	2188.18
586.27	2163.38
586.472	2129.48
586.674	2111.65
586.875	2124.83
587.077	2102.35
587.278	2170.55
587.48	2137.23
587.681	2216.66
587.883	2131.8
588.084	2070.58
588.285	2081.04
588.487	2122.89
588.688	2126.76
588.89	2009.16
589.091	1969.25
589.292	1974.28
589.494	1940.77
589.695	1891.75
589.896	1824.52
590.098	1819.09
590.299	1911.9
590.5	1871.99
590.702	1915.97
590.903	1939.22
591.104	2012.26
591.305	1985.13
591.507	2050.43
591.708	2013.61
591.909	1951.62
592.11	2031.05
592.311	2035.7
592.512	1947.35
592.714	1951.62
592.915	1950.07
593.116	1955.49
593.317	1993.27
593.518	1976.22
593.719	1970.41
593.92	2024.27
594.121	2033.38
594.322	2004.9
594.523	2018.65
594.724	1953.55
594.925	2008.38
595.126	2001.99
595.327	1989.78
595.528	1959.37
595.729	2000.63
595.929	1971.38
596.13	1964.21
596.331	1995.21
596.532	1962.47
596.733	2053.91
596.934	2062.05
597.135	2006.64
597.335	2024.85
597.536	1965.95
597.737	2025.82
597.938	1953.75
598.138	1991.33
598.339	2003.54
598.54	2004.51
598.74	1948.52
598.941	1980.87
599.142	2039.19
599.342	1993.47
599.543	1967.5
599.744	1949.1
599.944	1937.47
600.145	1963.82
600.345	1968.08
600.546	2053.33
600.746	2033.38
600.947	2037.25
601.147	1968.86
601.348	1992.11
601.548	1923.33
601.749	1958.59
601.949	1912.09
602.15	1911.51
602.35	1938.25
602.551	1950.65
602.751	1900.66
602.951	1899.3
603.152	1885.16
603.352	1995.98
603.552	1944.45
603.753	1973.32
603.953	1992.88
604.153	1965.76
604.354	1949.1
604.554	1907.64
604.754	1962.85
604.954	1931.85
605.155	1971.18
605.355	1949.48
605.555	1972.54
605.755	2024.27
605.955	1914.8
606.155	1969.25
606.356	1927.78
606.556	1948.71
606.756	1973.51
606.956	1842.54
607.156	1977.97
607.356	1873.92
607.556	1975.64
607.756	1924.49
607.956	1973.51
608.156	1931.27
608.356	1882.64
608.556	1928.37
608.756	1899.89
608.956	1862.49
609.156	1911.9
609.356	1841.37
609.556	1859.39
609.755	1901.82
609.955	1839.24
610.155	1881.48
610.355	1859.59
610.555	1854.16
610.755	1813.67
610.954	1808.05
611.154	1856.29
611.354	1881.48
611.554	1856.49
611.753	1838.08
611.953	1790.61
612.153	1856.29
612.352	1855.9
612.552	1791.77
612.752	1773.76
612.951	1810.37
613.151	1790.42
613.351	1795.84
613.55	1815.02
