Data from gum_old_FLMT105791__22__15-42-44-259.txt Node

Date: Mon Mar 20 15:42:44 GMT 2023
User: antho
Spectrometer: FLMT10579
Trigger mode: 0
Integration Time (sec): 1.000000E-1
Scans to average: 10
Electric dark correction enabled: true
Nonlinearity correction enabled: false
Boxcar width: 0
XAxis mode: Wavelengths
Number of Pixels in Spectrum: 3648
>>>>>Begin Spectral Data<<<<<
345.248	-177.5
345.464	-177.5
345.681	-177.5
345.898	-148.06
346.114	-163.17
346.331	-13.21
346.548	31.35
346.764	-27.54
346.981	5.97
347.197	-25.22
347.414	13.53
347.631	-28.32
347.847	65.84
348.064	-3.33
348.28	54.41
348.497	-50.41
348.713	-23.09
348.93	18.18
349.146	54.22
349.363	22.05
349.579	37.94
349.796	21.47
350.012	23.41
350.229	43.37
350.445	15.47
350.661	10.24
350.878	45.69
351.094	65.07
351.311	50.73
351.527	60.42
351.743	30
351.96	48.4
352.176	51.5
352.392	65.26
352.609	41.04
352.825	37.36
353.041	43.56
353.257	10.82
353.474	29.03
353.69	29.22
353.906	41.82
354.122	-6.43
354.339	96.45
354.555	34.65
354.771	19.92
354.987	130.17
355.203	105.56
355.42	41.43
355.636	22.44
355.852	29.8
356.068	70.69
356.284	26.32
356.5	71.46
356.716	44.53
356.932	27.09
357.148	69.72
357.364	45.3
357.58	70.3
357.796	79.02
358.012	98.39
358.228	64.87
358.444	-22.89
358.66	91.42
358.876	55.19
359.092	18.37
359.308	60.22
359.524	62.35
359.74	42.59
359.956	30.58
360.172	52.47
360.388	104.59
360.604	35.04
360.819	125.32
361.035	67.78
361.251	72.62
361.467	32.32
361.683	98.39
361.898	63.32
362.114	92.19
362.33	76.89
362.546	68.94
362.762	72.04
362.977	67.39
363.193	41.04
363.409	88.32
363.624	41.04
363.84	59.45
364.056	24.96
364.271	64.1
364.487	57.9
364.703	59.45
364.918	21.09
365.134	39.1
365.35	79.21
365.565	164.65
365.781	68.17
365.996	120.09
366.212	141.4
366.427	107.69
366.643	57.32
366.858	75.72
367.074	51.31
367.289	126.1
367.505	188.68
367.72	37.36
367.936	69.72
368.151	127.84
368.367	129
368.582	83.47
368.798	35.42
369.013	114.08
369.228	84.05
369.444	103.04
369.659	132.49
369.874	116.41
370.09	138.3
370.305	39.3
370.52	84.05
370.736	142.76
370.951	68.94
371.166	136.75
371.381	147.6
371.597	101.3
371.812	91.22
372.027	60.22
372.242	104.01
372.458	160.78
372.673	62.16
372.888	84.05
373.103	105.17
373.318	197.4
373.533	101.69
373.749	90.45
373.964	31.94
374.179	110.98
374.394	48.6
374.609	130.75
374.824	56.54
375.039	150.9
375.254	50.15
375.469	144.31
375.684	93.16
375.899	135.98
376.114	109.43
376.329	106.72
376.544	143.92
376.759	130.75
376.974	83.28
377.189	76.11
377.404	94.9
377.619	136.56
377.834	61
378.049	67.78
378.264	79.99
378.478	124.74
378.693	94.13
378.908	154.19
379.123	123.58
379.338	154.97
379.553	141.21
379.767	133.27
379.982	120.09
380.197	122.22
380.412	104.59
380.626	138.88
380.841	195.26
381.056	156.13
381.271	199.72
381.485	96.84
381.7	95.49
381.915	108.85
382.129	104.4
382.344	105.56
382.559	101.88
382.773	163.88
382.988	64.68
383.202	105.17
383.417	77.47
383.632	197.4
383.846	93.74
384.061	99.55
384.275	103.23
384.49	146.05
384.704	142.57
384.919	120.48
385.133	138.3
385.348	159.42
385.562	90.84
385.777	185.97
385.991	158.45
386.206	107.3
386.42	99.36
386.634	154.77
386.849	146.63
387.063	156.13
387.277	132.1
387.492	76.89
387.706	131.52
387.92	102.85
388.135	168.53
388.349	155.55
388.563	173.76
388.778	156.13
388.992	187.52
389.206	151.48
389.42	208.05
389.635	178.8
389.849	182.87
390.063	207.86
390.277	187.71
390.491	253.39
390.706	203.6
390.92	186.16
391.134	166.78
391.348	220.26
391.562	139.66
391.776	188.48
391.99	185
392.205	227.81
392.419	173.37
392.633	171.43
392.847	244.28
393.061	160
393.275	220.45
393.489	135.59
393.703	117.18
393.917	139.27
394.131	108.08
394.345	160.2
394.559	174.73
394.773	149.73
394.986	177.83
395.2	213.86
395.414	235.18
395.628	185.58
395.842	242.35
396.056	206.11
396.27	163.49
396.484	221.23
396.697	213.09
396.911	231.5
397.125	184.03
397.339	192.94
397.553	184.22
397.766	223.36
397.98	223.75
398.194	271.8
398.408	225.68
398.621	274.9
398.835	287.88
399.049	301.05
399.262	321.01
399.476	328.76
399.69	331.08
399.903	383.2
400.117	307.44
400.331	347.55
400.544	294.27
400.758	430.47
400.971	344.84
401.185	379.13
401.398	299.11
401.612	371.77
401.826	349.88
402.039	369.64
402.253	351.81
402.466	390.76
402.68	343.87
402.893	384.36
403.106	376.61
403.32	367.7
403.533	353.94
403.747	359.37
403.96	365.37
404.174	386.11
404.387	352.01
404.6	362.47
404.814	414.2
405.027	370.22
405.24	388.43
405.454	360.53
405.667	459.15
405.88	339.03
406.094	388.24
406.307	439.19
406.52	363.63
406.733	336.31
406.947	324.88
407.16	420.59
407.373	423.31
407.586	371.96
407.799	349.68
408.012	429.89
408.226	408.58
408.439	425.24
408.652	387.46
408.865	466.51
409.078	465.35
409.291	427.18
409.504	394.24
409.717	453.72
409.93	421.95
410.143	426.41
410.357	381.46
410.57	337.28
410.783	396.57
410.996	403.16
411.209	433.77
411.421	485.89
411.634	437.06
411.847	430.09
412.06	452.37
412.273	441.91
412.486	474.65
412.699	551.37
412.912	463.6
413.125	499.06
413.338	472.52
413.55	486.85
413.763	484.92
413.976	494.99
414.189	458.57
414.402	463.41
414.615	539.94
414.827	461.09
415.04	522.12
415.253	480.27
415.466	494.8
415.678	545.56
415.891	482.79
416.104	495.77
416.316	473.68
416.529	497.32
416.742	534.52
416.954	548.47
417.167	502.55
417.38	499.25
417.592	502.94
417.805	460.7
418.017	451.59
418.23	514.95
418.442	474.45
418.655	473.87
418.868	498.29
419.08	515.14
419.293	538.97
419.505	535.68
419.718	521.73
419.93	545.95
420.142	512.62
420.355	532.58
420.567	552.73
420.78	509.33
420.992	509.72
421.205	562.42
421.417	499.06
421.629	511.85
421.842	535.68
422.054	517.27
422.266	583.34
422.479	566.48
422.691	514.17
422.903	553.7
423.115	460.5
423.328	493.05
423.54	549.82
423.752	512.24
423.964	488.21
424.177	559.32
424.389	537.42
424.601	628.87
424.813	538.78
425.025	589.35
425.238	588.38
425.45	541.88
425.662	517.66
425.874	834.24
426.086	538
426.298	569.39
426.51	581.21
426.722	563.77
426.934	561.25
427.146	613.95
427.358	528.9
427.57	608.92
427.782	538.39
427.994	558.15
428.206	521.54
428.418	521.34
428.63	597.68
428.842	614.34
429.054	593.22
429.266	592.83
429.478	537.42
429.69	550.21
429.902	510.88
430.114	540.91
430.325	517.27
430.537	460.12
430.749	478.14
430.961	412.07
431.173	459.15
431.384	475.62
431.596	396.76
431.808	534.9
432.02	565.32
432.231	644.37
432.443	696.68
432.655	669.75
432.867	586.05
433.078	658.71
433.29	664.13
433.502	677.11
433.713	707.73
433.925	698.04
434.136	708.89
434.348	600.97
434.56	580.24
434.771	710.63
434.983	560.67
435.194	643.98
435.406	662.97
435.617	724
435.829	775.54
436.04	741.44
436.252	705.4
436.463	796.08
436.675	774.38
436.886	732.72
437.098	761.59
437.309	809.25
437.521	753.06
437.732	754.42
437.943	724.78
438.155	743.18
438.366	690.68
438.578	759.26
438.789	716.06
439	705.79
439.211	703.66
439.423	698.04
439.634	733.11
439.845	761.2
440.057	746.28
440.268	786
440.479	766.63
440.69	766.24
440.902	778.06
441.113	744.34
441.324	762.94
441.535	802.66
441.746	838.12
441.957	773.02
442.168	793.75
442.38	822.42
442.591	867.57
442.802	812.35
443.013	870.09
443.224	866.41
443.435	826.88
443.646	823.01
443.857	805.76
444.068	860.01
444.279	807.31
444.49	959.21
444.701	866.21
444.912	966.57
445.123	913.29
445.334	865.05
445.545	891.01
445.756	862.34
445.967	845.67
446.178	872.02
446.388	864.47
446.599	874.93
446.81	869.89
447.021	817.77
447.232	931.89
447.443	942.35
447.653	873.77
447.864	966.38
448.075	900.31
448.286	933.25
448.496	892.17
448.707	960.37
448.918	890.24
449.129	1023.34
449.339	907.48
449.55	918.33
449.761	914.65
449.971	972.58
450.182	931.5
450.393	1003
450.603	962.12
450.814	1006.68
451.024	984.4
451.235	1024.7
451.446	1082.82
451.656	1063.06
451.867	981.49
452.077	999.32
452.288	1020.82
452.498	1015.98
452.709	997.96
452.919	991.76
453.13	952.62
453.34	975.29
453.55	882.68
453.761	968.51
453.971	973.16
454.182	994.86
454.392	977.42
454.602	1080.69
454.813	994.28
455.023	1020.24
455.233	936.54
455.444	1009.78
455.654	934.6
455.864	958.44
456.075	977.42
456.285	960.18
456.495	1002.61
456.705	1022.37
456.916	1066.35
457.126	1051.63
457.336	1042.13
457.546	956.69
457.756	1018.11
457.967	1092.9
458.177	1019.66
458.387	1056.28
458.597	989.43
458.807	1016.95
459.017	997.77
459.227	995.63
459.437	1034.77
459.647	1066.93
459.857	1034.97
460.068	1024.89
460.278	1061.7
460.488	1054.53
460.698	1106.46
460.908	1030.32
461.117	1023.34
461.327	1056.67
461.537	1090.38
461.747	1111.88
461.957	1103.55
462.167	1209.34
462.377	1144.82
462.587	1088.44
462.797	1156.44
463.007	1114.98
463.216	1140.75
463.426	1184.93
463.636	1130.29
463.846	1045.43
464.056	1107.04
464.265	1125.06
464.475	1111.11
464.685	1111.88
464.895	1140.56
465.104	1070.42
465.314	1127.38
465.524	1107.81
465.733	1099.48
465.943	1180.47
466.153	1155.86
466.362	1157.22
466.572	1157.8
466.782	1119.05
466.991	1138.81
467.201	1174.08
467.41	1062.67
467.62	1138.04
467.829	1176.4
468.039	1136.68
468.249	1144.43
468.458	1160.9
468.668	1192.68
468.877	1195.58
469.086	1232.78
469.296	1218.83
469.505	1189.58
469.715	1276.37
469.924	1206.63
470.134	1247.51
470.343	1248.86
470.552	1193.45
470.762	1205.46
470.971	1201.59
471.18	1226.97
471.39	1213.21
471.599	1181.24
471.808	1251.57
472.018	1257.97
472.227	1316.67
472.436	1341.09
472.645	1289.55
472.855	1292.46
473.064	1417.81
473.273	1362.2
473.482	1373.25
473.691	1378.48
473.901	1378.87
474.11	1333.92
474.319	1438.93
474.528	1387.39
474.737	1463.34
474.946	1411.22
475.155	1447.65
475.364	1459.85
475.573	1458.11
475.783	1466.05
475.992	1479.03
476.201	1502.86
476.41	1472.25
476.619	1399.02
476.828	1462.57
477.037	1437.96
477.245	1425.75
477.454	1475.35
477.663	1512.75
477.872	1517.59
478.081	1602.06
478.29	1529.99
478.499	1667.74
478.708	1604
478.917	1627.06
479.125	1552.27
479.334	1599.93
479.543	1577.26
479.752	1664.84
479.961	1637.52
480.169	1691.38
480.378	1641.98
480.587	1795.42
480.796	1672.98
481.004	1684.79
481.213	1704.75
481.422	1696.03
481.63	1712.11
481.839	1759.58
482.048	1800.65
482.256	1765
482.465	1801.82
482.674	1817.32
482.882	1804.34
483.091	1849.67
483.299	1788.25
483.508	1845.02
483.716	1818.09
483.925	1865.56
484.134	1793.49
484.342	1772.17
484.551	1841.73
484.759	1808.6
484.967	1868.47
485.176	1861.68
485.384	1880.28
485.593	1905.86
485.801	1857.23
486.01	1789.22
486.218	1747.76
486.426	1603.61
486.635	1596.83
486.843	1593.54
487.051	1641.39
487.26	1664.64
487.468	1703.97
487.676	1807.82
487.885	1794.84
488.093	1839.79
488.301	1888.03
488.509	1894.23
488.717	1950.61
488.926	1945
489.134	1913.22
489.342	1937.44
489.55	1909.35
489.758	1950.81
489.967	1957.59
490.175	2084.88
490.383	2018.62
490.591	2112.2
490.799	2041.68
491.007	2067.83
491.215	2111.23
491.423	2032.76
491.631	2044.19
491.839	2035.48
492.047	2089.34
492.255	2013.97
492.463	1936.67
492.671	1943.83
492.879	2051.36
493.087	2013.97
493.295	2040.9
493.503	2062.21
493.711	2149.01
493.919	2124.99
494.127	2135.45
494.334	2128.09
494.542	2106.78
494.75	2140.1
494.958	2139.71
495.166	2249.37
495.374	2226.32
495.581	2245.89
495.789	2227.48
495.997	2269.52
496.205	2155.21
496.412	2150.76
496.62	2192.8
496.828	2219.15
497.035	2244.72
497.243	2257.32
497.451	2249.57
497.658	2248.02
497.866	2228.64
498.074	2316.8
498.281	2213.14
498.489	2310.21
498.696	2223.8
498.904	2143.59
499.112	2152.89
499.319	2280.37
499.527	2267.2
499.734	2293.93
499.942	2168.58
500.149	2222.64
500.357	2307.69
500.564	2191.44
500.771	2193.19
500.979	2172.26
501.186	2189.31
501.394	2239.69
501.601	2185.24
501.808	2222.44
502.016	2213.14
502.223	2183.69
502.43	2192.8
502.638	2181.37
502.845	2200.55
503.052	2317.38
503.26	2249.37
503.467	2289.09
503.674	2281.54
503.881	2310.21
504.089	2355.16
504.296	2273.4
504.503	2211.2
504.71	2265.26
504.917	2230.19
505.125	2298.58
505.332	2320.67
505.539	2324.74
505.746	2382.86
505.953	2379.18
506.16	2394.88
506.367	2424.33
506.574	2462.69
506.781	2486.13
506.988	2341.02
507.195	2368.72
507.402	2404.18
507.609	2407.28
507.816	2322.8
508.023	2387.51
508.23	2353.03
508.437	2286.96
508.644	2312.73
508.851	2390.03
509.058	2410.76
509.265	2379.18
509.472	2470.44
509.679	2488.65
509.885	2429.17
510.092	2433.82
510.299	2444.48
510.506	2391.58
510.713	2461.72
510.92	2407.86
511.126	2456.1
511.333	2505.7
511.54	2455.13
511.746	2504.54
511.953	2506.48
512.16	2539.99
512.367	2502.6
512.573	2498.14
512.78	2462.11
512.987	2468.5
513.193	2462.49
513.4	2315.44
513.606	2427.04
513.813	2462.3
514.02	2448.35
514.226	2467.14
514.433	2503.96
514.639	2414.64
514.846	2440.41
515.052	2420.65
515.259	2460.56
515.465	2450.29
515.672	2477.41
515.878	2550.26
516.085	2512.09
516.291	2543.87
516.497	2481.87
516.704	2416.77
516.91	2376.86
517.117	2258.09
517.323	2181.95
517.529	2228.84
517.736	2201.71
517.942	2199.58
518.148	2235.04
518.354	2295.29
518.561	2339.66
518.767	2302.65
518.973	2336.37
519.179	2366.78
519.386	2354.38
519.592	2379.18
519.798	2381.7
520.004	2496.4
520.21	2487.49
520.417	2541.35
520.623	2585.52
520.829	2575.06
521.035	2577
521.241	2565.18
521.447	2579.52
521.653	2706.04
521.859	2611.29
522.065	2638.8
522.271	2741.3
522.477	2673.1
522.683	2741.1
522.889	2716.5
523.095	2675.04
523.301	2621.17
523.507	2539.22
523.713	2645.78
523.919	2585.91
524.125	2717.27
524.331	2682.4
524.537	2790.51
524.742	2795.55
524.948	2816.28
525.154	2770.55
525.36	2907.34
525.566	2773.65
525.772	2876.15
525.977	2761.06
526.183	2775.59
526.389	2875.18
526.595	2725.22
526.8	2728.32
527.006	2604.12
527.212	2566.34
527.417	2538.83
527.623	2531.08
527.829	2623.89
528.034	2671.94
528.24	2683.17
528.446	2698.09
528.651	2818.41
528.857	2870.72
529.062	2933.69
529.268	2913.15
529.473	2957.13
529.679	2953.26
529.884	3043.54
530.09	2982.13
530.295	2979.61
530.501	2963.33
530.706	2990.65
530.912	2984.64
531.117	2993.56
531.323	2980.96
531.528	3075.32
531.733	3045.29
531.939	2980.19
532.144	3052.07
532.35	3025.33
532.555	3025.72
532.76	3017.58
532.966	3025.72
533.171	2885.25
533.376	2897.65
533.581	2851.15
533.787	2939.31
533.992	3002.66
534.197	3015.26
534.402	2962.17
534.607	2979.61
534.813	3047.61
535.018	3013.51
535.223	3016.61
535.428	3022.81
535.633	3090.62
535.838	3092.56
536.043	3065.05
536.249	3223.34
536.454	3136.35
536.659	3134.02
536.864	3141.58
537.069	3087.33
537.274	3050.32
537.479	3061.17
537.684	3028.82
537.889	2993.94
538.094	3140.42
538.299	3070.28
538.504	3054.2
538.708	3104.38
538.913	3130.92
539.118	3081.52
539.323	3101.67
539.528	3050.13
539.733	3076.09
539.938	3088.3
540.142	3070.86
540.347	3045.67
540.552	3028.62
540.757	2957.91
540.962	3022.04
541.166	2941.83
541.371	2934.08
541.576	3009.83
541.781	2892.23
541.985	3071.83
542.19	3026.3
542.395	3124.92
542.599	3210.55
542.804	3086.75
543.008	3224.12
543.213	3073.96
543.418	3060.59
543.622	3148.55
543.827	3009.64
544.031	3174.13
544.236	3159.99
544.44	3153.98
544.645	3223.34
544.849	3129.18
545.054	3147.59
545.258	3301.23
545.463	3214.23
545.667	3103.41
545.872	3205.9
546.076	3154.75
546.281	3156.5
546.485	3108.25
546.689	3197.77
546.894	3186.14
547.098	3183.62
547.302	3116.97
547.507	3152.24
547.711	3180.72
547.915	3175.68
548.119	3060.79
548.324	3134.02
548.528	3194.86
548.732	3114.45
548.936	3174.9
549.141	3175.48
549.345	3193.89
549.549	3178.39
549.753	3230.12
549.957	3279.14
550.161	3269.26
550.366	3238.26
550.57	3162.89
550.774	3192.92
550.978	3186.33
551.182	3216.17
551.386	3178.78
551.59	3164.83
551.794	3181.1
551.998	3157.85
552.202	3209.39
552.406	3153.98
552.61	3247.95
552.814	3188.47
553.018	3209.78
553.222	3135.38
553.426	3140.42
553.63	3209.2
553.833	3219.66
554.037	3098.76
554.241	3203.77
554.445	3181.3
554.649	3176.45
554.853	3169.67
555.056	3220.05
555.26	3223.53
555.464	3200.67
555.668	3234.97
555.871	3176.07
556.075	3215.2
556.279	3127.63
556.483	3109.22
556.686	3119.3
556.89	3127.05
557.094	3148.17
557.297	3065.82
557.501	3121.24
557.704	3019.13
557.908	3130.54
558.112	3019.91
558.315	3112.9
558.519	3071.44
558.722	3072.41
558.926	3026.3
559.129	2941.63
559.333	2965.08
559.536	2989.49
559.74	2954.81
559.943	2925.16
560.147	2916.06
560.35	2956.36
560.553	2986.58
560.757	2889.51
560.96	3039.28
561.164	2986.58
561.367	3076.87
561.57	3017.97
561.774	3046.45
561.977	2979.8
562.18	2981.35
562.384	3073.96
562.587	3000.92
562.79	2996.85
562.993	2931.56
563.197	2981.93
563.4	3054.01
563.603	3041.02
563.806	3108.45
564.009	2986.77
564.212	3005.37
564.416	2948.41
564.619	2934.66
564.822	2879.83
565.025	2991.23
565.228	2948.99
565.431	2972.05
565.634	2842.63
565.837	2871.11
566.04	2844.56
566.243	2884.67
566.446	2753.31
566.649	2852.12
566.852	2793.8
567.055	2823.83
567.258	2871.3
567.461	2914.12
567.664	2912.76
567.867	2824.22
568.07	2831.58
568.273	2833.52
568.475	2938.14
568.678	2820.15
568.881	2851.54
569.084	2800.58
569.287	2725.99
569.489	2747.88
569.692	2788.77
569.895	2814.34
570.098	2699.45
570.3	2708.55
570.503	2671.74
570.706	2670.77
570.909	2663.22
571.111	2583.97
571.314	2621.17
571.516	2624.08
571.719	2627.76
571.922	2597.54
572.124	2644.42
572.327	2681.62
572.529	2604.71
572.732	2629.7
572.935	2672.9
573.137	2764.93
573.34	2654.11
573.542	2690.34
573.745	2707.78
573.947	2668.06
574.15	2665.74
574.352	2624.47
574.554	2713.59
574.757	2676.39
574.959	2638.42
575.162	2605.87
575.364	2587.27
575.566	2657.6
575.769	2559.76
575.971	2603.16
576.173	2441.57
576.376	2567.12
576.578	2601.8
576.78	2671.35
576.982	2504.54
577.185	2523.72
577.387	2535.93
577.589	2552.59
577.791	2579.13
577.993	2560.92
578.196	2521.59
578.398	2569.83
578.6	2524.3
578.802	2442.35
579.004	2474.7
579.206	2443.31
579.408	2501.63
579.61	2441.96
579.812	2492.33
580.014	2439.05
580.216	2469.47
580.418	2483.42
580.62	2454.94
580.822	2407.08
581.024	2487.49
581.226	2554.33
581.428	2475.48
581.63	2563.44
581.832	2447.96
582.034	2515.19
582.236	2494.66
582.438	2542.9
582.64	2521.78
582.841	2557.82
583.043	2607.22
583.245	2474.31
583.447	2524.69
583.649	2498.92
583.85	2493.11
584.052	2554.91
584.254	2457.26
584.456	2552.59
584.657	2452.03
584.859	2490.01
585.061	2473.73
585.262	2418.32
585.464	2425.88
585.666	2504.93
585.867	2441.38
586.069	2490.39
586.27	2426.65
586.472	2416.58
586.674	2422.39
586.875	2418.32
587.077	2416.77
587.278	2449.32
587.48	2402.82
587.681	2516.94
587.883	2432.46
588.084	2374.73
588.285	2357.29
588.487	2310.21
588.688	2373.95
588.89	2279.4
589.091	2270.1
589.292	2219.73
589.494	2196.48
589.695	2144.36
589.896	2067.83
590.098	2120.92
590.299	2148.43
590.5	2131.38
590.702	2139.71
590.903	2195.9
591.104	2287.15
591.305	2256.93
591.507	2294.52
591.708	2291.8
591.909	2276.89
592.11	2327.07
592.311	2342.18
592.512	2268.55
592.714	2214.5
592.915	2240.65
593.116	2205.2
593.317	2255.96
593.518	2259.25
593.719	2278.05
593.92	2278.44
594.121	2305.37
594.322	2295.87
594.523	2252.86
594.724	2230.19
594.925	2253.25
595.126	2261.97
595.327	2298.39
595.528	2257.12
595.729	2234.07
595.929	2256.54
596.13	2305.17
596.331	2257.32
596.532	2271.07
596.733	2341.98
596.934	2302.27
597.135	2298
597.335	2307.11
597.536	2261.58
597.737	2292.77
597.938	2251.7
598.138	2317.57
598.339	2274.95
598.54	2344.7
598.74	2252.86
598.941	2271.85
599.142	2285.41
599.342	2289.67
599.543	2239.1
599.744	2243.17
599.944	2207.52
600.145	2212.56
600.345	2249.37
600.546	2349.73
600.746	2310.6
600.947	2325.13
601.147	2257.9
601.348	2337.33
601.548	2217.4
601.749	2206.36
601.949	2186.21
602.15	2182.53
602.35	2146.69
602.551	2256.93
602.751	2179.24
602.951	2179.62
603.152	2128.86
603.352	2228.45
603.552	2226.12
603.753	2265.65
603.953	2265.45
604.153	2250.15
604.354	2246.27
604.554	2229.42
604.754	2225.74
604.954	2193.19
605.155	2256.35
605.355	2197.26
605.555	2278.44
605.755	2267.97
605.955	2250.15
606.155	2255.57
606.356	2222.64
606.556	2252.86
606.756	2237.36
606.956	2193.38
607.156	2296.45
607.356	2193.19
607.556	2237.55
607.756	2208.69
607.956	2256.74
608.156	2243.95
608.356	2190.28
608.556	2259.06
608.756	2186.99
608.956	2143.2
609.156	2181.56
609.356	2140.1
609.556	2120.14
609.755	2192.99
609.955	2096.31
610.155	2142.04
610.355	2180.21
610.555	2083.14
610.755	2112.59
610.954	2048.26
611.154	2130.02
611.354	2167.03
611.554	2054.27
611.753	2117.24
611.953	2065.7
612.153	2144.17
612.352	2104.45
612.552	2060.86
612.752	2039.16
