Data from gum_old_FLMT105791__25__15-42-47-259.txt Node

Date: Mon Mar 20 15:42:47 GMT 2023
User: antho
Spectrometer: FLMT10579
Trigger mode: 0
Integration Time (sec): 1.000000E-1
Scans to average: 10
Electric dark correction enabled: true
Nonlinearity correction enabled: false
Boxcar width: 0
XAxis mode: Wavelengths
Number of Pixels in Spectrum: 3648
>>>>>Begin Spectral Data<<<<<
345.248	-159.23
345.464	-159.23
345.681	-159.23
345.898	-146.83
346.114	-175.7
346.331	-25.54
346.548	9.72
346.764	-2.68
346.981	-4.04
347.197	-5.39
347.414	10.88
347.631	-23.02
347.847	58.35
348.064	-0.55
348.28	3.71
348.497	-34.84
348.713	13.4
348.93	7.2
349.146	46.92
349.363	8.94
349.579	12.04
349.796	14.95
350.012	0.03
350.229	57.19
350.445	23.28
350.661	33.94
350.878	19.79
351.094	55.25
351.311	49.05
351.527	46.92
351.743	24.06
351.96	56.41
352.176	65.71
352.392	63
352.609	82.57
352.825	54.28
353.041	29.68
353.257	8.94
353.474	33.55
353.69	78.89
353.906	28.9
354.122	19.41
354.339	117.06
354.555	49.24
354.771	51.38
354.987	125.97
355.203	126.36
355.42	35.68
355.636	22.12
355.852	1.58
356.068	35.1
356.284	17.28
356.5	90.32
356.716	50.6
356.932	25.99
357.148	93.81
357.364	35.29
357.58	75.21
357.796	106.4
358.012	83.54
358.228	77.53
358.444	-18.37
358.66	93.42
358.876	48.47
359.092	-6.94
359.308	52.34
359.524	56.99
359.74	49.44
359.956	37.04
360.172	45.76
360.388	80.82
360.604	35.49
360.819	124.03
361.035	53.12
361.251	78.5
361.467	30.84
361.683	93.03
361.898	67.26
362.114	86.44
362.33	77.72
362.546	90.71
362.762	49.24
362.977	63.39
363.193	30.06
363.409	115.12
363.624	27.35
363.84	49.63
364.056	41.69
364.271	93.61
364.487	86.83
364.703	69.39
364.918	35.88
365.134	47.89
365.35	71.53
365.565	169.95
365.781	75.98
365.996	93.61
366.212	157.36
366.427	88.19
366.643	81.21
366.858	75.21
367.074	44.59
367.289	160.07
367.505	182.74
367.72	44.01
367.936	70.17
368.151	125.77
368.367	102.14
368.582	97.29
368.798	95.36
369.013	160.26
369.228	97.1
369.444	105.43
369.659	144.37
369.874	110.86
370.09	165.1
370.305	36.26
370.52	62.81
370.736	140.11
370.951	85.28
371.166	162
371.381	144.37
371.597	125.77
371.812	46.92
372.027	70.17
372.242	96.13
372.458	155.81
372.673	66.49
372.888	75.01
373.103	121.12
373.318	183.12
373.533	123.64
373.749	99.04
373.964	22.51
374.179	123.84
374.394	50.6
374.609	150.77
374.824	38.2
375.039	126.94
375.254	68.43
375.469	149.22
375.684	117.83
375.899	129.26
376.114	119.19
376.329	117.83
376.544	142.05
376.759	122.09
376.974	97.29
377.189	114.54
377.404	109.69
377.619	145.73
377.834	56.99
378.049	81.6
378.264	81.41
378.478	148.64
378.693	95.74
378.908	147.28
379.123	100.2
379.338	145.92
379.553	99.42
379.767	119.19
379.982	146.89
380.197	150.77
380.412	114.73
380.626	109.5
380.841	211.22
381.056	129.26
381.271	205.21
381.485	98.07
381.7	94.77
381.915	130.81
382.129	113.76
382.344	129.65
382.559	112.41
382.773	138.76
382.988	52.15
383.202	121.71
383.417	72.11
383.632	189.32
383.846	117.64
384.061	106.59
384.275	66.68
384.49	127.71
384.704	136.43
384.919	129.07
385.133	117.83
385.348	167.43
385.562	103.69
385.777	177.12
385.991	146.31
386.206	123.45
386.42	111.82
386.634	162.97
386.849	157.74
387.063	128.87
387.277	123.26
387.492	122.48
387.706	91.67
387.92	99.04
388.135	159.49
388.349	150.57
388.563	147.67
388.778	152.9
388.992	164.72
389.206	181.57
389.42	204.05
389.635	153.67
389.849	201.14
390.063	211.41
390.277	198.82
390.491	249
390.706	206.95
390.92	211.41
391.134	185.64
391.348	230.4
391.562	167.82
391.776	207.54
391.99	203.85
392.205	247.06
392.419	186.22
392.633	193
392.847	236.79
393.061	140.5
393.275	204.63
393.489	118.8
393.703	131.78
393.917	168.59
394.131	114.54
394.345	170.92
394.559	177.5
394.773	159.87
394.986	190.68
395.2	213.54
395.414	243.77
395.628	215.48
395.842	241.05
396.056	220.9
396.27	167.04
396.484	219.74
396.697	211.22
396.911	239.12
397.125	188.55
397.339	181.19
397.553	172.08
397.766	238.54
397.98	230.01
398.194	255
398.408	249.97
398.621	327.27
398.835	342.38
399.049	291.23
399.262	362.92
399.476	343.55
399.69	342.38
399.903	421.82
400.117	326.3
400.331	353.62
400.544	305.57
400.758	429.18
400.971	339.67
401.185	373.38
401.398	345.87
401.612	395.47
401.826	388.3
402.039	377.06
402.253	345.87
402.466	373.38
402.68	367.18
402.893	376.1
403.106	404.96
403.32	366.02
403.533	386.75
403.747	363.5
403.96	367.96
404.174	416.01
404.387	335.02
404.6	380.75
404.814	422.01
405.027	379.97
405.24	372.61
405.454	390.24
405.667	410.2
405.88	344.32
406.094	404.77
406.307	426.08
406.52	424.34
406.733	339.09
406.947	354.4
407.16	437.13
407.373	422.4
407.586	367.57
407.799	375.9
408.012	422.21
408.226	392.18
408.439	441.97
408.652	357.88
408.865	453.4
409.078	482.08
409.291	442.36
409.504	432.09
409.717	478.01
409.93	484.21
410.143	443.13
410.357	370.28
410.57	356.72
410.783	394.11
410.996	441.19
411.209	416.98
411.421	486.34
411.634	464.83
411.847	450.88
412.06	465.22
412.273	481.49
412.486	499.32
412.699	587.86
412.912	462.7
413.125	517.34
413.338	477.23
413.55	487.31
413.763	468.9
413.976	486.92
414.189	499.71
414.402	468.13
414.615	519.08
414.827	488.28
415.04	532.64
415.253	500.87
415.466	515.01
415.678	569.46
415.891	501.06
416.104	484.59
416.316	502.81
416.529	505.33
416.742	547.17
416.954	584.57
417.167	556.28
417.38	527.8
417.592	560.35
417.805	478.59
418.017	483.63
418.23	515.4
418.442	468.71
418.655	513.66
418.868	521.79
419.08	563.64
419.293	540.39
419.505	546.79
419.718	547.95
419.93	578.37
420.142	513.66
420.355	575.66
420.567	554.92
420.78	534
420.992	537.29
421.205	605.49
421.417	512.3
421.629	558.99
421.842	538.26
422.054	533.42
422.266	606.07
422.479	608.79
422.691	555.51
422.903	560.16
423.115	530.9
423.328	518.5
423.54	549.11
423.752	556.67
423.964	542.72
424.177	589.02
424.389	566.16
424.601	683.77
424.813	612.66
425.025	586.7
425.238	641.34
425.45	579.72
425.662	594.64
425.874	878.48
426.086	583.02
426.298	609.75
426.51	576.62
426.722	604.14
426.934	566.94
427.146	628.35
427.358	551.63
427.57	628.55
427.782	579.92
427.994	561.51
428.206	546.01
428.418	531.29
428.63	626.22
428.842	646.18
429.054	585.54
429.266	655.09
429.478	571.78
429.69	555.12
429.902	520.05
430.114	574.88
430.325	566.94
430.537	510.94
430.749	476.65
430.961	419.11
431.173	473.36
431.384	514.24
431.596	411.94
431.808	503.78
432.02	596.77
432.231	653.15
432.443	733.75
432.655	661.87
432.867	661.68
433.078	673.5
433.29	715.54
433.502	716.51
433.713	700.04
433.925	714.57
434.136	728.72
434.348	634.75
434.56	587.47
434.771	754.68
434.983	596.39
435.194	674.66
435.406	683.57
435.617	729.68
435.829	783.74
436.04	751.19
436.252	753.32
436.463	802.53
436.675	829.85
436.886	831.6
437.098	829.27
437.309	831.01
437.521	807.38
437.732	788.2
437.943	759.13
438.155	755.65
438.366	721.16
438.578	802.53
438.789	763.4
439	744.8
439.211	705.85
439.423	733.75
439.634	770.57
439.845	806.21
440.057	818.42
440.268	844.19
440.479	749.06
440.69	820.36
440.902	763.98
441.113	785.1
441.324	756.62
441.535	856.59
441.746	858.91
441.957	806.99
442.168	852.13
442.38	882.55
442.591	897.08
442.802	846.32
443.013	886.81
443.224	923.63
443.435	884.1
443.646	844.19
443.857	859.11
444.068	848.26
444.279	834.31
444.49	974.39
444.701	913.36
444.912	1034.06
445.123	955.59
445.334	900.76
445.545	927.5
445.756	887.98
445.967	868.79
446.178	887.98
446.388	873.44
446.599	934.09
446.81	897.47
447.021	862.01
447.232	925.37
447.443	958.89
447.653	915.49
447.864	982.72
448.075	958.69
448.286	977.1
448.496	974.58
448.707	1008.29
448.918	925.76
449.129	1051.3
449.339	938.74
449.55	1001.32
449.761	964.12
449.971	1008.29
450.182	961.99
450.393	1008.68
450.603	965.67
450.814	1020.89
451.024	1044.33
451.235	1038.9
451.446	1089.67
451.656	1091.22
451.867	993.57
452.077	1056.73
452.288	1061.19
452.498	1048.4
452.709	1003.26
452.919	1020.11
453.13	962.76
453.34	1036
453.55	905.22
453.761	1037.16
453.971	976.52
454.182	1015.46
454.392	1001.12
454.602	1119.12
454.813	1066.03
455.023	1029.8
455.233	1000.35
455.444	1022.82
455.654	937.19
455.864	1030.19
456.075	1048.98
456.285	1005.39
456.495	1030.57
456.705	1068.16
456.916	1105.55
457.126	1145.08
457.336	1042.97
457.546	982.14
457.756	1072.81
457.967	1123.77
458.177	1055.57
458.387	1068.55
458.597	1022.24
458.807	1047.82
459.017	1013.14
459.227	1017.79
459.437	1036.19
459.647	1068.16
459.857	1054.02
460.068	1059.44
460.278	1096.45
460.488	1084.82
460.698	1120.67
460.908	1092.19
461.117	1053.44
461.327	1090.44
461.537	1135.39
461.747	1132.68
461.957	1121.63
462.167	1241.56
462.377	1152.44
462.587	1122.22
462.797	1226.84
463.007	1142.56
463.216	1184.02
463.426	1203.78
463.636	1215.02
463.846	1097.8
464.056	1141.01
464.265	1156.12
464.475	1131.13
464.685	1168.91
464.895	1179.37
465.104	1093.54
465.314	1204.56
465.524	1115.82
465.733	1110.01
465.943	1225.1
466.153	1225.29
466.362	1240.4
466.572	1171.04
466.782	1185.57
466.991	1185.96
467.201	1254.35
467.41	1122.41
467.62	1184.22
467.829	1195.84
468.039	1209.79
468.249	1222.77
468.458	1223.74
468.668	1270.82
468.877	1245.63
469.086	1296.01
469.296	1281.28
469.505	1255.71
469.715	1319.26
469.924	1249.51
470.134	1287.48
470.343	1282.64
470.552	1272.76
470.762	1246.99
470.971	1248.15
471.18	1268.3
471.39	1293.88
471.599	1210.56
471.808	1293.3
472.018	1287.87
472.227	1379.51
472.436	1405.28
472.645	1352.78
472.855	1343.09
473.064	1406.83
473.273	1429.5
473.482	1404.51
473.691	1435.7
473.901	1404.12
474.11	1387.84
474.319	1502.15
474.528	1424.66
474.737	1526.18
474.946	1498.09
475.155	1482.39
475.364	1541.87
475.573	1492.85
475.783	1510.87
475.992	1474.25
476.201	1550.2
476.41	1525.21
476.619	1420.59
476.828	1516.88
477.037	1497.5
477.245	1493.05
477.454	1545.55
477.663	1566.87
477.872	1574.62
478.081	1689.51
478.29	1575.2
478.499	1671.68
478.708	1694.35
478.917	1725.16
479.125	1633.13
479.334	1664.9
479.543	1652.7
479.752	1687.76
479.961	1684.08
480.169	1746.86
480.378	1706.95
480.587	1873.96
480.796	1760.61
481.004	1741.24
481.213	1793.74
481.422	1769.91
481.63	1787.93
481.839	1821.45
482.048	1849.35
482.256	1804.01
482.465	1878.99
482.674	1885.19
482.882	1878.61
483.091	1927.43
483.299	1875.51
483.508	1934.6
483.716	1937.89
483.925	1918.71
484.134	1875.7
484.342	1885
484.551	1912.7
484.759	1914.06
484.967	1959.2
485.176	1946.22
485.384	2004.54
485.593	1941.77
485.801	1948.94
486.01	1900.89
486.218	1788.71
486.426	1711.21
486.635	1662.19
486.843	1662.77
487.051	1710.43
487.26	1731.75
487.468	1795.68
487.676	1852.06
487.885	1859.81
488.093	1937.12
488.301	1964.44
488.509	1996.79
488.717	2053.95
488.926	2032.05
489.134	1988.65
489.342	1995.82
489.55	1976.64
489.758	2007.64
489.967	2043.68
490.175	2118.27
490.383	2122.92
490.591	2210.69
490.799	2160.9
491.007	2196.35
491.215	2159.73
491.423	2139.97
491.631	2177.94
491.839	2144.43
492.047	2162.45
492.255	2051.04
492.463	1982.07
492.671	2034.96
492.879	2103.55
493.087	2082.81
493.295	2121.56
493.503	2156.05
493.711	2242.27
493.919	2222.51
494.127	2233.36
494.334	2262.03
494.542	2186.66
494.75	2249.05
494.958	2220.76
495.166	2331.39
495.374	2299.62
495.581	2350.57
495.789	2319.96
495.997	2377.5
496.205	2271.52
496.412	2297.1
496.62	2298.07
496.828	2328.87
497.035	2329.46
497.243	2386.03
497.451	2347.47
497.658	2407.73
497.866	2353.29
498.074	2419.55
498.281	2345.54
498.489	2458.68
498.696	2323.06
498.904	2306.21
499.112	2266.49
499.319	2401.34
499.527	2310.66
499.734	2362.59
499.942	2305.62
500.149	2345.73
500.357	2359.87
500.564	2298.07
500.771	2328.68
500.979	2282.57
501.186	2253.12
501.394	2329.46
501.601	2256.41
501.808	2302.72
502.016	2300.01
502.223	2282.18
502.43	2297.49
502.638	2294.19
502.845	2294.39
503.052	2393.78
503.26	2317.44
503.467	2416.84
503.674	2377.89
503.881	2386.03
504.089	2442.41
504.296	2387.58
504.503	2322.09
504.71	2313.76
504.917	2305.43
505.125	2356.39
505.332	2419.35
505.539	2419.16
505.746	2507.32
505.953	2515.84
506.16	2492.4
506.367	2566.6
506.574	2578.61
506.781	2601.67
506.988	2479.22
507.195	2525.14
507.402	2503.25
507.609	2526.88
507.816	2440.67
508.023	2427.49
508.23	2367.82
508.437	2388.74
508.644	2447.25
508.851	2481.35
509.058	2523.98
509.265	2463.92
509.472	2535.21
509.679	2593.15
509.885	2538.12
510.092	2524.17
510.299	2544.71
510.506	2491.43
510.713	2478.25
510.92	2483.68
511.126	2522.04
511.333	2613.1
511.54	2572.22
511.746	2617.36
511.953	2577.45
512.16	2606.13
512.367	2572.8
512.573	2549.75
512.78	2571.06
512.987	2534.05
513.193	2492.98
513.4	2406.57
513.606	2501.5
513.813	2516.62
514.02	2515.07
514.226	2566.02
514.433	2555.56
514.639	2512.55
514.846	2539.09
515.052	2487.36
515.259	2513.71
515.465	2529.98
515.672	2533.66
515.878	2634.03
516.085	2575.32
516.291	2565.05
516.497	2579.78
516.704	2533.47
516.91	2460.43
517.117	2349.8
517.323	2252.54
517.529	2283.34
517.736	2297.49
517.942	2273.07
518.148	2364.33
518.354	2401.53
518.561	2392.23
518.767	2364.52
518.973	2422.65
519.179	2457.13
519.386	2433.11
519.592	2449.19
519.798	2434.08
520.004	2594.7
520.21	2589.66
520.417	2626.08
520.623	2697.96
520.829	2695.64
521.035	2679.36
521.241	2657.66
521.447	2716.95
521.653	2794.64
521.859	2694.86
522.065	2753.37
522.271	2808.4
522.477	2796.39
522.683	2823.9
522.889	2758.99
523.095	2768.68
523.301	2734.97
523.507	2678.78
523.713	2731.48
523.919	2692.54
524.125	2799.68
524.331	2820.22
524.537	2906.82
524.742	2905.08
524.948	2919.03
525.154	2884.15
525.36	2991.49
525.566	2897.72
525.772	2944.8
525.977	2877.37
526.183	2909.73
526.389	2905.66
526.595	2851.02
526.8	2826.03
527.006	2736.71
527.212	2619.69
527.417	2639.26
527.623	2661.73
527.829	2736.52
528.034	2748.34
528.24	2795.61
528.446	2791.54
528.651	2928.52
528.857	2931.62
529.062	3008.35
529.268	2998.27
529.473	2982.38
529.679	3042.64
529.884	3086.23
530.09	3073.44
530.295	3062.79
530.501	3081.78
530.706	3040.51
530.912	2982.77
531.117	3076.16
531.323	3074.99
531.528	3086.23
531.733	3145.13
531.939	3084.29
532.144	3092.24
532.35	3114.33
532.555	3125.18
532.76	3115.88
532.966	3093.59
533.171	3031.6
533.376	2962.23
533.581	2929.1
533.787	3038.57
533.992	3084.29
534.197	3052.71
534.402	3059.88
534.607	3099.02
534.813	3185.43
535.018	3085.26
535.223	3108.32
535.428	3131.37
535.633	3168.96
535.838	3210.62
536.043	3217.98
536.249	3305.55
536.454	3187.37
536.659	3247.62
536.864	3166.25
537.069	3143
537.274	3215.27
537.479	3154.24
537.684	3119.75
537.889	3102.31
538.094	3256.54
538.299	3124.59
538.504	3178.07
538.708	3192.02
538.913	3254.02
539.118	3220.3
539.323	3225.54
539.528	3148.04
539.733	3193.96
539.938	3205
540.142	3188.53
540.347	3115.68
540.552	3104.64
540.757	3086.43
540.962	3114.52
541.166	3059.69
541.371	3025.2
541.576	3051.55
541.781	3045.74
541.985	3185.04
542.19	3145.13
542.395	3280.17
542.599	3262.93
542.804	3146.49
543.008	3236
543.213	3204.22
543.418	3135.44
543.622	3195.51
543.827	3128.66
544.031	3265.45
544.236	3247.04
544.44	3228.83
544.645	3331.32
544.849	3238.52
545.054	3320.28
545.258	3356.9
545.463	3283.47
545.667	3219.92
545.872	3291.6
546.076	3265.06
546.281	3293.93
546.485	3246.07
546.689	3243.75
546.894	3319.5
547.098	3247.43
547.302	3208.1
547.507	3233.87
547.711	3255.37
547.915	3270.87
548.119	3191.05
548.324	3180.78
548.528	3249.95
548.732	3193.57
548.936	3270.87
549.141	3301.68
549.345	3222.63
549.549	3253.63
549.753	3251.3
549.957	3341.2
550.161	3302.45
550.366	3311.17
550.57	3251.89
550.774	3240.84
550.978	3296.84
551.182	3268.74
551.386	3205.58
551.59	3257.7
551.794	3245.49
551.998	3299.35
552.202	3275.14
552.406	3237.74
552.61	3329
552.814	3310.4
553.018	3321.83
553.222	3211.97
553.426	3252.66
553.63	3322.02
553.833	3238.9
554.037	3216.24
554.241	3219.14
554.445	3233.09
554.649	3221.47
554.853	3211.2
555.056	3276.69
555.26	3283.08
555.464	3267.58
555.668	3291.41
555.871	3261.38
556.075	3280.37
556.279	3233.87
556.483	3205.97
556.686	3215.27
556.89	3231.15
557.094	3225.54
557.297	3091.66
557.501	3231.54
557.704	3058.72
557.908	3189.69
558.112	3105.41
558.315	3236.39
558.519	3149.39
558.722	3117.04
558.926	3102.51
559.129	3043.41
559.333	3062.01
559.536	3060.85
559.74	2968.05
559.943	3023.65
560.147	3005.25
560.35	3017.26
560.553	3059.11
560.757	2976.76
560.96	3109.87
561.164	3060.27
561.367	3153.66
561.57	3090.69
561.774	3116.07
561.977	3037.41
562.18	3031.01
562.384	3129.24
562.587	3024.04
562.79	3019
562.993	3033.15
563.197	3056.39
563.4	3133.31
563.603	3122.85
563.806	3136.22
564.009	3014.74
564.212	3073.64
564.416	2979.28
564.619	3032.18
564.822	2991.68
565.025	3070.15
565.228	3006.6
565.431	3030.05
565.634	2899.85
565.837	2962.43
566.04	2942.67
566.243	2918.45
566.446	2846.76
566.649	2900.62
566.852	2863.42
567.055	2891.52
567.258	2864.59
567.461	2944.41
567.664	2967.85
567.867	2874.27
568.07	2916.7
568.273	2922.32
568.475	2983.55
568.678	2842.89
568.881	2847.92
569.084	2822.35
569.287	2764.03
569.489	2829.52
569.692	2870.01
569.895	2853.74
570.098	2780.69
570.3	2770.81
570.503	2731.09
570.706	2760.74
570.909	2738.07
571.111	2688.86
571.314	2634.8
571.516	2713.66
571.719	2710.36
571.922	2690.6
572.124	2694.86
572.327	2742.91
572.529	2670.64
572.732	2724.89
572.935	2755.7
573.137	2826.42
573.34	2710.36
573.542	2760.74
573.745	2776.82
573.947	2757.83
574.15	2737.49
574.352	2704.36
574.554	2786.7
574.757	2699.9
574.959	2700.87
575.162	2708.23
575.364	2675.68
575.566	2753.76
575.769	2599.15
575.971	2699.12
576.173	2517.2
576.376	2616.2
576.578	2636.16
576.78	2704.16
576.982	2545.87
577.185	2626.86
577.387	2576.29
577.589	2611.55
577.791	2644.29
577.993	2658.83
578.196	2594.89
578.398	2616.01
578.6	2602.64
578.802	2542.58
579.004	2539.28
579.206	2573.96
579.408	2606.51
579.61	2515.65
579.812	2577.26
580.014	2541.22
580.216	2520.3
580.418	2563.7
580.62	2537.35
580.822	2547.23
581.024	2555.56
581.226	2619.49
581.428	2557.88
581.63	2646.04
581.832	2516.62
582.034	2632.28
582.236	2580.16
582.438	2588.3
582.64	2648.75
582.841	2634.03
583.043	2692.15
583.245	2606.51
583.447	2599.93
583.649	2598.76
583.85	2611.16
584.052	2605.74
584.254	2548.58
584.456	2610.97
584.657	2554.59
584.859	2561.56
585.061	2557.69
585.262	2548.2
585.464	2475.54
585.666	2574.74
585.867	2534.25
586.069	2564.47
586.27	2536.18
586.472	2544.51
586.674	2442.99
586.875	2457.72
587.077	2439.31
587.278	2504.22
587.48	2488.72
587.681	2629.76
587.883	2508.87
588.084	2447.25
588.285	2488.33
588.487	2448.8
588.688	2482.71
588.89	2350.96
589.091	2304.66
589.292	2276.56
589.494	2235.1
589.695	2217.28
589.896	2131.45
590.098	2138.42
590.299	2172.13
590.5	2183.95
590.702	2234.33
590.903	2275.79
591.104	2361.04
591.305	2316.86
591.507	2362.2
591.708	2350.38
591.909	2309.69
592.11	2394.36
592.311	2340.69
592.512	2301.17
592.714	2305.04
592.915	2289.54
593.116	2283.15
593.317	2337.79
593.518	2337.98
593.719	2291.87
593.92	2320.16
594.121	2368.01
594.322	2341.27
594.523	2365.3
594.724	2267.26
594.925	2324.22
595.126	2309.11
595.327	2311.05
595.528	2313.18
595.729	2301.94
595.929	2300.78
596.13	2283.92
596.331	2332.75
596.532	2334.49
596.733	2355.03
596.934	2356.97
597.135	2374.21
597.335	2330.23
597.536	2292.84
597.737	2295.55
597.938	2252.73
598.138	2335.46
598.339	2303.3
598.54	2335.85
598.74	2287.41
598.941	2287.8
599.142	2355.8
599.342	2287.22
599.543	2311.24
599.744	2262.42
599.944	2253.31
600.145	2286.64
600.345	2317.25
600.546	2394.75
600.746	2361.81
600.947	2376.34
601.147	2299.81
601.348	2354.06
601.548	2232.78
601.749	2285.67
601.949	2251.76
602.15	2265.91
602.35	2274.43
602.551	2281.02
602.751	2260.87
602.951	2244.4
603.152	2193.83
603.352	2289.93
603.552	2258.74
603.753	2328.87
603.953	2310.27
604.153	2275.98
604.354	2307.56
604.554	2284.7
604.754	2302.14
604.954	2244.59
605.155	2311.63
605.355	2284.7
605.555	2323.26
605.755	2329.46
605.955	2305.24
606.155	2339.34
606.356	2256.99
606.556	2295.16
606.756	2287.22
606.956	2228.9
607.156	2328.29
607.356	2241.3
607.556	2245.37
607.756	2241.49
607.956	2335.66
608.156	2280.82
608.356	2212.24
608.556	2276.17
608.756	2262.42
608.956	2215.14
609.156	2261.84
609.356	2194.8
609.556	2199.06
609.755	2190.73
609.955	2210.49
610.155	2198.48
610.355	2195.77
610.555	2152.95
610.755	2219.79
610.954	2122.15
611.154	2180.85
611.354	2237.04
611.554	2135.51
611.753	2174.65
611.953	2146.75
612.153	2182.21
612.352	2199.45
612.552	2118.85
