Data from gum_old_FLMT105791__79__15-44-07-256.txt Node

Date: Mon Mar 20 15:44:07 GMT 2023
User: antho
Spectrometer: FLMT10579
Trigger mode: 0
Integration Time (sec): 1.000000E-1
Scans to average: 10
Electric dark correction enabled: true
Nonlinearity correction enabled: false
Boxcar width: 0
XAxis mode: Wavelengths
Number of Pixels in Spectrum: 3648
>>>>>Begin Spectral Data<<<<<
345.248	-190.07
345.464	-190.07
345.681	-190.07
345.898	-162.94
346.114	-185.03
346.331	-34.49
346.548	40.49
346.764	-17.24
346.981	-4.84
347.197	-8.33
347.414	30.81
347.631	-16.08
347.847	62.39
348.064	-3.49
348.28	10.27
348.497	-63.74
348.713	4.26
348.93	44.17
349.146	33.71
349.363	5.04
349.579	30.03
349.796	22.47
350.012	-5.62
350.229	36.23
350.445	35.84
350.661	-8.33
350.878	6.39
351.094	35.65
351.311	46.31
351.527	35.46
351.743	-3.87
351.96	52.51
352.176	59.09
352.392	25.77
352.609	41.07
352.825	6.59
353.041	0.19
353.257	-0.77
353.474	28.09
353.69	20.92
353.906	34.87
354.122	-17.24
354.339	86.02
354.555	33.91
354.771	9.69
354.987	73.43
355.203	67.81
355.42	6.01
355.636	13.37
355.852	-3.1
356.068	25.38
356.284	-10.66
356.5	71.49
356.716	35.84
356.932	5.23
357.148	57.35
357.364	9.69
357.58	95.32
357.796	74.21
358.012	71.11
358.228	46.11
358.444	-46.11
358.66	59.09
358.876	35.07
359.092	10.27
359.308	51.92
359.524	64.71
359.74	17.05
359.956	13.17
360.172	34.49
360.388	71.11
360.604	9.11
360.819	80.02
361.035	36.23
361.251	66.65
361.467	-12.59
361.683	61.03
361.898	38.36
362.114	50.37
362.33	38.75
362.546	72.85
362.762	31
362.977	40.49
363.193	5.81
363.409	89.7
363.624	1.16
363.84	7.36
364.056	28.67
364.271	61.22
364.487	51.15
364.703	55.22
364.918	6.78
365.134	13.17
365.35	21.7
365.565	153.84
365.781	36.62
365.996	74.4
366.212	107.53
366.427	70.72
366.643	16.08
366.858	43.79
367.074	36.42
367.289	124.19
367.505	159.84
367.72	-5.81
367.936	47.08
368.151	77.89
368.367	71.3
368.582	43.21
368.798	44.17
369.013	95.9
369.228	80.02
369.444	53.09
369.659	99.2
369.874	88.54
370.09	113.54
370.305	-5.04
370.52	59.29
370.736	129.23
370.951	63.55
371.166	72.66
371.381	127.87
371.597	120.9
371.812	19.76
372.027	22.28
372.242	55.41
372.458	128.45
372.673	58.71
372.888	55.02
373.103	55.22
373.318	142.02
373.533	78.08
373.749	75.17
373.964	-4.84
374.179	103.27
374.394	-4.26
374.609	85.44
374.824	18.79
375.039	95.13
375.254	54.64
375.469	87.57
375.684	85.83
375.899	108.5
376.114	58.12
376.329	83.12
376.544	109.66
376.759	77.89
376.974	40.49
377.189	78.27
377.404	50.57
377.619	102.1
377.834	16.08
378.049	35.07
378.264	67.81
378.478	91.84
378.693	63.74
378.908	80.02
379.123	82.34
379.338	96.68
379.553	86.99
379.767	72.85
379.982	77.11
380.197	105.79
380.412	59.09
380.626	76.53
380.841	161.78
381.056	89.32
381.271	147.83
381.485	37.78
381.7	30.81
381.915	90.87
382.129	52.31
382.344	80.79
382.559	74.4
382.773	114.12
382.988	1.16
383.202	60.06
383.417	50.18
383.632	138.72
383.846	39.91
384.061	74.59
384.275	59.48
384.49	91.84
384.704	91.06
384.919	87.19
385.133	81.37
385.348	87.57
385.562	63.55
385.777	128.45
385.991	79.63
386.206	104.04
386.42	56.77
386.634	121.48
386.849	109.27
387.063	101.33
387.277	85.64
387.492	99.59
387.706	52.7
387.92	97.45
388.135	123.03
388.349	121.09
388.563	121.09
388.778	103.65
388.992	122.45
389.206	107.53
389.42	173.99
389.635	95.32
389.849	140.47
390.063	169.53
390.277	128.84
390.491	175.92
390.706	155.39
390.92	167.01
391.134	140.85
391.348	171.47
391.562	78.27
391.776	128.84
391.99	103.85
392.205	171.47
392.419	117.02
392.633	111.21
392.847	146.86
393.061	87.19
393.275	166.82
393.489	94.74
393.703	86.02
393.917	92.03
394.131	84.86
394.345	105.2
394.559	107.14
394.773	109.66
394.986	162.36
395.2	146.09
395.414	201.11
395.628	129.42
395.842	191.81
396.056	128.65
396.27	85.44
396.484	140.08
396.697	165.85
396.911	175.15
397.125	160.42
397.339	135.43
397.553	103.07
397.766	187.35
397.98	181.73
398.194	189.48
398.408	155.19
398.621	222.23
398.835	250.71
399.049	178.63
399.262	261.37
399.476	270.66
399.69	232.11
399.903	330.53
400.117	205.57
400.331	234.63
400.544	215.64
400.758	338.48
400.971	250.71
401.185	284.81
401.398	216.8
401.612	303.41
401.826	261.95
402.039	271.25
402.253	240.83
402.466	273.96
402.68	246.83
402.893	279.19
403.106	271.05
403.32	250.32
403.533	291.2
403.747	280.16
403.96	289.65
404.174	280.93
404.387	230.37
404.6	266.21
404.814	302.05
405.027	268.53
405.24	258.85
405.454	271.44
405.667	306.9
405.88	198.78
406.094	264.85
406.307	322.59
406.52	282.29
406.733	237.92
406.947	205.76
407.16	340.41
407.373	306.7
407.586	242.77
407.799	265.05
408.012	319.1
408.226	308.25
408.439	353.01
408.652	237.92
408.865	326.66
409.078	358.04
409.291	325.88
409.504	284.81
409.717	341.77
409.93	336.54
410.143	299.73
410.357	219.13
410.57	244.7
410.783	282.29
410.996	299.53
411.209	315.03
411.421	339.06
411.634	314.26
411.847	309.03
412.06	327.82
412.273	337.51
412.486	325.11
412.699	420.63
412.912	340.8
413.125	389.24
413.338	354.17
413.55	391.37
413.763	351.65
413.976	362.89
414.189	318.71
414.402	319.88
414.615	404.16
414.827	315.42
415.04	401.44
415.253	386.91
415.466	391.18
415.678	434.77
415.891	345.65
416.104	348.36
416.316	360.56
416.529	349.52
416.742	372.96
416.954	417.91
417.167	389.43
417.38	360.37
417.592	396.02
417.805	334.8
418.017	328.6
418.23	359.21
418.442	305.93
418.655	366.57
418.868	380.91
419.08	387.69
419.293	392.92
419.505	382.84
419.718	383.62
419.93	412.68
420.142	369.67
420.355	420.63
420.567	434.38
420.78	384.01
420.992	412.68
421.205	458.99
421.417	375.87
421.629	375.29
421.842	365.99
422.054	370.83
422.266	404.54
422.479	454.34
422.691	378.78
422.903	427.21
423.115	354.56
423.328	381.49
423.54	401.25
423.752	391.95
423.964	367.54
424.177	400.86
424.389	404.54
424.601	522.15
424.813	425.28
425.025	443.68
425.238	429.15
425.45	424.11
425.662	402.99
425.874	699.04
426.086	397.76
426.298	417.33
426.51	454.72
426.722	414.04
426.934	411.52
427.146	446.59
427.358	383.62
427.57	443.68
427.782	409.19
427.994	393.11
428.206	382.26
428.418	367.34
428.63	467.51
428.842	451.24
429.054	464.61
429.266	430.7
429.478	410.16
429.69	385.75
429.902	384.59
430.114	444.26
430.325	402.03
430.537	372.38
430.749	377.23
430.961	296.63
431.173	325.11
431.384	375.68
431.596	291.2
431.808	392.34
432.02	460.34
432.231	478.36
432.443	536.68
432.655	511.49
432.867	457.63
433.078	487.66
433.29	539.97
433.502	514.01
433.713	538.42
433.925	538.81
434.136	536.87
434.348	437.48
434.56	418.69
434.771	574.85
434.983	397.38
435.194	445.62
435.406	509.36
435.617	569.81
435.829	600.04
436.04	531.84
436.252	548.89
436.463	597.9
436.675	588.22
436.886	562.06
437.098	568.84
437.309	629.87
437.521	555.28
437.732	552.57
437.943	563.03
438.155	563.42
438.366	491.54
438.578	603.14
438.789	533.39
439	539.78
439.211	491.92
439.423	554.31
439.634	552.57
439.845	589.77
440.057	560.12
440.268	600.04
440.479	537.45
440.69	588.8
440.902	544.24
441.113	569.62
441.324	571.55
441.535	609.34
441.746	639.17
441.957	570.78
442.168	601.78
442.38	649.25
442.591	660.29
442.802	610.5
443.013	568.84
443.224	642.08
443.435	615.73
443.646	632.78
443.857	588.41
444.068	628.32
444.279	592.67
444.49	702.53
444.701	638.4
444.912	729.26
445.123	682.96
445.334	667.07
445.545	670.17
445.756	625.22
445.967	605.65
446.178	646.92
446.388	656.8
446.599	658.93
446.81	676.57
447.021	626.38
447.232	713.96
447.443	702.91
447.653	645.95
447.864	719
448.075	683.93
448.286	705.43
448.496	699.43
448.707	728.88
448.918	658.35
449.129	735.85
449.339	660.48
449.55	710.66
449.761	671.14
449.971	736.43
450.182	686.25
450.393	730.23
450.603	683.93
450.814	760.07
451.024	724.23
451.235	791.26
451.446	796.69
451.656	822.26
451.867	714.35
452.077	733.72
452.288	840.48
452.498	780.22
452.709	722.1
452.919	723.84
453.13	697.49
453.34	719.38
453.55	672.69
453.761	698.85
453.971	682.38
454.182	718.61
454.392	726.75
454.602	795.33
454.813	748.06
455.023	748.25
455.233	688.19
455.444	727.71
455.654	678.12
455.864	736.43
456.075	724.61
456.285	719.77
456.495	753.68
456.705	752.9
456.916	797.66
457.126	814.71
457.336	771.31
457.546	707.76
457.756	749.03
457.967	818.97
458.177	741.86
458.387	762.59
458.597	717.64
458.807	750.19
459.017	746.12
459.227	743.21
459.437	706.21
459.647	798.63
459.857	806.76
460.068	745.54
460.278	838.73
460.488	788.16
460.698	842.61
460.908	780.03
461.117	771.11
461.327	800.37
461.537	820.13
461.747	815.29
461.957	792.81
462.167	881.74
462.377	835.83
462.587	811.61
462.797	868.18
463.007	797.66
463.216	871.09
463.426	887.36
463.636	874.96
463.846	777.12
464.056	803.28
464.265	871.86
464.475	756.58
464.685	814.51
464.895	842.41
465.104	837.18
465.314	881.16
465.524	809.86
465.733	794.94
465.943	876.32
466.153	902.47
466.362	904.99
466.572	873.41
466.782	835.24
466.991	865.08
467.201	901.7
467.41	791.46
467.62	867.99
467.829	826.53
468.039	899.37
468.249	838.54
468.458	860.24
468.668	915.07
468.877	910.42
469.086	928.24
469.296	923.21
469.505	850.74
469.715	976.68
469.924	921.27
470.134	953.43
470.343	919.33
470.552	921.85
470.762	913.13
470.971	877.87
471.18	916.42
471.39	892.4
471.599	850.36
471.808	965.44
472.018	884.46
472.227	973
472.436	1006.13
472.645	960.6
472.855	949.17
473.064	1039.45
473.273	973.77
473.482	1024.15
473.691	1056.7
473.901	1038.68
474.11	983.27
474.319	1094.48
474.528	1017.75
474.737	1098.74
474.946	1042.17
475.155	1084.21
475.364	1066.97
475.573	1063.09
475.783	1105.33
475.992	1105.52
476.201	1102.23
476.41	1102.03
476.619	1054.37
476.828	1085.37
477.037	1067.74
477.245	1088.47
477.454	1117.53
477.663	1115.4
477.872	1139.04
478.081	1192.32
478.29	1136.91
478.499	1260.52
478.708	1200.46
478.917	1249.28
479.125	1162.29
479.334	1242.11
479.543	1206.85
479.752	1216.35
479.961	1213.44
480.169	1270.4
480.378	1203.95
480.587	1376.38
480.796	1300.24
481.004	1270.59
481.213	1288.61
481.422	1272.53
481.63	1303.14
481.839	1305.66
482.048	1353.32
482.256	1330.85
482.465	1360.49
482.674	1363.01
482.882	1356.23
483.091	1410.09
483.299	1349.84
483.508	1387.04
483.716	1361.66
483.925	1387.62
484.134	1358.56
484.342	1335.31
484.551	1394.79
484.759	1353.32
484.967	1433.54
485.176	1422.49
485.384	1423.85
485.593	1415.71
485.801	1408.54
486.01	1324.84
486.218	1263.04
486.426	1206.46
486.635	1210.53
486.843	1208.21
487.051	1221.77
487.26	1252.58
487.468	1280.67
487.676	1345.57
487.885	1325.04
488.093	1355.84
488.301	1431.6
488.509	1425.2
488.717	1439.15
488.926	1436.25
489.134	1410.87
489.342	1462.79
489.55	1383.36
489.758	1460.08
489.967	1470.74
490.175	1585.82
490.383	1509.48
490.591	1602.68
490.799	1502.12
491.007	1544.94
491.215	1521.11
491.423	1522.08
491.631	1575.16
491.839	1547.27
492.047	1578.85
492.255	1518.98
492.463	1438.19
492.671	1471.9
492.879	1522.66
493.087	1519.75
493.295	1524.6
493.503	1549.4
493.711	1636.2
493.919	1597.45
494.127	1623.21
494.334	1628.45
494.542	1547.65
494.75	1609.26
494.958	1583.3
495.166	1666.23
495.374	1685.79
495.581	1704.59
495.789	1672.43
495.997	1725.51
496.205	1649.76
496.412	1636
496.62	1642.2
496.828	1659.45
497.035	1655.76
497.243	1674.17
497.451	1686.76
497.658	1706.91
497.866	1674.17
498.074	1766.01
498.281	1673.2
498.489	1786.16
498.696	1658.48
498.904	1619.15
499.112	1655.76
499.319	1727.26
499.527	1665.84
499.734	1756.32
499.942	1646.08
500.149	1683.86
500.357	1738.11
500.564	1640.65
500.771	1701.88
500.979	1672.23
501.186	1649.76
501.394	1665.26
501.601	1654.02
501.808	1691.41
502.016	1660.03
502.223	1653.63
502.43	1652.86
502.638	1653.05
502.845	1662.54
503.052	1745.86
503.26	1675.91
503.467	1809.6
503.674	1722.03
503.881	1689.86
504.089	1776.66
504.296	1758.84
504.503	1684.44
504.71	1704.98
504.917	1683.47
505.125	1713.31
505.332	1739.08
505.539	1741.59
505.746	1819.29
505.953	1783.25
506.16	1817.16
506.367	1807.66
506.574	1896.01
506.781	1853.19
506.988	1784.8
507.195	1793.52
507.402	1788.09
507.609	1841.57
507.816	1779.18
508.023	1780.92
508.23	1749.15
508.437	1699.36
508.644	1762.52
508.851	1826.84
509.058	1783.06
509.265	1812.51
509.472	1865.4
509.679	1926.23
509.885	1857.45
510.092	1860.55
510.299	1826.26
510.506	1840.79
510.713	1846.6
510.92	1844.67
511.126	1862.88
511.333	1902.79
511.54	1879.93
511.746	1947.55
511.953	1965.18
512.16	1968.47
512.367	1908.6
512.573	1900.27
512.78	1902.99
512.987	1872.18
513.193	1887.87
513.4	1812.7
513.606	1868.69
513.813	1883.42
514.02	1891.36
514.226	1924.68
514.433	1948.9
514.639	1805.34
514.846	1866.75
515.052	1832.66
515.259	1867.53
515.465	1863.85
515.672	1860.55
515.878	1958.59
516.085	1898.53
516.291	1983.97
516.497	1909.38
516.704	1856.1
516.91	1802.62
517.117	1770.46
517.323	1690.44
517.529	1675.72
517.736	1729.19
517.942	1712.14
518.148	1776.08
518.354	1786.35
518.561	1818.32
518.767	1780.15
518.973	1821.03
519.179	1810.96
519.386	1816.96
519.592	1822.19
519.798	1838.66
520.004	1972.73
520.21	1911.32
520.417	1969.44
520.623	1994.05
520.829	1994.82
521.035	1989.98
521.241	2010.32
521.447	2022.53
521.653	2102.54
521.859	1995.98
522.065	2044.42
522.271	2117.66
522.477	2103.9
522.683	2146.91
522.889	2066.9
523.095	2101.96
523.301	2043.65
523.507	2014.2
523.713	2075.23
523.919	2043.06
524.125	2113.2
524.331	2078.91
524.537	2220.15
524.742	2203.87
524.948	2228.48
525.154	2227.12
525.36	2275.37
525.566	2221.31
525.772	2257.74
525.977	2155.63
526.183	2228.48
526.389	2227.9
526.595	2145.17
526.8	2100.03
527.006	2037.06
527.212	2032.02
527.417	1995.79
527.623	1973.7
527.829	2083.17
528.034	2088.01
528.24	2150.01
528.446	2147.88
528.651	2242.04
528.857	2213.76
529.062	2259.29
529.268	2317.02
529.473	2274.4
529.679	2332.52
529.884	2364.1
530.09	2350.15
530.295	2375.92
530.501	2336.01
530.706	2314.12
530.912	2275.17
531.117	2346.86
531.323	2338.53
531.528	2375.34
531.733	2406.53
531.939	2379.41
532.144	2409.83
532.35	2393.36
532.555	2404.21
532.76	2376.31
532.966	2390.26
533.171	2332.72
533.376	2293.97
533.581	2254.06
533.787	2283.89
533.992	2365.65
534.197	2351.51
534.402	2348.22
534.607	2352.48
534.813	2486.36
535.018	2335.82
535.223	2373.6
535.428	2394.13
535.633	2411.96
535.838	2461.56
536.043	2459.81
536.249	2532.86
536.454	2434.63
536.659	2461.17
536.864	2453.81
537.069	2444.51
537.274	2443.93
537.479	2408.86
537.684	2391.23
537.889	2348.22
538.094	2531.89
538.299	2442.18
538.504	2460.78
538.708	2510.58
538.913	2486.36
539.118	2473.96
539.323	2496.43
539.528	2435.6
539.733	2445.09
539.938	2476.28
540.142	2440.83
540.347	2424.36
540.552	2416.42
540.757	2424.75
540.962	2404.02
541.166	2300.94
541.371	2328.65
541.576	2398.59
541.781	2316.05
541.985	2418.16
542.19	2403.63
542.395	2512.32
542.599	2508.25
542.804	2521.43
543.008	2539.64
543.213	2422.03
543.418	2416.61
543.622	2485.58
543.827	2443.15
544.031	2517.36
544.236	2542.35
544.44	2480.93
544.645	2563.28
544.849	2502.05
545.054	2548.94
545.258	2589.24
545.463	2557.46
545.667	2480.16
545.872	2546.81
546.076	2523.95
546.281	2509.61
546.485	2485.58
546.689	2514.26
546.894	2588.46
547.098	2506.31
547.302	2481.32
547.507	2516.39
547.711	2531.5
547.915	2579.16
548.119	2475.31
548.324	2504.76
548.528	2536.73
548.732	2502.44
548.936	2564.44
549.141	2558.24
549.345	2496.43
549.549	2517.94
549.753	2548.36
549.957	2636.71
550.161	2613.26
550.366	2558.24
550.57	2523.36
550.774	2552.62
550.978	2536.73
551.182	2568.12
551.386	2511.74
551.59	2496.24
551.794	2540.61
551.998	2559.21
552.202	2494.11
552.406	2507.86
552.61	2545.64
552.814	2569.67
553.018	2586.14
553.222	2554.56
553.426	2490.62
553.63	2618.3
553.833	2525.69
554.037	2470.86
554.241	2527.24
554.445	2551.46
554.649	2527.05
554.853	2491.98
555.056	2572.96
555.26	2570.64
555.464	2521.43
555.668	2535.76
555.871	2589.63
556.075	2553.2
556.279	2506.12
556.483	2474.15
556.686	2484.61
556.89	2523.75
557.094	2473.57
557.297	2442.57
557.501	2532.47
557.704	2392.97
557.908	2475.9
558.112	2461.56
558.315	2541.96
558.519	2449.16
558.722	2422.81
558.926	2440.44
559.129	2352.29
559.333	2348.8
559.536	2385.03
559.74	2347.83
559.943	2354.61
560.147	2340.66
560.35	2382.51
560.553	2379.02
560.757	2307.14
560.96	2431.72
561.164	2338.34
561.367	2446.64
561.57	2397.43
561.774	2397.82
561.977	2373.4
562.18	2328.26
562.384	2469.7
562.587	2365.85
562.79	2361.78
562.993	2339.5
563.197	2400.72
563.4	2435.98
563.603	2420.87
563.806	2448.77
564.009	2376.7
564.212	2393.94
564.416	2292.22
564.619	2331.55
564.822	2305.2
565.025	2374.37
565.228	2331.55
565.431	2362.36
565.634	2253.09
565.837	2294.16
566.04	2279.63
566.243	2258.71
566.446	2191.47
566.649	2303.27
566.852	2214.53
567.055	2295.9
567.258	2265.29
567.461	2317.02
567.664	2321.29
567.867	2227.71
568.07	2270.14
568.273	2224.02
568.475	2321.67
568.678	2242.43
568.881	2218.99
569.084	2207.56
569.287	2081.04
569.489	2163.96
569.692	2237.97
569.895	2197.87
570.098	2147.69
570.3	2141.68
570.503	2102.16
570.706	2118.43
570.909	2091.11
571.111	2043.06
571.314	2020.98
571.516	2066.51
571.719	2095.76
571.922	2028.92
572.124	2038.22
572.327	2097.31
572.529	2069.03
572.732	2042.29
572.935	2129.28
573.137	2223.44
573.34	2131.41
573.542	2130.83
573.745	2178.11
573.947	2148.85
574.15	2090.92
574.352	2064.18
574.554	2144.59
574.757	2056.82
574.959	2057.01
575.162	2071.93
575.364	2037.83
575.566	2134.32
575.769	1990.56
575.971	2056.05
576.173	1891.55
576.376	2023.88
576.578	2046.55
576.78	2100.03
576.982	1954.52
577.185	2021.95
577.387	1970.02
577.589	2028.92
577.791	2036.09
577.993	2038.41
578.196	2019.43
578.398	2020.2
578.6	2029.5
578.802	1933.02
579.004	1945.03
579.206	1912.09
579.408	2036.28
579.61	1936.31
579.812	2006.64
580.014	1955.3
580.216	1951.23
580.418	1962.08
580.62	1953.36
580.822	1892.72
581.024	1944.45
581.226	1980.29
581.428	1950.07
581.63	2042.48
581.832	1909.57
582.034	2003.15
582.236	1973.9
582.438	1965.37
582.64	2022.33
582.841	2066.7
583.043	2116.3
583.245	1997.34
583.447	1978.35
583.649	1994.63
583.85	1999.47
584.052	2017.3
584.254	1899.3
584.456	2008.58
584.657	1930.11
584.859	1967.5
585.061	1912.87
585.262	1938.44
585.464	1903.37
585.666	1973.12
585.867	1897.37
586.069	1968.67
586.27	1910.74
586.472	1918.29
586.674	1861.72
586.875	1886.52
587.077	1870.82
587.278	1903.76
587.48	1896.79
587.681	1971.57
587.883	1924.49
588.084	1843.5
588.285	1879.74
588.487	1881.67
588.688	1886.13
588.89	1771.62
589.091	1741.21
589.292	1766.78
589.494	1704.39
589.695	1661.58
589.896	1597.25
590.098	1603.45
590.299	1673.78
590.5	1658.86
590.702	1670.68
590.903	1725.32
591.104	1780.73
591.305	1787.12
591.507	1788.29
591.708	1768.14
591.909	1748.76
592.11	1850.87
592.311	1800.69
592.512	1723.19
592.714	1711.76
592.915	1715.05
593.116	1735.01
593.317	1755.16
593.518	1732.49
593.719	1777.24
593.92	1782.47
594.121	1789.06
594.322	1768.14
594.523	1785.57
594.724	1707.69
594.925	1745.86
595.126	1769.69
595.327	1797.78
595.528	1722.8
595.729	1751.09
595.929	1742.18
596.13	1749.92
596.331	1804.76
596.532	1785.57
596.733	1824.52
596.934	1777.24
597.135	1789.64
597.335	1755.16
597.536	1725.9
597.737	1789.64
597.938	1721.83
598.138	1758.26
598.339	1705.75
598.54	1745.08
598.74	1708.08
598.941	1733.46
599.142	1820.64
599.342	1729.78
599.543	1699.36
599.744	1730.16
599.944	1736.36
600.145	1726.87
600.345	1729
600.546	1783.06
600.746	1815.02
600.947	1830.72
601.147	1744.5
601.348	1785.77
601.548	1704.59
601.749	1758.64
601.949	1703.43
602.15	1714.86
602.35	1699.36
602.551	1799.14
602.751	1676.69
602.951	1673.78
603.152	1631.35
603.352	1724.35
603.552	1735.01
603.753	1774.53
603.953	1759.03
604.153	1697.23
604.354	1731.91
604.554	1716.02
604.754	1706.72
604.954	1687.93
605.155	1757.67
605.355	1692.19
605.555	1746.83
605.755	1761.94
605.955	1732.88
606.155	1742.56
606.356	1688.7
606.556	1703.81
606.756	1744.31
606.956	1655.18
607.156	1763.87
607.356	1674.56
607.556	1695.09
607.756	1687.34
607.956	1777.24
608.156	1713.11
608.356	1642.98
608.556	1698.78
608.756	1694.71
608.956	1669.52
609.156	1677.08
609.356	1632.13
609.556	1636.78
609.755	1656.54
609.955	1634.26
610.155	1619.92
610.355	1664.48
610.555	1620.31
610.755	1637.36
610.954	1568.77
611.154	1632.9
611.354	1665.45
611.554	1579.23
611.753	1609.07
611.953	1591.25
612.153	1647.24
612.352	1609.85
612.552	1554.63
612.752	1537.19
612.951	1586.01
613.151	1627.09
613.351	1542.62
613.55	1587.76
613.75	1615.46
613.949	1579.81
