Data from gum_old_FLMT105791__88__15-44-16-256.txt Node

Date: Mon Mar 20 15:44:16 GMT 2023
User: antho
Spectrometer: FLMT10579
Trigger mode: 0
Integration Time (sec): 1.000000E-1
Scans to average: 10
Electric dark correction enabled: true
Nonlinearity correction enabled: false
Boxcar width: 0
XAxis mode: Wavelengths
Number of Pixels in Spectrum: 3648
>>>>>Begin Spectral Data<<<<<
345.248	-170.8
345.464	-170.8
345.681	-170.8
345.898	-195.8
346.114	-174.87
346.331	-51.84
346.548	20.62
346.764	-35.18
346.981	4.15
347.197	-37.51
347.414	37.67
347.631	-17.94
347.847	63.44
348.064	18.49
348.28	27.4
348.497	-33.44
348.713	4.15
348.93	42.51
349.146	21.39
349.363	19.65
349.579	38.25
349.796	1.24
350.012	10.35
350.229	56.65
350.445	28.56
350.661	6.67
350.878	10.16
351.094	29.14
351.311	32.05
351.527	28.95
351.743	-8.25
351.96	59.37
352.176	52.39
352.392	6.28
352.609	49.87
352.825	4.54
353.041	27.98
353.257	-4.18
353.474	14.03
353.69	43.87
353.906	27.79
354.122	5.51
354.339	98.5
354.555	40.77
354.771	17.91
354.987	84.36
355.203	71.96
355.42	26.24
355.636	27.98
355.852	-9.8
356.068	41.74
356.284	-10.58
356.5	74.67
356.716	61.11
356.932	48.32
357.148	54.52
357.364	44.84
357.58	73.51
357.796	67.12
358.012	82.42
358.228	53.36
358.444	-18.13
358.66	90.56
358.876	43.09
359.092	16.74
359.308	28.56
359.524	80.29
359.74	25.46
359.956	-6.31
360.172	45.61
360.388	74.67
360.604	30.31
360.819	111.68
361.035	30.5
361.251	40.77
361.467	-15.03
361.683	72.54
361.898	33.79
362.114	37.67
362.33	30.31
362.546	67.7
362.762	38.44
362.977	64.79
363.193	25.27
363.409	83
363.624	15
363.84	12.09
364.056	26.04
364.271	44.64
364.487	71.19
364.703	53.17
364.918	18.49
365.134	30.69
365.35	53.75
365.565	152.56
365.781	44.26
365.996	77.58
366.212	122.92
366.427	78.16
366.643	35.73
366.858	59.75
367.074	39.22
367.289	117.69
367.505	144.23
367.72	11.32
367.936	48.71
368.151	125.63
368.367	73.12
368.582	78.74
368.798	45.03
369.013	124.66
369.228	69.25
369.444	89.2
369.659	117.3
369.874	75.45
370.09	137.06
370.305	26.82
370.52	79.13
370.736	137.45
370.951	59.17
371.166	99.86
371.381	145.78
371.597	77.19
371.812	44.45
372.027	46
372.242	56.27
372.458	132.22
372.673	68.67
372.888	45.81
373.103	105.29
373.318	151.78
373.533	85.72
373.749	91.14
373.964	4.54
374.179	124.47
374.394	24.11
374.609	88.82
374.824	27.4
375.039	101.8
375.254	28.17
375.469	114.78
375.684	80.49
375.899	111.87
376.114	63.05
376.329	90.17
376.544	110.52
376.759	105.67
376.974	31.08
377.189	65.76
377.404	65.76
377.619	138.42
377.834	14.22
378.049	34.37
378.264	50.46
378.478	84.75
378.693	91.53
378.908	127.95
379.123	69.44
379.338	142.1
379.553	104.9
379.767	99.47
379.982	115.36
380.197	98.31
380.412	69.44
380.626	112.45
380.841	170.38
381.056	107.03
381.271	162.63
381.485	62.08
381.7	51.42
381.915	96.37
382.129	70.99
382.344	82.62
382.559	59.75
382.773	103.93
382.988	11.32
383.202	83.39
383.417	39.8
383.632	181.04
383.846	86.3
384.061	62.27
384.275	77.39
384.49	61.11
384.704	119.82
384.919	87.65
385.133	105.67
385.348	132.8
385.562	60.53
385.777	139.58
385.991	105.67
386.206	89.4
386.42	60.34
386.634	120.98
386.849	91.53
387.063	97.15
387.277	67.7
387.492	70.99
387.706	75.64
387.92	81.07
388.135	152.17
388.349	112.84
388.563	137.06
388.778	127.18
388.992	102.19
389.206	120.59
389.42	199.45
389.635	93.66
389.849	143.84
390.063	168.06
390.277	127.95
390.491	182.78
390.706	136.09
390.92	163.8
391.134	142.87
391.348	164.57
391.562	93.66
391.776	151.59
391.99	101.41
392.205	177.94
392.419	105.67
392.633	119.24
392.847	186.66
393.061	85.33
393.275	186.66
393.489	107.22
393.703	95.21
393.917	131.25
394.131	59.95
394.345	122.92
394.559	148.49
394.773	89.59
394.986	143.26
395.2	148.68
395.414	202.93
395.628	129.31
395.842	163.22
396.056	154.11
396.27	94.63
396.484	170
396.697	151.59
396.911	177.75
397.125	154.11
397.339	157.4
397.553	120.4
397.766	186.66
397.98	175.62
398.194	201.58
398.408	141.71
398.621	209.72
398.835	227.54
399.049	226.18
399.262	246.72
399.476	252.53
399.69	244.78
399.903	304.07
400.117	203.32
400.331	290.7
400.544	210.68
400.758	360.84
400.971	264.93
401.185	273.07
401.398	214.56
401.612	267.65
401.826	270.16
402.039	272.88
402.253	237.23
402.466	293.03
402.68	231.8
402.893	285.08
403.106	251.56
403.32	253.5
403.533	276.75
403.747	261.25
403.96	281.21
404.174	285.08
404.387	227.15
404.6	272.1
404.814	298.45
405.027	272.3
405.24	275.59
405.454	269.2
405.667	329.26
405.88	220.95
406.094	296.71
406.307	306.2
406.52	290.12
406.733	237.42
406.947	235.1
407.16	305.04
407.373	320.93
407.586	261.83
407.799	270.94
408.012	324.8
408.226	297.87
408.439	343.01
408.652	267.65
408.865	295.55
409.078	339.53
409.291	325.38
409.504	268.42
409.717	337.39
409.93	324.03
410.143	308.33
410.357	236.06
410.57	251.95
410.783	266.29
410.996	312.98
411.209	307.56
411.421	377.5
411.634	323.06
411.847	311.05
412.06	337.39
412.273	351.93
412.486	346.89
412.699	420.51
412.912	348.05
413.125	392.61
413.338	354.83
413.55	382.15
413.763	354.64
413.976	353.86
414.189	315.11
414.402	343.59
414.615	388.93
414.827	305.43
415.04	393.97
415.253	377.11
415.466	417.61
415.678	441.63
415.891	371.49
416.104	355.03
416.316	342.24
416.529	346.89
416.742	376.92
416.954	411.79
417.167	383.12
417.38	383.89
417.592	408.89
417.805	376.73
418.017	311.05
418.23	401.14
418.442	345.73
418.655	368.01
418.868	383.7
419.08	390.09
419.293	430.39
419.505	397.65
419.718	396.88
419.93	408.69
420.142	350.96
420.355	413.92
420.567	431.17
420.78	412.96
420.992	390.87
421.205	464.88
421.417	366.46
421.629	412.18
421.842	384.28
422.054	376.34
422.266	443.57
422.479	478.44
422.691	410.44
422.903	439.89
423.115	358.51
423.328	406.17
423.54	425.16
423.752	412.18
423.964	367.43
424.177	420.12
424.389	419.16
424.601	514.29
424.813	417.22
425.025	448.8
425.238	441.44
425.45	430.2
425.662	423.42
425.874	725.86
426.086	434.85
426.298	422.45
426.51	448.8
426.722	414.51
426.934	410.82
427.146	459.26
427.358	366.26
427.57	456.36
427.782	390.09
427.994	404.24
428.206	375.18
428.418	376.53
428.63	457.32
428.842	467.79
429.054	418.57
429.266	449.57
429.478	402.49
429.69	435.04
429.902	396.49
430.114	453.64
430.325	411.41
430.537	365.1
430.749	349.6
430.961	281.6
431.173	315.5
431.384	358.71
431.596	287.21
431.808	368.2
432.02	406.37
432.231	460.62
432.443	536.18
432.655	487.16
432.867	458.29
433.078	478.25
433.29	528.62
433.502	510.41
433.713	546.25
433.925	525.91
434.136	550.52
434.348	445.12
434.56	418.57
434.771	561.95
434.983	406.95
435.194	446.09
435.406	489.29
435.617	569.31
435.829	609.61
436.04	559.04
436.252	530.75
436.463	581.32
436.675	584.03
436.886	548.19
437.098	579.19
437.309	620.27
437.521	572.41
437.732	570.67
437.943	539.09
438.155	566.4
438.366	476.51
438.578	592.17
438.789	545.48
439	567.76
439.211	473.99
439.423	513.32
439.634	501.69
439.845	566.99
440.057	560.98
440.268	600.31
440.479	551.49
440.69	575.12
440.902	559.82
441.113	544.51
441.324	552.45
441.535	586.36
441.746	674.13
441.957	579.19
442.168	571.05
442.38	626.27
442.591	619.49
442.802	589.65
443.013	630.92
443.224	650.68
443.435	625.88
443.646	608.25
443.857	601.08
444.068	591.78
444.279	574.15
444.49	707.26
444.701	636.73
444.912	760.54
445.123	685.17
445.334	659.4
445.545	633.83
445.756	596.05
445.967	601.28
446.178	646.62
446.388	653.59
446.599	669.67
446.81	662.5
447.021	613.68
447.232	663.47
447.443	714.62
447.653	634.02
447.864	713.26
448.075	671.03
448.286	687.3
448.496	713.07
448.707	706.87
448.918	658.05
449.129	744.07
449.339	664.25
449.55	708.03
449.761	702.22
449.971	728.38
450.182	684.4
450.393	719.27
450.603	679.36
450.814	727.41
451.024	766.74
451.235	790.76
451.446	796.77
451.656	807.23
451.867	728.18
452.077	721.4
452.288	805.49
452.498	763.25
452.709	708.61
452.919	724.89
453.13	652.82
453.34	722.95
453.55	640.42
453.761	739.42
453.971	725.86
454.182	721.6
454.392	694.08
454.602	784.56
454.813	753.76
455.023	758.79
455.233	691.18
455.444	723.15
455.654	653.98
455.864	703.96
456.075	704.93
456.285	693.11
456.495	699.7
456.705	775.26
456.916	825.25
457.126	786.5
457.336	743.68
457.546	693.31
457.756	737.87
457.967	811.49
458.177	757.24
458.387	721.4
458.597	690.79
458.807	749.69
459.017	730.12
459.227	773.71
459.437	707.26
459.647	797.93
459.857	790.96
460.068	767.71
460.278	802.39
460.488	790.96
460.698	830.48
460.908	779.72
461.117	752.59
461.327	767.13
461.537	797.54
461.747	833.97
461.957	793.09
462.167	923.67
462.377	857.02
462.587	802.19
462.797	884.73
463.007	804.71
463.216	845.79
463.426	912.44
463.636	868.65
463.846	769.26
464.056	784.95
464.265	839.39
464.475	761.7
464.685	837.07
464.895	861.29
465.104	801.42
465.314	832.42
465.524	838.04
465.733	797.16
465.943	889.57
466.153	906.04
466.362	859.16
466.572	847.92
466.782	803.16
466.991	855.47
467.201	908.56
467.41	786.5
467.62	844.82
467.829	821.38
468.039	862.06
468.249	844.04
468.458	854.31
468.668	902.94
468.877	913.99
469.086	918.64
469.296	942.66
469.505	882.21
469.715	963.2
469.924	911.86
470.134	934.33
470.343	949.83
470.552	881.44
470.762	880.66
470.971	854.12
471.18	894.22
471.39	911.27
471.599	889.19
471.808	950.02
472.018	903.72
472.227	966.69
472.436	1006.02
472.645	979.67
472.855	935.1
473.064	1047.48
473.273	1015.12
473.482	1016.67
473.691	1040.89
473.901	1012.02
474.11	964.17
474.319	1079.25
474.528	1028.68
474.737	1087.97
474.946	1068.21
475.155	1072.86
475.364	1108.12
475.573	1067.63
475.783	1068.79
475.992	1098.63
476.201	1110.45
476.41	1075.77
476.619	1037.6
476.828	1107.15
477.037	1049.61
477.245	1076.54
477.454	1143
477.663	1116.84
477.872	1120.91
478.081	1214.68
478.29	1129.24
478.499	1219.91
478.708	1152.68
478.917	1224.18
479.125	1161.79
479.334	1176.32
479.543	1205.77
479.752	1223.01
479.961	1165.66
480.169	1275.13
480.378	1211.58
480.587	1349.92
480.796	1262.34
481.004	1291.6
481.213	1278.23
481.422	1279.78
481.63	1313.88
481.839	1306.52
482.048	1346.82
482.256	1291.41
482.465	1328.99
482.674	1342.75
482.882	1341.59
483.091	1406.49
483.299	1326.47
483.508	1347.4
483.716	1326.47
483.925	1339.26
484.134	1325.12
484.342	1296.64
484.551	1377.82
484.759	1347.4
484.967	1407.65
485.176	1361.54
485.384	1407.85
485.593	1394.09
485.801	1360.57
486.01	1351.27
486.218	1286.76
486.426	1204.41
486.635	1199.38
486.843	1146.29
487.051	1210.61
487.26	1210.81
487.468	1247.62
487.676	1330.74
487.885	1294.7
488.093	1345.85
488.301	1382.47
488.509	1419.09
488.717	1433.62
488.926	1421.8
489.134	1360.77
489.342	1395.25
489.55	1374.33
489.758	1448.92
489.967	1442.34
490.175	1529.13
490.383	1493.68
490.591	1567.5
490.799	1432.65
491.007	1603.15
491.215	1538.43
491.423	1497.94
491.631	1504.33
491.839	1512.28
492.047	1535.53
492.255	1450.08
492.463	1410.75
492.671	1426.25
492.879	1529.33
493.087	1555.48
493.295	1548.7
493.503	1567.3
493.711	1610.31
493.919	1613.22
494.127	1594.81
494.334	1604.11
494.542	1534.75
494.75	1570.01
494.958	1581.64
495.166	1673.28
495.374	1632.21
495.581	1658.36
495.789	1658.94
495.997	1685.88
496.205	1602.37
496.412	1599.08
496.62	1637.63
496.828	1650.42
497.035	1654.29
497.243	1642.67
497.451	1661.85
497.658	1663.01
497.866	1651.19
498.074	1725.98
498.281	1626.59
498.489	1748.26
498.696	1644.99
498.904	1601.21
499.112	1610.31
499.319	1707.77
499.527	1635.69
499.734	1690.14
499.942	1604.89
500.149	1645.77
500.357	1684.13
500.564	1624.65
500.771	1653.71
500.979	1589
501.186	1591.71
501.394	1644.99
501.601	1601.01
501.808	1605.08
502.016	1646.74
502.223	1577.76
502.43	1597.72
502.638	1580.86
502.845	1581.45
503.052	1739.74
503.26	1658.56
503.467	1738.96
503.674	1678.32
503.881	1703.51
504.089	1759.69
504.296	1713.97
504.503	1655.26
504.71	1644.22
504.917	1623.49
505.125	1673.67
505.332	1675.8
505.539	1699.05
505.746	1789.53
505.953	1753.3
506.16	1726.37
506.367	1814.52
506.574	1853.27
506.781	1826.34
506.988	1751.94
507.195	1772.09
507.402	1737.02
507.609	1823.82
507.816	1733.54
508.023	1749.04
508.23	1714.16
508.437	1693.04
508.644	1769.57
508.851	1777.52
509.058	1803.29
509.265	1775.19
509.472	1818.4
509.679	1895.12
509.885	1792.82
510.092	1801.15
510.299	1816.27
510.506	1792.24
510.713	1797.09
510.92	1806.39
511.126	1800.77
511.333	1826.34
511.54	1870.32
511.746	1878.85
511.953	1878.85
512.16	1885.44
512.367	1848.24
512.573	1836.8
512.78	1897.64
512.987	1828.09
513.193	1793.41
513.4	1734.7
513.606	1804.84
513.813	1818.01
514.02	1805.61
514.226	1874
514.433	1848.24
514.639	1780.04
514.846	1831.57
515.052	1782.75
515.259	1804.45
515.465	1791.27
515.672	1819.75
515.878	1923.41
516.085	1879.04
516.291	1876.91
516.497	1844.36
516.704	1833.7
516.91	1738.77
517.117	1704.09
517.323	1608.38
517.529	1666.31
517.736	1619.42
517.942	1638.99
518.148	1683.74
518.354	1735.86
518.561	1713.58
518.767	1730.82
518.973	1756.59
519.179	1806.19
519.386	1742.84
519.592	1763.96
519.798	1749.62
520.004	1869.74
520.21	1826.92
520.417	1884.47
520.623	1921.86
520.829	1924.18
521.035	1961.58
521.241	1901.52
521.447	1979.6
521.653	2053.41
521.859	1935.03
522.065	1987.54
522.271	2048.96
522.477	2021.64
522.683	2104.56
522.889	2018.73
523.095	2013.31
523.301	1970.68
523.507	1948.6
523.713	1992.58
523.919	1959.64
524.125	2048.76
524.331	2013.89
524.537	2124.13
524.742	2117.54
524.948	2134.79
525.154	2117.93
525.36	2228.56
525.566	2108.05
525.772	2187.29
525.977	2065.43
526.183	2110.38
526.389	2174.89
526.595	2073.37
526.8	2097.78
527.006	2053.22
527.212	1946.85
527.417	1955.77
527.623	1905.58
527.829	2003.23
528.034	2056.9
528.24	2030.75
528.446	2097.01
528.651	2153.97
528.857	2182.06
529.062	2216.74
529.268	2191.94
529.473	2223.91
529.679	2237.86
529.884	2294.63
530.09	2287.85
530.295	2251.81
530.501	2260.72
530.706	2242.9
530.912	2273.12
531.117	2274.09
531.323	2300.05
531.528	2351.4
531.733	2349.27
531.939	2278.35
532.144	2336.28
532.35	2303.93
532.555	2356.05
532.76	2291.72
532.966	2327.37
533.171	2283.78
533.376	2224.88
533.581	2177.02
533.787	2250.26
533.992	2269.25
534.197	2334.93
534.402	2311.49
534.607	2296.37
534.813	2374.26
535.018	2319.82
535.223	2301.8
535.428	2376.58
535.633	2415.53
535.838	2369.8
536.043	2387.05
536.249	2477.33
536.454	2410.3
536.659	2428.9
536.864	2352.95
537.069	2332.99
537.274	2377.36
537.479	2363.6
537.684	2350.82
537.889	2308.19
538.094	2431.61
538.299	2385.3
538.504	2391.5
538.708	2407.39
538.913	2428.12
539.118	2363.41
539.323	2417.46
539.528	2362.05
539.733	2360.7
539.938	2414.95
540.142	2388.21
540.347	2400.42
540.552	2320.4
540.757	2339.97
540.962	2360.5
541.166	2264.21
541.371	2242.12
541.576	2345
541.781	2231.27
541.985	2396.93
542.19	2384.33
542.395	2470.55
542.599	2488.76
542.804	2404.48
543.008	2482.76
543.213	2400.8
543.418	2374.84
543.622	2422.89
543.827	2365.73
544.031	2473.26
544.236	2439.36
544.44	2401.97
544.645	2541.08
544.849	2417.46
545.054	2472.3
545.258	2533.71
545.463	2536.62
545.667	2416.88
545.872	2512.01
546.076	2450.98
546.281	2480.82
546.485	2424.83
546.689	2501.16
546.894	2495.74
547.098	2504.46
547.302	2456.02
547.507	2482.95
547.711	2488.18
547.915	2512.79
548.119	2435.29
548.324	2423.28
548.528	2528.48
548.732	2473.26
548.936	2521.7
549.141	2501.74
549.345	2444.2
549.549	2486.44
549.753	2535.46
549.957	2565.49
550.161	2591.26
550.366	2532.74
550.57	2481.98
550.774	2495.16
550.978	2492.45
551.182	2570.14
551.386	2467.84
551.59	2468.61
551.794	2460.48
551.998	2505.62
552.202	2485.08
552.406	2489.93
552.61	2511.82
552.814	2510.46
553.018	2533.71
553.222	2499.81
553.426	2475.78
553.63	2569.94
553.833	2475.4
554.037	2428.51
554.241	2522.28
554.445	2489.35
554.649	2525.19
554.853	2453.31
555.056	2527.13
555.26	2546.69
555.464	2475.4
555.668	2549.21
555.871	2525.96
556.075	2531
556.279	2520.34
556.483	2453.5
556.686	2496.9
556.89	2495.55
557.094	2524.22
557.297	2371.35
557.501	2461.45
557.704	2375.03
557.908	2466.29
558.112	2407.39
558.315	2495.55
558.519	2438.58
558.722	2418.05
558.926	2409.52
559.129	2341.13
559.333	2347.91
559.536	2326.4
559.74	2316.33
559.943	2313.81
560.147	2294.82
560.35	2307.42
560.553	2310.13
560.757	2290.75
560.96	2379.3
561.164	2330.47
561.367	2403.32
561.57	2355.85
561.774	2378.91
561.977	2306.84
562.18	2274.67
562.384	2383.95
562.587	2317.88
562.79	2294.44
562.993	2278.35
563.197	2327.18
563.4	2347.52
563.603	2365.93
563.806	2427.35
564.009	2298.12
564.212	2342.1
564.416	2223.91
564.619	2300.05
564.822	2248.32
565.025	2345.39
565.228	2252
565.431	2304.7
565.634	2192.72
565.837	2237.28
566.04	2214.81
566.243	2212.67
566.446	2085.58
566.649	2232.63
566.852	2142.54
567.055	2202.79
567.258	2228.56
567.461	2306.64
567.664	2278.94
567.867	2177.8
568.07	2221.59
568.273	2228.76
568.475	2272.93
568.678	2169.47
568.881	2205.31
569.084	2206.47
569.287	2080.54
569.489	2107.47
569.692	2202.99
569.895	2185.74
570.098	2107.28
570.3	2090.61
570.503	2053.8
570.706	2064.07
570.909	2104.37
571.111	2036.36
571.314	2004.59
571.516	2071.04
571.719	2066.78
571.922	2041.98
572.124	2026.48
572.327	2086.35
572.529	2003.23
572.732	2031.52
572.935	2064.84
573.137	2152.03
573.34	2071.04
573.542	2114.83
573.745	2111.34
573.947	2086.54
574.15	2042.95
574.352	2029.58
574.554	2102.82
574.757	2053.03
574.959	2013.7
575.162	2016.41
575.364	1977.66
575.566	2105.34
575.769	1957.12
575.971	2015.83
576.173	1893.18
576.376	1992
576.578	2000.33
576.78	2035.01
576.982	1913.14
577.185	1939.1
577.387	1961.38
577.589	1976.69
577.791	1956.15
577.993	1962.35
578.196	1906.17
578.398	1992.19
578.6	1979.6
578.802	1888.73
579.004	1867.03
579.206	1896.09
579.408	1973.2
579.61	1876.33
579.812	1965.65
580.014	1912.56
580.216	1892.22
580.418	1923.8
580.62	1880.79
580.822	1843.39
581.024	1896.48
581.226	1964.68
581.428	1880.79
581.63	1983.66
581.832	1875.55
582.034	1963.52
582.236	1908.49
582.438	1958.28
582.64	2022.8
582.841	2006.91
583.043	2051.67
583.245	1953.44
583.447	1956.93
583.649	1931.93
583.85	1913.92
584.052	1938.72
584.254	1904.81
584.456	1973.78
584.657	1884.47
584.859	1954.22
585.061	1909.27
585.262	1899.19
585.464	1874.2
585.666	1948.6
585.867	1892.02
586.069	1939.49
586.27	1886.4
586.472	1886.6
586.674	1827.12
586.875	1852.5
587.077	1822.08
587.278	1878.65
587.48	1860.05
587.681	1984.05
587.883	1902.68
588.084	1817.04
588.285	1887.18
588.487	1844.94
588.688	1870.9
588.89	1763.37
589.091	1781.78
589.292	1768.8
589.494	1733.54
589.695	1680.64
589.896	1603.73
590.098	1621.94
590.299	1676.96
590.5	1634.34
590.702	1668.05
590.903	1744.97
591.104	1750.78
591.305	1765.31
591.507	1772.67
591.708	1775.19
591.909	1762.99
592.11	1801.15
592.311	1806.97
592.512	1771.32
592.714	1717.46
592.915	1760.08
593.116	1754.66
593.317	1763.76
593.518	1761.63
593.719	1751.36
593.92	1813.55
594.121	1798.06
594.322	1777.13
594.523	1765.89
594.724	1708.74
594.925	1738.77
595.126	1754.66
595.327	1766.47
595.528	1756.4
595.729	1759.69
595.929	1749.04
596.13	1776.36
596.331	1786.82
596.532	1764.54
596.733	1843.78
596.934	1816.46
597.135	1841.07
597.335	1816.27
597.536	1751.94
597.737	1773.45
597.938	1746.91
598.138	1787.4
598.339	1746.71
598.54	1789.53
598.74	1778.1
598.941	1744.97
599.142	1802.51
599.342	1733.34
599.543	1745.74
599.744	1751.56
599.944	1716.87
600.145	1741.87
600.345	1726.76
600.546	1778.1
600.746	1812.78
600.947	1849.2
601.147	1755.04
601.348	1766.86
601.548	1698.28
601.749	1771.32
601.949	1684.33
602.15	1721.14
602.35	1717.46
602.551	1730.44
602.751	1678.32
602.951	1650.42
603.152	1635.69
603.352	1726.17
603.552	1697.5
603.753	1710.68
603.953	1716.29
604.153	1740.51
604.354	1707.96
604.554	1675.99
604.754	1706.61
604.954	1699.63
605.155	1729.47
605.355	1735.67
605.555	1762.6
605.755	1767.25
605.955	1721.52
606.155	1721.33
606.356	1706.22
606.556	1741.48
606.756	1733.34
606.956	1647.32
607.156	1759.89
607.356	1669.79
607.556	1702.15
607.756	1697.11
607.956	1744.77
608.156	1678.9
608.356	1662.63
608.556	1717.46
608.756	1670.96
608.956	1636.08
609.156	1692.46
609.356	1637.05
609.556	1648.48
609.755	1668.63
609.955	1656.04
610.155	1621.94
610.355	1639.76
610.555	1641.7
610.755	1585.51
610.954	1581.25
611.154	1643.06
611.354	1686.46
611.554	1606.83
611.753	1589.58
611.953	1567.3
612.153	1673.67
612.352	1663.79
612.552	1572.53
612.752	1546.18
612.951	1604.89
613.151	1584.35
613.351	1583.19
613.55	1606.44
613.75	1617.29
613.949	1561.3
614.149	1573.5
614.348	1579.12
