Data from gum_old_FLMT105791__39__15-43-01-258.txt Node

Date: Mon Mar 20 15:43:01 GMT 2023
User: antho
Spectrometer: FLMT10579
Trigger mode: 0
Integration Time (sec): 1.000000E-1
Scans to average: 10
Electric dark correction enabled: true
Nonlinearity correction enabled: false
Boxcar width: 0
XAxis mode: Wavelengths
Number of Pixels in Spectrum: 3648
>>>>>Begin Spectral Data<<<<<
345.248	-155.08
345.464	-155.08
345.681	-155.08
345.898	-181.23
346.114	-154.5
346.331	-52.97
346.548	21.04
346.764	3.79
346.981	-16.94
347.197	-15
347.414	15.03
347.631	-11.71
347.847	48.74
348.064	22.2
348.28	57.66
348.497	-48.91
348.713	-22.94
348.93	48.55
349.146	16.19
349.363	18.13
349.579	34.41
349.796	9.22
350.012	22.01
350.229	65.21
350.445	24.14
350.661	-27.59
350.878	40.99
351.094	47.19
351.311	55.91
351.527	58.04
351.743	21.43
351.96	43.9
352.176	77.22
352.392	34.02
352.609	52.62
352.825	9.22
353.041	37.7
353.257	23.75
353.474	19.29
353.69	50.68
353.906	34.6
354.122	19.88
354.339	106.48
354.555	29.56
354.771	26.08
354.987	76.64
355.203	79.36
355.42	26.85
355.636	33.24
355.852	50.29
356.068	61.53
356.284	16.39
356.5	89.82
356.716	51.26
356.932	27.43
357.148	90.21
357.364	27.43
357.58	80.13
357.796	78.19
358.012	90.21
358.228	64.82
358.444	-19.46
358.66	69.09
358.876	74.71
359.092	36.54
359.308	35.76
359.524	46.22
359.74	51.26
359.956	35.96
360.172	64.05
360.388	95.44
360.604	52.42
360.819	132.05
361.035	87.11
361.251	78.77
361.467	29.37
361.683	68.51
361.898	56.69
362.114	94.08
362.33	53.59
362.546	93.5
362.762	71.41
362.977	72.38
363.193	46.61
363.409	107.26
363.624	47.58
363.84	56.11
364.056	18.33
364.271	91.76
364.487	74.12
364.703	44.09
364.918	32.66
365.134	61.34
365.35	35.57
365.565	175.07
365.781	79.36
365.996	96.21
366.212	166.74
366.427	88.85
366.643	80.71
366.858	86.14
367.074	46.81
367.289	125.27
367.505	167.32
367.72	66.18
367.936	92.34
368.151	125.08
368.367	107.06
368.582	113.46
368.798	81.68
369.013	117.91
369.228	90.98
369.444	108.03
369.659	138.64
369.874	95.05
370.09	127.6
370.305	42.93
370.52	98.73
370.736	142.13
370.951	106.87
371.166	131.28
371.381	157.44
371.597	127.21
371.812	64.63
372.027	105.9
372.242	95.24
372.458	170.61
372.673	80.71
372.888	84.97
373.103	119.66
373.318	181.65
373.533	135.35
373.749	127.21
373.964	33.83
374.179	131.86
374.394	65.02
374.609	148.33
374.824	42.16
375.039	143.87
375.254	87.88
375.469	146
375.684	91.17
375.899	151.62
376.114	125.47
376.329	121.21
376.544	143.1
376.759	132.64
376.974	89.82
377.189	114.62
377.404	113.26
377.619	151.04
377.834	92.92
378.049	94.47
378.264	84.2
378.478	146.78
378.693	124.69
378.908	162.47
379.123	135.54
379.338	189.79
379.553	162.67
379.767	151.82
379.982	157.05
380.197	152.4
380.412	127.99
380.626	141.74
380.841	220.98
381.056	162.28
381.271	203.16
381.485	107.64
381.7	112.49
381.915	150.65
382.129	124.89
382.344	117.52
382.559	106.67
382.773	162.28
382.988	57.66
383.202	133.02
383.417	71.41
383.632	214.78
383.846	94.66
384.061	122.17
384.275	94.47
384.49	120.24
384.704	132.44
384.919	139.8
385.133	127.02
385.348	174.68
385.562	123.34
385.777	199.87
385.991	139.42
386.206	142.52
386.42	132.44
386.634	178.94
386.849	156.85
387.063	188.05
387.277	136.7
387.492	134.77
387.706	132.83
387.92	126.82
388.135	194.44
388.349	159.18
388.563	169.45
388.778	174.49
388.992	154.53
389.206	188.82
389.42	215.75
389.635	158.99
389.849	210.33
390.063	236.87
390.277	247.92
390.491	279.5
390.706	245.01
390.92	240.17
391.134	222.15
391.348	251.21
391.562	169.45
391.776	247.92
391.99	214.4
392.205	262.06
392.419	213.82
392.633	225.83
392.847	234.16
393.061	152.79
393.275	209.75
393.489	135.54
393.703	149.3
393.917	144.65
394.131	104.93
394.345	174.29
394.559	199.48
394.773	173.13
394.986	238.23
395.2	232.42
395.414	260.51
395.628	205.1
395.842	258.18
396.056	245.78
396.27	211.49
396.484	241.33
396.697	232.61
396.911	225.25
397.125	196.96
397.339	180.88
397.553	181.46
397.766	256.44
397.98	263.42
398.194	306.81
398.408	263.22
398.621	322.12
398.835	323.67
399.049	345.56
399.262	355.64
399.476	386.44
399.69	379.47
399.903	422.48
400.117	344.4
400.331	381.6
400.544	340.14
400.758	492.62
400.971	368.81
401.185	419.19
401.398	348.08
401.612	450.19
401.826	430.43
402.039	446.7
402.253	394.97
402.466	449.41
402.68	400.39
402.893	464.14
403.106	423.06
403.32	392.06
403.533	445.93
403.747	427.33
403.96	412.6
404.174	442.63
404.387	389.35
404.6	436.63
404.814	464.14
405.027	433.91
405.24	421.9
405.454	419.58
405.667	484.87
405.88	387.61
406.094	433.72
406.307	466.66
406.52	461.62
406.733	382.38
406.947	373.46
407.16	477.51
407.373	466.46
407.586	442.05
407.799	409.31
408.012	508.7
408.226	482.93
408.439	508.89
408.652	436.04
408.865	485.45
409.078	531.76
409.291	509.67
409.504	450.96
409.717	522.84
409.93	522.07
410.143	506.57
410.357	420.35
410.57	396.33
410.783	421.13
410.996	486.42
411.209	493.01
411.421	563.34
411.634	533.11
411.847	508.51
412.06	535.63
412.273	541.06
412.486	535.63
412.699	602.67
412.912	534.66
413.125	561.2
413.338	535.05
413.55	561.4
413.763	549.97
413.976	534.47
414.189	529.82
414.402	529.04
414.615	624.75
414.827	576.9
415.04	588.52
415.253	591.24
415.466	596.27
415.678	626.11
415.891	570.7
416.104	554.23
416.316	543.96
416.529	558.49
416.742	618.75
416.954	658.27
417.167	600.73
417.38	582.9
417.592	612.55
417.805	537.57
418.017	529.62
418.23	603.05
418.442	528.27
418.655	557.14
418.868	579.61
419.08	596.85
419.293	624.37
419.505	624.95
419.718	630.37
419.93	638.12
420.142	579.03
420.355	630.18
420.567	635.6
420.78	601.31
420.992	572.44
421.205	645.87
421.417	592.4
421.629	628.24
421.842	577.87
422.054	589.3
422.266	674.74
422.479	649.17
422.691	594.72
422.903	616.04
423.115	585.23
423.328	572.44
423.54	597.05
423.752	594.53
423.964	635.02
424.177	621.27
424.389	640.06
424.601	731.9
424.813	660.6
425.025	677.26
425.238	676.1
425.45	634.25
425.662	614.29
425.874	939.59
426.086	659.24
426.298	663.12
426.51	648.58
426.722	652.27
426.934	645.29
427.146	670.87
427.358	641.8
427.57	680.75
427.782	635.99
427.994	602.86
428.206	587.55
428.418	629.02
428.63	700.51
428.842	716.01
429.054	668.35
429.266	684.43
429.478	623.01
429.69	636.38
429.902	594.14
430.114	626.3
430.325	599.37
430.537	557.72
430.749	519.94
430.961	479.44
431.173	484.09
431.384	554.23
431.596	478.67
431.808	578.84
432.02	641.8
432.231	716.01
432.443	778.59
432.655	755.53
432.867	710.2
433.078	771.61
433.29	785.18
433.502	772.2
433.713	805.91
433.925	808.23
434.136	805.71
434.348	694.31
434.56	669.7
434.771	809.4
434.983	659.05
435.194	764.64
435.406	749.72
435.617	831.48
435.829	872.36
436.04	840.39
436.252	822.38
436.463	888.44
436.675	867.71
436.886	869.84
437.098	869.84
437.309	936.11
437.521	875.46
437.732	857.25
437.943	837.68
438.155	832.45
438.366	784.6
438.578	886.89
438.789	808.23
439	804.16
439.211	772.97
439.423	802.03
439.634	846.01
439.845	874.3
440.057	877.01
440.268	914.99
440.479	878.56
440.69	895.23
440.902	869.84
441.113	846.59
441.324	871.01
441.535	957.81
441.746	983.19
441.957	922.54
442.168	936.88
442.38	983.77
442.591	1005.66
442.802	947.54
443.013	958.19
443.224	1000.62
443.435	999.65
443.646	968.66
443.857	958.77
444.068	943.66
444.279	983.19
444.49	1077.54
444.701	996.94
444.912	1145.55
445.123	1076.96
445.334	1025.04
445.545	1038.79
445.756	986.87
445.967	946.57
446.178	997.91
446.388	1005.85
446.599	987.84
446.81	982.41
447.021	975.63
447.232	1046.93
447.443	1073.28
447.653	1062.62
447.864	1118.03
448.075	1103.12
448.286	1063.01
448.496	1097.88
448.707	1132.57
448.918	1062.04
449.129	1126.37
449.339	1041.89
449.55	1105.25
449.761	1055.84
449.971	1107.77
450.182	1103.89
450.393	1132.95
450.603	1080.25
450.814	1146.9
451.024	1134.7
451.235	1237.19
451.446	1255.6
451.656	1230.8
451.867	1175.19
452.077	1198.83
452.288	1211.23
452.498	1217.04
452.709	1162.6
452.919	1161.05
453.13	1099.43
453.34	1129.66
453.55	1047.32
453.761	1090.33
453.971	1108.35
454.182	1139.93
454.392	1131.21
454.602	1228.08
454.813	1206.96
455.023	1168.8
455.233	1113.77
455.444	1149.03
455.654	1074.44
455.864	1144
456.075	1138.38
456.285	1103.7
456.495	1155.23
456.705	1200.38
456.916	1197.66
457.126	1236.61
457.336	1206.19
457.546	1135.28
457.756	1150.78
457.967	1233.9
458.177	1183.33
458.387	1180.23
458.597	1121.52
458.807	1159.11
459.017	1135.67
459.227	1136.25
459.437	1159.11
459.647	1197.47
459.857	1221.5
460.068	1194.56
460.278	1275.94
460.488	1198.63
460.698	1219.36
460.908	1186.43
461.117	1199.8
461.327	1178.48
461.537	1231.38
461.747	1267.22
461.957	1274.19
462.167	1402.46
462.377	1312.75
462.587	1256.18
462.797	1319.14
463.007	1271.48
463.216	1292.02
463.426	1354.6
463.636	1290.86
463.846	1233.51
464.056	1231.57
464.265	1275.94
464.475	1188.56
464.685	1277.49
464.895	1286.79
465.104	1230.41
465.314	1284.27
465.524	1254.43
465.733	1239.71
465.943	1356.54
466.153	1358.67
466.362	1348.21
466.572	1342.01
466.782	1309.26
466.991	1306.55
467.201	1365.45
467.41	1234.28
467.62	1299.19
467.829	1329.8
468.039	1354.21
468.249	1354.02
468.458	1346.27
468.668	1401.1
468.877	1376.69
469.086	1419.89
469.296	1408.85
469.505	1395.09
469.715	1452.44
469.924	1399.55
470.134	1419.7
470.343	1395.48
470.552	1394.12
470.762	1362.16
470.971	1362.93
471.18	1400.71
471.39	1416.99
471.599	1365.06
471.808	1432.1
472.018	1452.64
472.227	1515.99
472.436	1569.08
472.645	1522.38
472.855	1481.31
473.064	1604.15
473.273	1582.25
473.482	1560.75
473.691	1592.72
473.901	1569.47
474.11	1527.03
474.319	1649.29
474.528	1569.08
474.737	1688.23
474.946	1666.34
475.155	1652.39
475.364	1722.33
475.573	1654.71
475.783	1698.5
475.992	1688.62
476.201	1721.17
476.41	1683.78
476.619	1617.13
476.828	1654.91
477.037	1649.1
477.245	1639.99
477.454	1726.21
477.663	1699.47
477.872	1755.66
478.081	1832.19
478.29	1750.62
478.499	1847.69
478.708	1850.01
478.917	1886.05
479.125	1792.27
479.334	1814.75
479.543	1811.26
479.752	1860.09
479.961	1829.47
480.169	1947.66
480.378	1914.34
480.587	2061.58
480.796	1940.49
481.004	1922.86
481.213	1960.64
481.422	1958.9
481.63	1989.32
481.839	1997.65
482.048	2101.88
482.256	1996.48
482.465	2083.09
482.674	2088.51
482.882	2100.33
483.091	2120.29
483.299	2064.3
483.508	2114.86
483.716	2083.28
483.925	2117.77
484.134	2054.22
484.342	2103.82
484.551	2145.28
484.759	2078.63
484.967	2178.61
485.176	2186.36
485.384	2140.05
485.593	2145.67
485.801	2119.51
486.01	2016.05
486.218	1992.8
486.426	1841.68
486.635	1848.07
486.843	1808.74
487.051	1871.52
487.26	1835.48
487.468	1962.38
487.676	2026.32
487.885	2021.48
488.093	2082.7
488.301	2168.34
488.509	2181.32
488.717	2245.06
488.926	2235.96
489.134	2201.08
489.342	2187.52
489.55	2146.06
489.758	2214.64
489.967	2232.66
490.175	2378.55
490.383	2358.6
490.591	2421.57
490.799	2315.59
491.007	2385.53
491.215	2390.37
491.423	2352.2
491.631	2342.9
491.839	2359.76
492.047	2316.36
492.255	2254.75
492.463	2242.93
492.671	2251.26
492.879	2318.69
493.087	2308.61
493.295	2377
493.503	2375.26
493.711	2479.3
493.919	2468.65
494.127	2490.15
494.334	2448.3
494.542	2417.88
494.75	2458.38
494.958	2431.45
495.166	2615.89
495.374	2553.12
495.581	2569.4
495.789	2562.81
495.997	2619.38
496.205	2494.8
496.412	2490.54
496.62	2536.46
496.828	2548.86
497.035	2556.22
497.243	2618.41
497.451	2585.86
497.658	2596.52
497.866	2590.71
498.074	2647.86
498.281	2554.67
498.489	2648.06
498.696	2526
498.904	2502.94
499.112	2489.38
499.319	2626.55
499.527	2602.33
499.734	2652.9
499.942	2560.48
500.149	2591.68
500.357	2619.58
500.564	2541.3
500.771	2559.32
500.979	2498.48
501.186	2487.44
501.394	2547.31
501.601	2500.42
501.808	2466.32
502.016	2468.65
502.223	2468.84
502.43	2527.55
502.638	2525.8
502.845	2519.6
503.052	2633.91
503.26	2566.3
503.467	2612.41
503.674	2624.03
503.881	2661.62
504.089	2685.64
504.296	2647.09
504.503	2522.12
504.71	2534.13
504.917	2587.8
505.125	2574.43
505.332	2653.48
505.539	2633.72
505.746	2735.82
505.953	2731.17
506.16	2723.42
506.367	2799.95
506.574	2829.6
506.781	2804.22
506.988	2738.92
507.195	2763.53
507.402	2690.1
507.609	2759.27
507.816	2679.06
508.023	2692.62
508.23	2646.12
508.437	2601.36
508.644	2674.99
508.851	2749.19
509.058	2706.76
509.265	2745.9
509.472	2773.41
509.679	2849.75
509.885	2804.02
510.092	2780.97
510.299	2815.07
510.506	2732.53
510.713	2738.73
510.92	2738.73
511.126	2780.39
511.333	2813.52
511.54	2825.92
511.746	2825.53
511.953	2910
512.16	2954.95
512.367	2855.56
512.573	2849.55
512.78	2826.89
512.987	2817
513.193	2767.4
513.4	2692.04
513.606	2791.62
513.813	2814.87
514.02	2796.85
514.226	2795.89
514.433	2845.1
514.639	2699.98
514.846	2764.69
515.052	2721.68
515.259	2817.2
515.465	2792.4
515.672	2814.68
515.878	2904
516.085	2813.32
516.291	2893.34
516.497	2835.02
516.704	2772.25
516.91	2710.83
517.117	2602.91
517.323	2538.78
517.529	2549.25
517.736	2494.8
517.942	2548.28
518.148	2553.51
518.354	2621.32
518.561	2670.92
518.767	2623.06
518.973	2675.76
519.179	2718
519.386	2677.89
519.592	2703.86
519.798	2692.62
520.004	2835.6
520.21	2833.08
520.417	2924.15
520.623	2918.33
520.829	2929.18
521.035	2931.12
521.241	2943.52
521.447	2947.78
521.653	3073.72
521.859	2959.6
522.065	3022.96
522.271	3102.39
522.477	3068.1
522.683	3152.38
522.889	3009.98
523.095	3013.85
523.301	3003
523.507	2971.61
523.713	3006.88
523.919	2937.13
524.125	3083.6
524.331	3083.99
524.537	3176.79
524.742	3192.87
524.948	3155.67
525.154	3199.07
525.36	3277.54
525.566	3180.67
525.772	3210.89
525.977	3141.53
526.183	3181.06
526.389	3259.14
526.595	3103.56
526.8	3106.27
527.006	2993.51
527.212	2894.7
527.417	2887.53
527.623	2876.48
527.829	2964.64
528.034	3006.3
528.24	3081.86
528.446	3077.59
528.651	3196.55
528.857	3181.44
529.062	3256.04
529.268	3267.08
529.473	3275.6
529.679	3318.03
529.884	3419.17
530.09	3335.08
530.295	3302.92
530.501	3269.79
530.706	3356.2
530.912	3251.77
531.117	3313.58
531.323	3315.9
531.528	3399.41
531.733	3382.16
531.939	3328.5
532.144	3389.91
532.35	3428.08
532.555	3412.2
532.76	3345.35
532.966	3304.08
533.171	3251.97
533.376	3172.92
533.581	3195.97
533.787	3258.17
533.992	3359.69
534.197	3287.62
534.402	3325.01
534.607	3345.16
534.813	3431.38
535.018	3309.9
535.223	3380.81
535.428	3360.08
535.633	3394.56
535.838	3476.71
536.043	3478.26
536.249	3559.25
536.454	3413.75
536.659	3541.62
536.864	3508.68
537.069	3442.23
537.274	3453.08
537.479	3418.2
537.684	3433.12
537.889	3343.8
538.094	3554.99
538.299	3450.36
538.504	3443.78
538.708	3471.87
538.913	3504.42
539.118	3484.66
539.323	3483.69
539.528	3434.86
539.733	3401.15
539.938	3479.43
540.142	3459.08
540.347	3368.02
540.552	3354.27
540.757	3396.5
540.962	3337.02
541.166	3275.8
541.371	3272.31
541.576	3371.9
541.781	3261.85
541.985	3469.54
542.19	3405.22
542.395	3529.8
542.599	3552.66
542.804	3462.57
543.008	3525.15
543.213	3473.81
543.418	3409.1
543.622	3498.22
543.827	3443.58
544.031	3485.82
544.236	3619.89
544.44	3518.18
544.645	3585.79
544.849	3534.64
545.054	3566.61
545.258	3650.89
545.463	3618.92
545.667	3521.08
545.872	3573.39
546.076	3562.35
546.281	3552.66
546.485	3527.09
546.689	3560.02
546.894	3530.38
547.098	3519.14
547.302	3501.51
547.507	3523.21
547.711	3574.17
547.915	3555.76
548.119	3440.48
548.324	3434.86
548.528	3562.74
548.732	3470.13
548.936	3507.91
549.141	3532.9
549.345	3511.98
549.549	3490.66
549.753	3537.94
549.957	3629.97
550.161	3602.46
550.366	3554.21
550.57	3501.13
550.774	3512.17
550.978	3553.24
551.182	3531.74
551.386	3450.94
551.59	3507.91
551.794	3461.6
551.998	3563.32
552.202	3559.25
552.406	3515.85
552.61	3568.74
552.814	3561.77
553.018	3570.49
553.222	3463.34
553.426	3485.82
553.63	3576.69
553.833	3520.5
554.037	3423.43
554.241	3506.55
554.445	3512.17
554.649	3460.24
554.853	3495.7
555.056	3516.43
555.26	3610.4
555.464	3527.28
555.668	3572.04
555.871	3545.69
556.075	3570.87
556.279	3520.11
556.483	3445.33
556.686	3504.03
556.89	3488.34
557.094	3495.7
557.297	3398.25
557.501	3477.1
557.704	3348.07
557.908	3446.1
558.112	3402.7
558.315	3511.39
558.519	3402.31
558.722	3372.86
558.926	3393.98
559.129	3261.27
559.333	3309.32
559.536	3314.35
559.74	3238.21
559.943	3220
560.147	3295.56
560.35	3304.67
560.553	3304.47
560.757	3271.73
560.96	3334.12
561.164	3305.63
561.367	3455.01
561.57	3352.72
561.774	3361.63
561.977	3325.98
562.18	3280.25
562.384	3443.58
562.587	3326.37
562.79	3333.15
562.993	3317.45
563.197	3324.04
563.4	3397.66
563.603	3379.84
563.806	3408.13
564.009	3318.42
564.212	3351.75
564.416	3240.15
564.619	3313
564.822	3189
565.025	3327.14
565.228	3273.08
565.431	3333.73
565.634	3190.35
565.837	3239.57
566.04	3208.57
566.243	3180.86
566.446	3083.41
566.649	3196.94
566.852	3095.61
567.055	3117.51
567.258	3178.15
567.461	3257.97
567.664	3197.33
567.867	3119.25
568.07	3133.01
568.273	3202.37
568.475	3234.72
568.678	3125.84
568.881	3116.15
569.084	3128.74
569.287	2990.41
569.489	3093.68
569.692	3071.39
569.895	3119.64
570.098	3053.18
570.3	3048.73
570.503	3006.3
570.706	2961.15
570.909	2988.47
571.111	2943.52
571.314	2906.71
571.516	2919.5
571.719	2935.19
571.922	2920.27
572.124	2909.03
572.327	2934.22
572.529	2950.69
572.732	2969.48
572.935	2993.51
573.137	3096.39
573.34	2990.6
573.542	3052.6
573.745	3037.88
573.947	2981.11
574.15	3004.75
574.352	3004.55
574.554	3067.71
574.757	2965.8
574.959	2938.29
575.162	2982.08
575.364	2922.01
575.566	2991.57
575.769	2860.4
575.971	2912.52
576.173	2756.55
576.376	2887.33
576.578	2956.31
576.78	2962.31
576.982	2799.18
577.185	2890.43
577.387	2823.4
577.589	2846.26
577.791	2885.98
577.993	2910.78
578.196	2880.36
578.398	2863.12
578.6	2874.35
578.802	2773.02
579.004	2753.84
579.206	2779.03
579.408	2845.1
579.61	2754.81
579.812	2884.62
580.014	2789.88
580.216	2774.19
580.418	2832.12
580.62	2829.79
580.822	2787.17
581.024	2869.9
581.226	2863.7
581.428	2781.74
581.63	2852.07
581.832	2827.47
582.034	2853.82
582.236	2825.92
582.438	2908.84
582.64	2898.96
582.841	2889.27
583.043	2926.86
583.245	2822.24
583.447	2860.21
583.649	2820.3
583.85	2838.12
584.052	2895.67
584.254	2764.3
584.456	2866.6
584.657	2768.76
584.859	2820.88
585.061	2773.41
585.262	2805.38
585.464	2760.82
585.666	2827.08
585.867	2714.51
586.069	2823.01
586.27	2753.45
586.472	2734.27
586.674	2711.99
586.875	2731.95
587.077	2726.72
587.278	2742.99
587.48	2736.41
587.681	2845.48
587.883	2762.17
588.084	2672.66
588.285	2723.42
588.487	2672.08
588.688	2722.46
588.89	2571.72
589.091	2590.71
589.292	2525.41
589.494	2482.98
589.695	2418.66
589.896	2327.4
590.098	2376.42
590.299	2467.87
590.5	2417.88
590.702	2449.85
590.903	2488.99
591.104	2592.26
591.305	2577.53
591.507	2624.42
591.708	2638.18
591.909	2584.51
592.11	2692.23
592.311	2607.76
592.512	2572.88
592.714	2549.44
592.915	2575.98
593.116	2567.46
593.317	2598.84
593.518	2572.69
593.719	2623.64
593.92	2649.41
594.121	2659.87
594.322	2560.68
594.523	2616.09
594.724	2559.9
594.925	2569.78
595.126	2593.03
595.327	2575.59
595.528	2549.44
595.729	2579.86
595.929	2565.91
596.13	2564.75
596.331	2626.16
596.532	2616.09
596.733	2687.97
596.934	2652.9
597.135	2610.08
597.335	2622.29
597.536	2600.98
597.737	2608.92
597.938	2564.36
598.138	2587.03
598.339	2570.56
598.54	2582.76
598.74	2575.59
598.941	2559.51
599.142	2626.55
599.342	2589.54
599.543	2535.3
599.744	2539.56
599.944	2548.47
600.145	2550.99
600.345	2600.98
600.546	2602.72
600.746	2625.58
600.947	2667.04
601.147	2530.45
601.348	2630.81
601.548	2515.53
601.749	2548.47
601.949	2488.6
602.15	2513.01
602.35	2489.96
602.551	2539.36
602.751	2463.8
602.951	2495
603.152	2447.33
603.352	2581.02
603.552	2486.28
603.753	2559.13
603.953	2577.92
604.153	2564.36
604.354	2546.34
604.554	2517.08
604.754	2586.83
604.954	2512.24
605.155	2569.01
605.355	2500.81
605.555	2563.97
605.755	2592.64
605.955	2555.25
606.155	2569.4
606.356	2499.45
606.556	2505.46
606.756	2559.9
606.956	2533.16
607.156	2586.64
607.356	2492.09
607.556	2533.75
607.756	2517.47
607.956	2581.41
608.156	2514.37
608.356	2461.09
608.556	2531.03
608.756	2449.47
608.956	2426.22
609.156	2471.17
609.356	2447.14
609.556	2446.37
609.755	2466.13
609.955	2445.78
610.155	2457.99
610.355	2476.78
610.555	2420.79
610.755	2443.85
610.954	2376.81
611.154	2459.73
611.354	2472.33
611.554	2450.05
611.753	2413.43
611.953	2385.72
612.153	2478.72
612.352	2448.88
