Data from gum_old_FLMT105791__143__15-46-32-252.txt Node

Date: Mon Mar 20 15:46:32 GMT 2023
User: antho
Spectrometer: FLMT10579
Trigger mode: 0
Integration Time (sec): 1.000000E-1
Scans to average: 10
Electric dark correction enabled: true
Nonlinearity correction enabled: false
Boxcar width: 0
XAxis mode: Wavelengths
Number of Pixels in Spectrum: 3648
>>>>>Begin Spectral Data<<<<<
345.248	-170.58
345.464	-170.58
345.681	-170.58
345.898	-216.88
346.114	-180.85
346.331	-25.66
346.548	47.97
346.764	-17.13
346.981	-8.8
347.197	-32.24
347.414	1.86
347.631	-19.84
347.847	60.17
348.064	17.55
348.28	45.26
348.497	-46.77
348.713	-22.36
348.93	37.7
349.146	30.92
349.363	-8.99
349.579	17.36
349.796	28.21
350.012	-9.38
350.229	26.85
350.445	13.68
350.661	-19.07
350.878	-11.51
351.094	7.28
351.311	26.85
351.527	42.35
351.743	-24.3
351.96	25.11
352.176	47.97
352.392	27.63
352.609	33.83
352.825	-14.22
353.041	19.68
353.257	23.17
353.474	23.56
353.69	17.55
353.906	18.33
354.122	-11.9
354.339	67.54
354.555	34.02
354.771	14.26
354.987	63.66
355.203	67.92
355.42	-2.02
355.636	0.69
355.852	-4.54
356.068	38.86
356.284	-22.17
356.5	80.71
356.716	38.47
356.932	33.44
357.148	59.21
357.364	-9.19
357.58	42.74
357.796	57.07
358.012	53.2
358.228	41.19
358.444	-46
358.66	71.02
358.876	39.25
359.092	-22.56
359.308	19.88
359.524	39.25
359.74	-21.78
359.956	-4.15
360.172	47.58
360.388	67.92
360.604	1.86
360.819	100.86
361.035	49.52
361.251	68.51
361.467	-12.09
361.683	65.21
361.898	41.96
362.114	68.12
362.33	34.79
362.546	53.97
362.762	15.42
362.977	37.89
363.193	-20.62
363.409	50.68
363.624	-8.99
363.84	5.54
364.056	-0.08
364.271	47.97
364.487	47.97
364.703	-3.96
364.918	2.83
365.134	46.22
365.35	6.7
365.565	143.49
365.781	50.1
365.996	58.82
366.212	86.52
366.427	52.81
366.643	44.67
366.858	4.18
367.074	-4.54
367.289	87.88
367.505	160.73
367.72	-34.18
367.936	41.19
368.151	67.73
368.367	47.97
368.582	54.36
368.798	16.58
369.013	87.49
369.228	62.11
369.444	54.17
369.659	78.77
369.874	77.61
370.09	79.16
370.305	-36.12
370.52	5.73
370.736	86.52
370.951	37.12
371.166	83.62
371.381	119.07
371.597	83.81
371.812	-2.02
372.027	10.58
372.242	39.44
372.458	114.81
372.673	23.36
372.888	34.02
373.103	45.64
373.318	158.4
373.533	61.14
373.749	43.32
373.964	-37.67
374.179	79.36
374.394	11.74
374.609	82.07
374.824	-25.46
375.039	99.7
375.254	2.05
375.469	82.84
375.684	64.63
375.899	83.23
376.114	55.72
376.329	57.07
376.544	65.02
376.759	70.44
376.974	14.06
377.189	51.26
377.404	69.28
377.619	60.76
377.834	24.53
378.049	-6.47
378.264	18.91
378.478	27.04
378.693	34.79
378.908	96.41
379.123	46.61
379.338	121.98
379.553	69.86
379.767	61.53
379.982	82.65
380.197	74.12
380.412	62.11
380.626	69.09
380.841	128.95
381.056	79.94
381.271	136.7
381.485	34.02
381.7	13.09
381.915	53.59
382.129	29.76
382.344	59.79
382.559	28.98
382.773	86.14
382.988	-6.67
383.202	53.97
383.417	2.83
383.632	128.95
383.846	50.49
384.061	43.32
384.275	45.45
384.49	55.52
384.704	63.27
384.919	58.04
385.133	64.05
385.348	81.29
385.562	40.8
385.777	111.13
385.991	56.3
386.206	38.67
386.42	28.79
386.634	134.19
386.849	97.57
387.063	93.89
387.277	40.8
387.492	39.64
387.706	41.96
387.92	26.46
388.135	93.31
388.349	77.42
388.563	78.58
388.778	99.31
388.992	84.59
389.206	92.53
389.42	143.87
389.635	67.15
389.849	132.44
390.063	108.61
390.277	90.4
390.491	114.81
390.706	93.5
390.92	103.96
391.134	108.22
391.348	123.53
391.562	40.22
391.776	75.87
391.99	45.64
392.205	107.45
392.419	87.49
392.633	66.18
392.847	134.96
393.061	66.37
393.275	154.34
393.489	47.77
393.703	76.84
393.917	124.3
394.131	41.77
394.345	72.77
394.559	108.81
394.773	73.16
394.986	104.93
395.2	102.41
395.414	122.37
395.628	65.41
395.842	103.77
396.056	92.72
396.27	41.19
396.484	114.42
396.697	103.77
396.911	125.66
397.125	92.92
397.339	126.24
397.553	89.82
397.766	151.62
397.98	124.11
398.194	126.24
398.408	114.23
398.621	131.86
398.835	154.72
399.049	127.99
399.262	180.49
399.476	185.92
399.69	171.97
399.903	229.51
400.117	130.89
400.331	159.95
400.544	101.64
400.758	278.33
400.971	169.06
401.185	190.37
401.398	110.94
401.612	186.69
401.826	185.34
402.039	190.18
402.253	133.02
402.466	185.34
402.68	158.99
402.893	173.13
403.106	172.94
403.32	166.54
403.533	180.3
403.747	162.47
403.96	177.2
404.174	181.46
404.387	138.84
404.6	164.41
404.814	215.37
405.027	164.22
405.24	166.93
405.454	179.14
405.667	226.41
405.88	110.36
406.094	170.03
406.307	224.86
406.52	173.52
406.733	166.35
406.947	114.04
407.16	232.03
407.373	224.08
407.586	184.56
407.799	137.87
408.012	214.78
408.226	189.6
408.439	262.25
408.652	145.04
408.865	206.07
409.078	225.83
409.291	217.3
409.504	160.54
409.717	217.5
409.93	241.91
410.143	207.81
410.357	153.56
410.57	131.67
410.783	168.67
410.996	201.42
411.209	192.5
411.421	210.14
411.634	236.29
411.847	186.3
412.06	200.64
412.273	194.83
412.486	206.07
412.699	302.16
412.912	210.72
413.125	261.48
413.338	208.78
413.55	255.86
413.763	207.23
413.976	225.25
414.189	186.11
414.402	186.89
414.615	293.06
414.827	192.5
415.04	260.7
415.253	245.01
415.466	264.58
415.678	301.58
415.891	240.94
416.104	217.69
416.316	226.99
416.529	206.84
416.742	271.36
416.954	290.15
417.167	230.87
417.38	225.44
417.592	257.6
417.805	197.54
418.017	185.92
418.23	256.63
418.442	179.72
418.655	217.11
418.868	250.63
419.08	265.55
419.293	296.35
419.505	261.28
419.718	215.17
419.93	294.8
420.142	226.6
420.355	295.77
420.567	261.67
420.78	278.14
420.992	239.2
421.205	315.73
421.417	207.81
421.629	253.34
421.842	215.37
422.054	219.05
422.266	280.08
422.479	287.05
422.691	223.89
422.903	285.7
423.115	214.59
423.328	233.38
423.54	254.7
423.752	226.8
423.964	218.27
424.177	293.06
424.389	241.72
424.601	377.73
424.813	262.45
425.025	287.44
425.238	283.76
425.45	250.24
425.662	235.13
425.874	578.64
426.086	257.8
426.298	277.17
426.51	253.73
426.722	249.47
426.934	232.03
427.146	309.14
427.358	244.62
427.57	315.53
427.782	253.73
427.994	237.26
428.206	233.97
428.418	186.11
428.63	278.92
428.842	294.8
429.054	279.88
429.266	315.92
429.478	241.33
429.69	266.52
429.902	195.41
430.114	262.06
430.325	267.29
430.537	198.7
430.749	207.81
430.961	157.82
431.173	213.23
431.384	232.61
431.596	136.12
431.808	219.63
432.02	255.08
432.231	322.9
432.443	342.08
432.655	301.39
432.867	253.92
433.078	301.2
433.29	372.88
433.502	306.43
433.713	360.29
433.925	326
434.136	359.9
434.348	270.2
434.56	230.87
434.771	363.97
434.983	223.89
435.194	248.5
435.406	304.1
435.617	376.37
435.829	386.06
436.04	360.29
436.252	350.99
436.463	349.25
436.675	372.3
436.886	315.73
437.098	347.5
437.309	413.57
437.521	337.04
437.732	341.88
437.943	332.97
438.155	356.22
438.366	288.41
438.578	365.33
438.789	321.54
439	341.11
439.211	305.85
439.423	330.26
439.634	341.5
439.845	327.16
440.057	342.27
440.268	386.44
440.479	316.5
440.69	363
440.902	322.51
441.113	330.84
441.324	320.38
441.535	378.11
441.746	391.48
441.957	341.88
442.168	339.36
442.38	389.16
442.591	395.94
442.802	343.05
443.013	378.89
443.224	385.28
443.435	351.96
443.646	375.4
443.857	346.92
444.068	364.36
444.279	349.05
444.49	462.2
444.701	388.58
444.912	464.14
445.123	410.86
445.334	415.12
445.545	420.35
445.756	396.33
445.967	345.18
446.178	401.56
446.388	439.14
446.599	415.12
446.81	429.65
447.021	382.76
447.232	408.53
447.443	467.04
447.653	365.13
447.864	430.62
448.075	408.73
448.286	428.49
448.496	431.2
448.707	453.29
448.918	387.03
449.129	522.46
449.339	400.39
449.55	430.04
449.761	415.51
449.971	463.17
450.182	411.05
450.393	420.16
450.603	421.71
450.814	466.66
451.024	449.99
451.235	491.07
451.446	516.64
451.656	480.61
451.867	436.24
452.077	446.12
452.288	505.79
452.498	495.14
452.709	420.54
452.919	486.81
453.13	404.27
453.34	474.99
453.55	390.13
453.761	438.37
453.971	484.48
454.182	459.1
454.392	464.14
454.602	518.39
454.813	485.06
455.023	490.1
455.233	417.64
455.444	451.93
455.654	398.65
455.864	429.26
456.075	442.44
456.285	468.01
456.495	435.27
456.705	493.59
456.916	490.87
457.126	531.95
457.336	474.99
457.546	417.64
457.756	465.11
457.967	510.83
458.177	469.37
458.387	473.05
458.597	435.27
458.807	449.41
459.017	453.48
459.227	457.36
459.437	434.3
459.647	495.91
459.857	486.22
460.068	429.07
460.278	497.07
460.488	489.71
460.698	533.69
460.908	465.3
461.117	440.31
461.327	476.54
461.537	491.26
461.747	487.97
461.957	512.57
462.167	605.19
462.377	529.82
462.587	483.32
462.797	536.02
463.007	485.64
463.216	537.37
463.426	535.63
463.636	552.68
463.846	434.69
464.056	501.34
464.265	563.14
464.475	465.88
464.685	492.23
464.895	533.89
465.104	498.24
465.314	518.77
465.524	469.56
465.733	450.38
465.943	563.53
466.153	589.3
466.362	563.72
466.572	518.39
466.782	507.54
466.991	543.19
467.201	568.18
467.41	471.31
467.62	532.72
467.829	504.63
468.039	513.74
468.249	506.76
468.458	518
468.668	547.64
468.877	569.15
469.086	608.09
469.296	592.2
469.505	518.19
469.715	622.43
469.924	568.57
470.134	605.57
470.343	579.42
470.552	536.02
470.762	546.29
470.971	518.58
471.18	548.81
471.39	545.12
471.599	494.36
471.808	581.74
472.018	552.68
472.227	605.57
472.436	646.26
472.645	579.8
472.855	553.26
473.064	668.54
473.273	625.14
473.482	626.11
473.691	653.04
473.901	635.41
474.11	600.73
474.319	654.01
474.528	636.19
474.737	699.54
474.946	640.06
475.155	621.85
475.364	698.18
475.573	648.97
475.783	626.5
475.992	685.01
476.201	665.83
476.41	635.8
476.619	613.9
476.828	669.9
477.037	616.23
477.245	646.65
477.454	704.77
477.663	676.68
477.872	697.8
478.081	769.1
478.29	654.01
478.499	753.79
478.708	711.17
478.917	795.25
479.125	713.68
479.334	738.48
479.543	713.68
479.752	748.17
479.961	728.22
480.169	774.91
480.378	736.16
480.587	874.88
480.796	758.05
481.004	733.83
481.213	807.65
481.422	767.35
481.63	771.23
481.839	803.78
482.048	829.16
482.256	798.55
482.465	815.6
482.674	858.61
482.882	832.06
483.091	882.44
483.299	815.01
483.508	841.75
483.716	789.05
483.925	813.08
484.134	770.84
484.342	811.33
484.551	863.45
484.759	836.52
484.967	872.94
485.176	875.85
485.384	845.24
485.593	899.29
485.801	852.21
486.01	845.82
486.218	797.58
486.426	719.11
486.635	704.97
486.843	751.85
487.051	777.81
487.26	740.81
487.468	824.31
487.676	829.74
487.885	794.48
488.093	830.32
488.301	855.12
488.509	899.68
488.717	904.72
488.926	875.46
489.134	895.03
489.342	878.95
489.55	822.57
489.758	894.64
489.967	853.76
490.175	960.13
490.383	915.96
490.591	981.64
490.799	906.08
491.007	960.71
491.215	947.15
491.423	912.47
491.631	935.91
491.839	922.35
492.047	967.49
492.255	899.68
492.463	840.98
492.671	874.3
492.879	979.7
493.087	907.63
493.295	946.96
493.503	967.69
493.711	1017.09
493.919	1029.69
494.127	987.45
494.334	1025.23
494.542	919.83
494.75	942.69
494.958	942.69
495.166	1022.9
495.374	1005.27
495.581	1033.17
495.789	1019.42
495.997	1048.67
496.205	977.96
496.412	1005.08
496.62	993.07
496.828	983.96
497.035	990.74
497.243	1026.59
497.451	1027.36
497.658	1017.48
497.866	1030.85
498.074	1086.07
498.281	991.71
498.489	1095.56
498.696	1027.55
498.904	1004.3
499.112	1002.56
499.319	1085.48
499.527	998.49
499.734	1088
499.942	987.45
500.149	1013.41
500.357	1048.48
500.564	968.27
500.771	1002.95
500.979	972.92
501.186	994.04
501.394	1031.62
501.601	1004.69
501.808	1016.12
502.016	1005.08
502.223	1010.5
502.43	1020.19
502.638	1001.4
502.845	984.74
503.052	1068.24
503.26	1023.68
503.467	1099.05
503.674	1043.83
503.881	1088.97
504.089	1110.09
504.296	1058.75
504.503	1004.3
504.71	1037.44
504.917	997.72
505.125	1075.8
505.332	1041.5
505.539	1066.69
505.746	1131.21
505.953	1094.98
506.16	1125.2
506.367	1161.24
506.574	1160.66
506.781	1174.03
506.988	1072.7
507.195	1149.03
507.402	1120.75
507.609	1152.72
507.816	1093.23
508.023	1115.52
508.23	1063.98
508.437	1063.4
508.644	1134.7
508.851	1151.75
509.058	1125.01
509.265	1119.58
509.472	1172.67
509.679	1245.91
509.885	1093.23
510.092	1117.07
510.299	1147.29
510.506	1106.99
510.713	1154.27
510.92	1106.41
511.126	1142.83
511.333	1162.79
511.54	1170.35
511.746	1217.43
511.953	1208.32
512.16	1242.42
512.367	1137.6
512.573	1149.03
512.78	1174.03
512.987	1196.5
513.193	1150.58
513.4	1095.17
513.606	1158.14
513.813	1177.51
514.02	1161.24
514.226	1247.26
514.433	1224.01
514.639	1109.12
514.846	1191.66
515.052	1114.93
515.259	1165.5
515.465	1173.06
515.672	1168.41
515.878	1288.34
516.085	1201.54
516.291	1228.86
516.497	1188.95
516.704	1209.68
516.91	1132.57
517.117	1068.24
517.323	1067.66
517.529	1084.13
517.736	1122.49
517.942	1111.83
518.148	1108.93
518.354	1129.27
518.561	1159.11
518.767	1159.3
518.973	1163.57
519.179	1202.51
519.386	1171.51
519.592	1176.55
519.798	1177.71
520.004	1278.26
520.21	1209.68
520.417	1274
520.623	1309.07
520.829	1306.16
521.035	1288.14
521.241	1315.46
521.447	1298.22
521.653	1457.48
521.859	1292.41
522.065	1353.82
522.271	1440.62
522.477	1375.91
522.683	1437.14
522.889	1400.91
523.095	1387.15
523.301	1400.32
523.507	1322.63
523.713	1391.02
523.919	1344.33
524.125	1434.62
524.331	1373.59
524.537	1468.72
524.742	1494.29
524.948	1480.73
525.154	1489.25
525.36	1582.45
525.566	1501.27
525.772	1532.65
525.977	1445.47
526.183	1487.9
526.389	1567.14
526.595	1433.07
526.8	1455.15
527.006	1409.82
527.212	1384.05
527.417	1335.81
527.623	1342.2
527.829	1428.61
528.034	1419.7
528.24	1497.59
528.446	1448.57
528.651	1544.47
528.857	1542.15
529.062	1593.3
529.268	1565.78
529.473	1587.68
529.679	1556.48
529.884	1661.69
530.09	1617.71
530.295	1644.06
530.501	1651.61
530.706	1630.3
530.912	1553
531.117	1597.17
531.323	1627.59
531.528	1695.21
531.733	1680.68
531.939	1664.98
532.144	1675.64
532.35	1646.77
532.555	1683.39
532.76	1659.17
532.966	1688.04
533.171	1684.36
533.376	1611.9
533.581	1552.03
533.787	1610.73
533.992	1691.53
534.197	1716.52
534.402	1643.48
534.607	1643.48
534.813	1783.94
535.018	1654.91
535.223	1671.76
535.428	1707.99
535.633	1747.33
535.838	1761.86
536.043	1738.22
536.249	1822.89
536.454	1719.81
536.659	1767.86
536.864	1739.19
537.069	1691.53
537.274	1738.41
537.479	1721.36
537.684	1768.25
537.889	1692.11
538.094	1823.86
538.299	1723.49
538.504	1753.53
538.708	1741.51
538.913	1820.56
539.118	1764.96
539.323	1780.46
539.528	1746.55
539.733	1770.77
539.938	1744.81
540.142	1780.65
540.347	1715.94
540.552	1720.78
540.757	1734.73
540.962	1744.61
541.166	1681.84
541.371	1675.45
541.576	1722.33
541.781	1640.18
541.985	1772.32
542.19	1720.01
542.395	1791.11
542.599	1849.24
542.804	1776.78
543.008	1852.72
543.213	1754.69
543.418	1757.01
543.622	1818.62
543.827	1743.45
544.031	1840.13
544.236	1862.99
544.44	1827.34
544.645	1887.79
544.849	1771.74
545.054	1847.11
545.258	1937.2
545.463	1891.67
545.667	1828.31
545.872	1862.61
546.076	1858.92
546.281	1830.64
546.485	1794.79
546.689	1883.92
546.894	1850.79
547.098	1815.14
547.302	1804.29
547.507	1841.29
547.711	1849.04
547.915	1888.57
548.119	1809.91
548.324	1762.63
548.528	1867.45
548.732	1831.8
548.936	1858.92
549.141	1864.93
549.345	1825.99
549.549	1866.87
549.753	1867.45
549.957	1918.6
550.161	1930.61
550.366	1874.81
550.57	1820.95
550.774	1876.17
550.978	1849.04
551.182	1888.37
551.386	1842.84
551.59	1791.89
551.794	1843.81
551.998	1852.34
552.202	1843.81
552.406	1818.24
552.61	1880.82
552.814	1877.33
553.018	1943.79
553.222	1890.31
553.426	1810.49
553.63	1935.26
553.833	1824.24
554.037	1819.79
554.241	1879.46
554.445	1854.86
554.649	1843.81
554.853	1832.38
555.056	1898.64
555.26	1919.37
555.464	1880.62
555.668	1869.19
555.871	1916.08
556.075	1914.72
556.279	1845.56
556.483	1802.35
556.686	1849.04
556.89	1806.42
557.094	1901.94
557.297	1758.18
557.501	1867.26
557.704	1771.35
557.908	1867.84
558.112	1788.98
558.315	1886.82
558.519	1823.47
558.722	1800.61
558.926	1823.08
559.129	1711.87
559.333	1705.86
559.536	1733.18
559.74	1720.78
559.943	1705.09
560.147	1703.34
560.35	1711.29
560.553	1724.27
560.757	1668.86
560.96	1789.56
561.164	1700.44
561.367	1842.84
561.57	1761.08
561.774	1746.16
561.977	1752.17
562.18	1705.28
562.384	1790.14
562.587	1725.04
562.79	1703.73
562.993	1717.49
563.197	1735.89
563.4	1779.88
563.603	1747.91
563.806	1803.9
564.009	1694.43
564.212	1744.03
564.416	1653.36
564.619	1731.63
564.822	1652.39
565.025	1736.09
565.228	1691.72
565.431	1687.85
565.634	1597.75
565.837	1633.98
566.04	1604.73
566.243	1601.82
566.446	1540.21
566.649	1651.03
566.852	1596.59
567.055	1571.98
567.258	1620.81
567.461	1665.18
567.664	1693.66
567.867	1581.09
568.07	1604.34
568.273	1574.12
568.475	1705.86
568.678	1597.56
568.881	1579.54
569.084	1603.76
569.287	1472.59
569.489	1502.82
569.692	1597.17
569.895	1604.73
570.098	1486.74
570.3	1512.7
570.503	1438.1
570.706	1489.25
570.909	1472.79
571.111	1397.03
571.314	1400.91
571.516	1439.07
571.719	1427.84
571.922	1450.7
572.124	1453.41
572.327	1458.64
572.529	1418.92
572.732	1442.37
572.935	1484.02
573.137	1512.5
573.34	1435.59
573.542	1507.47
573.745	1472.98
573.947	1451.09
574.15	1437.14
574.352	1416.99
574.554	1484.6
574.757	1406.52
574.959	1415.44
575.162	1386.18
575.364	1388.7
575.566	1533.23
575.769	1377.07
575.971	1403.81
576.173	1297.83
576.376	1388.12
576.578	1399.94
576.78	1483.44
576.982	1311.98
577.185	1376.49
577.387	1321.47
577.589	1320.69
577.791	1371.46
577.993	1401.29
578.196	1326.31
578.398	1374.36
578.6	1403.62
578.802	1269.54
579.004	1295.89
579.206	1299.58
579.408	1352.27
579.61	1295.31
579.812	1386.76
580.014	1284.85
580.216	1309.07
580.418	1292.21
580.62	1308.29
580.822	1232.35
581.024	1300.74
581.226	1349.17
581.428	1316.04
581.63	1371.84
581.832	1297.64
582.034	1354.79
582.236	1267.8
582.438	1311.59
582.64	1370.29
582.841	1369.13
583.043	1408.46
583.245	1309.46
583.447	1334.64
583.649	1334.64
583.85	1325.34
584.052	1355.18
584.254	1261.99
584.456	1325.54
584.657	1253.66
584.859	1310.43
585.061	1288.14
585.262	1272.06
585.464	1222.08
585.666	1276.91
585.867	1255.4
586.069	1324.96
586.27	1260.83
586.472	1256.56
586.674	1241.26
586.875	1244.55
587.077	1262.76
587.278	1283.49
587.48	1213.94
587.681	1341.04
587.883	1275.16
588.084	1195.53
588.285	1236.8
588.487	1218.98
588.688	1251.33
588.89	1162.98
589.091	1167.05
589.292	1176.35
589.494	1121.52
589.695	1128.88
589.896	1047.7
590.098	1036.85
590.299	1120.17
590.5	1046.35
590.702	1094.4
590.903	1110.87
591.104	1163.18
591.305	1160.47
591.507	1228.66
591.708	1205.8
591.909	1168.6
592.11	1222.46
592.311	1175
592.512	1166.08
592.714	1132.95
592.915	1099.24
593.116	1110.48
593.317	1191.27
593.518	1139.15
593.719	1136.63
593.92	1187.59
594.121	1211.42
594.322	1151.94
594.523	1150.58
594.724	1109.12
594.925	1150.2
595.126	1138.18
595.327	1176.74
595.528	1154.85
595.729	1157.17
595.929	1121.33
596.13	1129.85
596.331	1153.49
596.532	1154.27
596.733	1217.23
596.934	1211.42
597.135	1211.23
597.335	1162.6
597.536	1131.6
597.737	1157.95
597.938	1134.5
598.138	1163.37
598.339	1127.33
598.54	1160.66
598.74	1132.37
598.941	1139.73
599.142	1178.68
599.342	1114.16
599.543	1115.52
599.744	1136.25
599.944	1109.7
600.145	1101.95
600.345	1131.79
600.546	1195.92
600.746	1186.62
600.947	1207.35
601.147	1144.77
601.348	1165.7
601.548	1083.74
601.749	1110.87
601.949	1069.79
602.15	1069.21
602.35	1080.84
602.551	1169.77
602.751	1082.58
602.951	1116.87
603.152	1036.08
603.352	1142.25
603.552	1112.61
603.753	1129.08
603.953	1158.33
604.153	1121.52
604.354	1110.28
604.554	1101.18
604.754	1097.11
604.954	1083.16
605.155	1136.25
605.355	1087.62
605.555	1133.34
605.755	1182.94
605.955	1101.18
606.155	1147.1
606.356	1105.63
606.556	1116.48
606.756	1133.15
606.956	1025.23
607.156	1168.02
607.356	1070.57
607.556	1121.33
607.756	1084.52
607.956	1147.29
608.156	1092.27
608.356	1069.21
608.556	1160.85
608.756	1071.15
608.956	1058.36
609.156	1087.62
609.356	1043.83
609.556	1021.94
609.755	1090.52
609.955	1036.27
610.155	1066.5
610.355	1072.5
610.555	1013.8
610.755	1057.97
610.954	1010.7
611.154	1044.6
611.354	1095.17
611.554	999.65
611.753	1036.66
611.953	1018.25
612.153	1054.1
612.352	1069.02
612.552	982.22
612.752	941.72
612.951	1033.75
613.151	1063.4
613.351	959.74
613.55	1020.97
613.75	1046.74
613.949	1038.4
614.149	1015.74
614.348	1019.61
614.548	983.38
614.747	933.2
614.947	996.56
615.146	931.46
615.346	1038.6
615.545	1013.8
615.745	1006.63
615.944	1056.81
616.144	1011.86
