Data from gum_old_FLMT105791__18__15-42-40-259.txt Node

Date: Mon Mar 20 15:42:40 GMT 2023
User: antho
Spectrometer: FLMT10579
Trigger mode: 0
Integration Time (sec): 1.000000E-1
Scans to average: 10
Electric dark correction enabled: true
Nonlinearity correction enabled: false
Boxcar width: 0
XAxis mode: Wavelengths
Number of Pixels in Spectrum: 3648
>>>>>Begin Spectral Data<<<<<
345.248	-178.88
345.464	-178.88
345.681	-178.88
345.898	-174.81
346.114	-172.29
346.331	-41.51
346.548	45.09
346.764	4.41
346.981	-39.19
347.197	-16.13
347.414	15.06
347.631	-6.83
347.847	69.31
348.064	17.97
348.28	16.61
348.497	-49.26
348.713	-15.55
348.93	34.63
349.146	36.76
349.363	3.05
349.579	32.69
349.796	20.3
350.012	13.9
350.229	18.75
350.445	11.77
350.661	9.83
350.878	38.31
351.094	28.04
351.311	26.49
351.527	34.05
351.743	14.29
351.96	34.44
352.176	67.18
352.392	69.89
352.609	60.21
352.825	19.13
353.041	37.34
353.257	24.75
353.474	14.87
353.69	39.67
353.906	60.79
354.122	21.65
354.339	86.75
354.555	27.66
354.771	30.95
354.987	77.45
355.203	95.28
355.42	17.97
355.636	9.83
355.852	16.23
356.068	48
356.284	-10.9
356.5	80.74
356.716	31.92
356.932	60.59
357.148	83.46
357.364	34.24
357.58	80.55
357.796	57.69
358.012	80.74
358.228	47.23
358.444	-30.27
358.66	72.41
358.876	31.53
359.092	24.17
359.308	47.81
359.524	76.68
359.74	54.59
359.956	41.61
360.172	34.63
360.388	87.33
360.604	40.64
360.819	105.16
361.035	62.92
361.251	71.83
361.467	15.65
361.683	74.16
361.898	16.23
362.114	94.89
362.33	37.73
362.546	97.41
362.762	28.24
362.977	73.58
363.193	39.09
363.409	81.91
363.624	24.94
363.84	40.06
364.056	41.99
364.271	71.06
364.487	69.51
364.703	17.39
364.918	29.59
365.134	23.39
365.35	68.34
365.565	146.81
365.781	71.64
365.996	79.58
366.212	132.47
366.427	99.93
366.643	53.62
366.858	87.33
367.074	68.15
367.289	148.94
367.505	173.55
367.72	32.31
367.936	50.13
368.151	103.22
368.367	100.12
368.582	86.94
368.798	75.51
369.013	133.25
369.228	89.85
369.444	88.49
369.659	112.71
369.874	130.15
370.09	148.94
370.305	50.52
370.52	62.53
370.736	159.6
370.951	75.13
371.166	126.27
371.381	143.32
371.597	110.58
371.812	53.81
372.027	53.43
372.242	81.91
372.458	139.64
372.673	99.93
372.888	63.69
373.103	96.05
373.318	170.45
373.533	109.42
373.749	78.81
373.964	35.41
374.179	121.82
374.394	31.73
374.609	121.62
374.824	45.68
375.039	124.14
375.254	33.47
375.469	141.97
375.684	102.83
375.899	115.62
376.114	124.34
376.329	118.33
376.544	103.03
376.759	126.66
376.974	104.58
377.189	101.28
377.404	81.33
377.619	118.14
377.834	59.04
378.049	77.45
378.264	51.49
378.478	131.12
378.693	102.06
378.908	147.59
379.123	102.06
379.338	186.14
379.553	136.54
379.767	117.94
379.982	138.09
380.197	133.06
380.412	107.68
380.626	131.31
380.841	181.11
381.056	150.69
381.271	186.14
381.485	78.23
381.7	80.36
381.915	109.81
382.129	110.39
382.344	70.09
382.559	106.9
382.773	141.39
382.988	65.83
383.202	82.88
383.417	66.02
383.632	208.42
383.846	107.68
384.061	115.04
384.275	74.16
384.49	117.75
384.704	128.99
384.919	114.65
385.133	142.36
385.348	153.98
385.562	105.74
385.777	156.5
385.991	115.23
386.206	123.76
386.42	117.94
386.634	159.21
386.849	154.95
387.063	137.32
387.277	125.69
387.492	111.16
387.706	92.95
387.92	87.14
388.135	150.11
388.349	141.77
388.563	151.46
388.778	133.83
388.992	141.97
389.206	149.91
389.42	233.22
389.635	157.86
389.849	185.37
390.063	203.97
390.277	190.6
390.491	238.45
390.706	206.49
390.92	214.43
391.134	152.43
391.348	226.83
391.562	168.32
391.776	197.96
391.99	175.68
392.205	242.91
392.419	164.06
392.633	176.84
392.847	219.47
393.061	154.17
393.275	206.1
393.489	147.97
393.703	124.92
393.917	152.62
394.131	90.43
394.345	140.61
394.559	187.31
394.773	145.07
394.986	183.04
395.2	175.87
395.414	246.98
395.628	184.98
395.842	186.72
396.056	215.59
396.27	141.39
396.484	216.75
396.697	194.86
396.911	226.05
397.125	164.06
397.339	146.04
397.553	147.01
397.766	221.79
397.98	201.25
398.194	233.42
398.408	221.4
398.621	286.7
398.835	308.2
399.049	282.24
399.262	319.83
399.476	324.28
399.69	346.18
399.903	391.51
400.117	293.67
400.331	328.16
400.544	289.8
400.758	423.1
400.971	340.37
401.185	358.19
401.398	302
401.612	391.51
401.826	381.25
402.039	382.8
402.253	337.85
402.466	387.83
402.68	344.63
402.893	367.68
403.106	358
403.32	340.37
403.533	367.3
403.747	351.8
403.96	369.04
404.174	361.29
404.387	345.98
404.6	379.31
404.814	386.28
405.027	343.85
405.24	356.64
405.454	362.26
405.667	419.8
405.88	323.7
406.094	384.15
406.307	421.93
406.52	370.98
406.733	349.28
406.947	332.23
407.16	419.22
407.373	408.56
407.586	375.05
407.799	345.21
408.012	405.66
408.226	406.05
408.439	433.56
408.652	341.33
408.865	447.31
409.078	469.59
409.291	419.41
409.504	391.13
409.717	442.66
409.93	427.94
410.143	434.33
410.357	322.73
410.57	343.27
410.783	377.56
410.996	387.25
411.209	392.87
411.421	454.1
411.634	425.61
411.847	445.38
412.06	463.01
412.273	450.8
412.486	456.42
412.699	525.59
412.912	468.43
413.125	479.67
413.338	459.91
413.55	484.9
413.763	469.21
413.976	500.01
414.189	429.68
414.402	458.16
414.615	524.23
414.827	465.91
415.04	528.3
415.253	503.5
415.466	527.53
415.678	530.24
415.891	475.41
416.104	496.14
416.316	490.52
416.529	474.83
416.742	556.39
416.954	543.61
417.167	481.41
417.38	487.61
417.592	554.26
417.805	480.06
418.017	455.45
418.23	466.69
418.442	457.2
418.655	464.36
418.868	529.46
419.08	531.01
419.293	548.45
419.505	506.6
419.718	517.64
419.93	554.65
420.142	495.17
420.355	571.12
420.567	549.22
420.78	540.89
420.992	515.51
421.205	593.01
421.417	484.9
421.629	531.21
421.842	514.54
422.054	491.88
422.266	563.95
422.479	585.26
422.691	518.81
422.903	567.63
423.115	503.31
423.328	488.58
423.54	542.83
423.752	543.8
423.964	517.26
424.177	553.29
424.389	527.53
424.601	648.62
424.813	588.75
425.025	593.59
425.238	562.59
425.45	558.33
425.662	534.89
425.874	831.13
426.086	565.89
426.298	546.13
426.51	579.45
426.722	533.53
426.934	529.46
427.146	606.19
427.358	535.28
427.57	610.45
427.782	544.19
427.994	544.38
428.206	512.61
428.418	519.78
428.63	601.73
428.842	630.41
429.054	595.92
429.266	588.94
429.478	541.09
429.69	553.87
429.902	485.87
430.114	550
430.325	557.36
430.537	479.67
430.749	467.46
430.961	398.3
431.173	426.78
431.384	489.16
431.596	384.35
431.808	511.83
432.02	565.11
432.231	656.37
432.443	695.5
432.655	647.26
432.867	612.77
433.078	648.62
433.29	700.15
433.502	680.78
433.713	687.56
433.925	705.97
434.136	700.74
434.348	590.69
434.56	573.06
434.771	686.2
434.983	542.44
435.194	638.93
435.406	683.88
435.617	727.47
435.829	760.41
436.04	703.25
436.252	721.85
436.463	766.61
436.675	792.77
436.886	788.12
437.098	776.88
437.309	798.97
437.521	727.86
437.732	716.04
437.943	733.67
438.155	723.21
438.366	671.67
438.578	769.52
438.789	727.86
439	693.57
439.211	659.85
439.423	703.84
439.634	752.27
439.845	765.25
440.057	763.32
440.268	782.5
440.479	741.42
440.69	765.64
440.902	748.4
441.113	729.22
441.324	740.84
441.535	797.03
441.746	849.53
441.957	772.62
442.168	828.61
442.38	859.03
442.591	836.75
442.802	806.72
443.013	821.25
443.224	863.1
443.435	838.88
443.646	824.73
443.857	823.76
444.068	821.05
444.279	792.57
444.49	922.19
444.701	880.53
444.912	967.91
445.123	881.31
445.334	886.93
445.545	890.41
445.756	874.72
445.967	839.26
446.178	820.08
446.388	868.13
446.599	859.41
446.81	872.01
447.021	835.2
447.232	872.4
447.443	920.06
447.653	859.22
447.864	940.4
448.075	910.18
448.286	964.43
448.496	922.77
448.707	981.86
448.918	881.89
449.129	972.56
449.339	903.01
449.55	909.21
449.761	901.46
449.971	985.16
450.182	922.58
450.393	954.35
450.603	900.49
450.814	999.11
451.024	959.78
451.235	1046.19
451.446	1061.3
451.656	1044.64
451.867	953.77
452.077	994.65
452.288	1004.72
452.498	1013.44
452.709	978.57
452.919	964.23
453.13	906.88
453.34	969.85
453.55	874.14
453.761	961.91
453.971	944.08
454.182	972.76
454.392	939.43
454.602	1053.55
454.813	1013.44
455.023	1028.56
455.233	920.06
455.444	971.59
455.654	881.89
455.864	945.44
456.075	952.99
456.285	953.19
456.495	979.34
456.705	1013.64
456.916	1054.32
457.126	1086.1
457.336	994.84
457.546	940.98
457.756	1027.59
457.967	1110.7
458.177	980.51
458.387	1005.5
458.597	971.98
458.807	1009.96
459.017	958.23
459.227	977.79
459.437	989.22
459.647	1051.22
459.857	1023.52
460.068	1031.46
460.278	1063.43
460.488	1052.58
460.698	1100.05
460.908	1062.85
461.117	1024.29
461.327	1064.59
461.537	1065.17
461.747	1064.21
461.957	1075.83
462.167	1176.97
462.377	1105.86
462.587	1075.64
462.797	1114.77
463.007	1055.1
463.216	1124.46
463.426	1152.75
463.636	1102.76
463.846	1028.36
464.056	1077.38
464.265	1116.32
464.475	1068.27
464.685	1083
464.895	1125.04
465.104	1088.81
465.314	1140.35
465.524	1087.84
465.733	1057.04
465.943	1137.83
466.153	1196.92
466.362	1188.01
466.572	1145.77
466.782	1113.42
466.991	1159.92
467.201	1182
467.41	1070.41
467.62	1132.6
467.829	1112.84
468.039	1155.07
468.249	1124.07
468.458	1132.21
468.668	1145.58
468.877	1188.01
469.086	1231.8
469.296	1240.13
469.505	1178.9
469.715	1275.2
469.924	1216.68
470.134	1265.9
470.343	1253.88
470.552	1187.43
470.762	1194.79
470.971	1163.98
471.18	1180.84
471.39	1214.94
471.599	1200.99
471.808	1230.44
472.018	1221.33
472.227	1292.05
472.436	1307.16
472.645	1290.11
472.855	1287.98
473.064	1381.76
473.273	1348.24
473.482	1334.87
473.691	1377.49
473.901	1331.38
474.11	1311.43
474.319	1447.24
474.528	1357.54
474.737	1459.45
474.946	1425.93
475.155	1403.26
475.364	1440.46
475.573	1452.67
475.783	1466.23
475.992	1442.21
476.201	1480.37
476.41	1429.42
476.619	1405.59
476.828	1461.58
477.037	1414.69
477.245	1419.15
477.454	1478.82
477.663	1466.42
477.872	1543.34
478.081	1602.63
478.29	1509.24
478.499	1618.32
478.708	1616.77
478.917	1643.7
479.125	1570.27
479.334	1554.58
479.543	1623.17
479.752	1649.9
479.961	1632.47
480.169	1679.35
480.378	1637.7
480.587	1800.06
480.796	1664.82
481.004	1660.75
481.213	1698.53
481.422	1680.71
481.63	1691.75
481.839	1740.96
482.048	1811.29
482.256	1756.27
482.465	1803.93
482.674	1750.85
482.882	1765.18
483.091	1858.96
483.299	1769.45
483.508	1824.28
483.716	1807.23
483.925	1831.44
484.134	1777.39
484.342	1811.29
484.551	1830.48
484.759	1845.98
484.967	1852.76
485.176	1867.48
485.384	1872.52
485.593	1900.81
485.801	1866.51
486.01	1783.2
486.218	1711.13
486.426	1646.61
486.635	1620.45
486.843	1571.44
487.051	1651.26
487.26	1642.15
487.468	1719.65
487.676	1741.35
487.885	1778.16
488.093	1833.38
488.301	1896.93
488.509	1882.4
488.717	1960.29
488.926	1927.93
489.134	1884.53
489.342	1894.02
489.55	1883.17
489.758	1935.68
489.967	1961.64
490.175	2064.52
490.383	2049.99
490.591	2163.91
490.799	2024.03
491.007	2096.1
491.215	2044.76
491.423	2074.02
491.631	2074.98
491.839	2040.11
492.047	2099.59
492.255	1969.78
492.463	1945.56
492.671	1931.81
492.879	2025.58
493.087	2049.41
493.295	2070.14
493.503	2096.3
493.711	2162.75
493.919	2180.38
494.127	2125.55
494.334	2103.66
494.542	2069.37
494.75	2149.77
494.958	2133.5
495.166	2205.96
495.374	2196.08
495.581	2245.48
495.789	2221.26
495.997	2245.87
496.205	2168.56
496.412	2176.51
496.62	2219.52
496.828	2257.3
497.035	2216.81
497.243	2237.34
497.451	2260.21
497.658	2212.93
497.866	2241.61
498.074	2296.82
498.281	2183.29
498.489	2294.11
498.696	2180.19
498.904	2198.79
499.112	2137.56
499.319	2262.34
499.527	2204.41
499.734	2310.77
499.942	2187.55
500.149	2202.08
500.357	2238.7
500.564	2174.38
500.771	2225.53
500.979	2149.96
501.186	2163.72
501.394	2184.26
501.601	2157.52
501.808	2200.15
502.016	2167.4
502.223	2178.06
502.43	2185.42
502.638	2180.58
502.845	2168.18
503.052	2285.59
503.26	2227.66
503.467	2280.36
503.674	2266.79
503.881	2225.33
504.089	2346.42
504.296	2274.16
504.503	2187.36
504.71	2212.54
504.917	2185.42
505.125	2219.52
505.332	2314.26
505.539	2259.82
505.746	2364.64
505.953	2357.66
506.16	2357.66
506.367	2428.38
506.574	2417.34
506.781	2426.05
506.988	2343.52
507.195	2384.59
507.402	2344.49
507.609	2367.74
507.816	2328.6
508.023	2328.6
508.23	2327.44
508.437	2252.84
508.644	2294.5
508.851	2379.56
509.058	2394.28
509.265	2350.69
509.472	2411.33
509.679	2492.7
509.885	2459.57
510.092	2404.74
510.299	2415.4
510.506	2370.64
510.713	2378.2
510.92	2363.47
511.126	2413.65
511.333	2477.01
511.54	2426.05
511.746	2499.87
511.953	2489.8
512.16	2519.25
512.367	2470.81
512.573	2453.18
512.78	2435.35
512.987	2426.25
513.193	2401.25
513.4	2348.75
513.606	2395.83
513.813	2450.08
514.02	2398.93
514.226	2467.52
514.433	2474.1
514.639	2343.52
514.846	2403.77
515.052	2380.52
515.259	2446.4
515.465	2418.3
515.672	2408.23
515.878	2476.82
516.085	2448.34
516.291	2458.41
516.497	2436.52
516.704	2426.25
516.91	2357.08
517.117	2274.35
517.323	2161.98
517.529	2179.61
517.736	2191.62
517.942	2165.85
518.148	2246.45
518.354	2300.12
518.561	2265.44
518.767	2285.78
518.973	2320.27
519.179	2346.62
519.386	2315.81
519.592	2367.74
519.798	2377.42
520.004	2491.73
520.21	2440.2
520.417	2516.53
520.623	2528.93
520.829	2553.73
521.035	2572.91
521.241	2551.22
521.447	2594.42
521.653	2686.26
521.859	2564.39
522.065	2631.43
522.271	2719.19
522.477	2683.35
522.683	2739.34
522.889	2642.28
523.095	2627.55
523.301	2631.62
523.507	2580.66
523.713	2630.07
523.919	2568.07
524.125	2703.31
524.331	2721.91
524.537	2803.86
524.742	2763.17
524.948	2803.47
525.154	2759.69
525.36	2924.76
525.566	2776.54
525.772	2833.89
525.977	2751.16
526.183	2790.88
526.389	2849.2
526.595	2707.57
526.8	2725.98
527.006	2613.99
527.212	2526.61
527.417	2506.07
527.623	2527.19
527.829	2598.88
528.034	2637.63
528.24	2627.36
528.446	2722.88
528.651	2857.14
528.857	2771.31
529.062	2870.7
529.268	2911.39
529.473	2898.99
529.679	2944.52
529.884	2982.11
530.09	2864.89
530.295	2900.93
530.501	2917.78
530.706	2889.11
530.912	2864.12
531.117	2962.93
531.323	2923.4
531.528	3020.86
531.733	2996.45
531.939	2933.48
532.144	3003.42
532.35	2966.8
532.555	3029.96
532.76	2939.68
532.966	2966.22
533.171	2899.38
533.376	2831.18
533.581	2801.73
533.787	2840.67
533.992	2937.35
534.197	2959.44
534.402	2937.35
534.607	2956.92
534.813	3023.76
535.018	2915.46
535.223	2954.79
535.428	2981.33
535.633	3015.24
535.838	3048.56
536.043	3055.93
536.249	3159.39
536.454	3040.62
536.659	3113.08
536.864	3072.59
537.069	3027.45
537.274	3063.29
537.479	2993.54
537.684	3017.76
537.889	2942.2
538.094	3083.83
538.299	3000.9
538.504	3042.95
538.708	3046.43
538.913	3083.83
539.118	3044.69
539.323	3103.01
539.528	2991.6
539.733	3014.46
539.938	3052.05
540.142	3032.68
540.347	2989.08
540.552	2943.55
540.757	2933.67
540.962	2955.95
541.166	2910.62
541.371	2856.56
541.576	2949.95
541.781	2901.7
541.985	2986.37
542.19	3045.27
542.395	3106.69
542.599	3117.34
542.804	3066.39
543.008	3128.58
543.213	3015.24
543.418	2992.57
543.622	3060.96
543.827	2998
544.031	3105.72
544.236	3110.76
544.44	3052.05
544.645	3141.76
544.849	3071.04
545.054	3105.33
545.258	3149.7
545.463	3150.86
545.667	3098.36
545.872	3166.94
546.076	3129.94
546.281	3122.38
546.485	3048.37
546.689	3120.44
546.894	3151.83
547.098	3085.18
547.302	3037.33
547.507	3105.91
547.711	3190.39
547.915	3153.96
548.119	3066.39
548.324	3062.51
548.528	3139.82
548.732	3058.25
548.936	3101.65
549.141	3143.69
549.345	3080.34
549.549	3129.16
549.753	3126.06
549.957	3204.14
550.161	3193.68
550.366	3148.93
550.57	3072.78
550.774	3135.56
550.978	3145.63
551.182	3141.95
551.386	3084.79
551.59	3109.59
551.794	3141.18
551.998	3155.51
552.202	3109.4
552.406	3085.18
552.61	3165.01
552.814	3177.41
553.018	3201.62
553.222	3099.52
553.426	3150.67
553.63	3233.98
553.833	3132.07
554.037	3073.56
554.241	3125.29
554.445	3166.75
554.649	3130.33
554.853	3106.49
555.056	3179.73
555.26	3201.82
555.464	3172.95
555.668	3160.55
555.871	3168.88
556.075	3135.94
556.279	3080.92
556.483	3052.83
556.686	3064.84
556.89	3099.71
557.094	3077.63
557.297	2988.5
557.501	3091.58
557.704	2989.86
557.908	3068.52
558.112	3004
558.315	3121.99
558.519	3039.46
558.722	3018.34
558.926	2959.44
559.129	2930.38
559.333	2902.48
559.536	2919.14
559.74	2863.34
559.943	2824.98
560.147	2892.79
560.35	2885.62
560.553	2954.79
560.757	2851.33
560.96	2988.89
561.164	2942.78
561.367	3039.65
561.57	2950.72
561.774	2915.85
561.977	2927.47
562.18	2951.3
562.384	2967.58
562.587	2955.76
562.79	2911.2
562.993	2915.07
563.197	2930.57
563.4	2963.32
563.603	2967.19
563.806	2981.33
564.009	2886.01
564.212	2932.9
564.416	2844.55
564.619	2911.2
564.822	2828.85
565.025	2914.68
565.228	2885.24
565.431	2895.12
565.634	2803.86
565.837	2819.75
566.04	2804.83
566.243	2782.74
566.446	2666.11
566.649	2804.44
566.852	2756.78
567.055	2732.17
567.258	2804.83
567.461	2861.02
567.664	2867.02
567.867	2768.79
568.07	2786.23
568.273	2799.21
568.475	2875.35
568.678	2783.52
568.881	2761.24
569.084	2748.06
569.287	2644.79
569.489	2737.21
569.692	2770.54
569.895	2770.54
570.098	2675.6
570.3	2641.11
570.503	2626
570.706	2625.42
570.909	2626.2
571.111	2578.73
571.314	2545.02
571.516	2609.92
571.719	2593.45
571.922	2625.23
572.124	2585.31
572.327	2634.53
572.529	2578.73
572.732	2586.86
572.935	2640.73
573.137	2735.66
573.34	2622.51
573.542	2677.34
573.745	2643.44
573.947	2692.65
574.15	2608.18
574.352	2621.16
574.554	2660.88
574.757	2648.48
574.959	2565.55
575.162	2578.15
575.364	2581.63
575.566	2648.09
575.769	2471.2
575.971	2510.53
576.173	2415.59
576.376	2505.88
576.578	2569.62
576.78	2569.04
576.982	2446.59
577.185	2529.9
577.387	2483.79
577.589	2514.02
577.791	2535.72
577.993	2510.33
578.196	2491.15
578.398	2488.83
578.6	2511.88
578.802	2462.67
579.004	2448.92
579.206	2396.22
579.408	2461.51
579.61	2442.14
579.812	2489.8
580.014	2454.73
580.216	2405.9
580.418	2456.09
580.62	2415.59
580.822	2434.77
581.024	2473.52
581.226	2499.68
581.428	2413.65
581.63	2537.85
581.832	2421.79
582.034	2489.6
582.236	2450.47
582.438	2462.29
582.64	2514.02
582.841	2569.81
583.043	2561.68
583.245	2495.22
583.447	2518.67
583.649	2474.3
583.85	2510.53
584.052	2530.87
584.254	2429.35
584.456	2534.36
584.657	2451.82
584.859	2548.5
585.061	2457.83
585.262	2455.31
585.464	2421.79
585.666	2533.78
585.867	2413.46
586.069	2499.29
586.27	2442.72
586.472	2397.77
586.674	2421.99
586.875	2397.19
587.077	2406.29
587.278	2396.99
587.48	2372.39
587.681	2492.51
587.883	2458.22
588.084	2325.11
588.285	2339.06
588.487	2346.42
588.688	2377.23
588.89	2309.61
589.091	2218.74
589.292	2264.66
589.494	2184.45
589.695	2135.82
589.896	2088.93
590.098	2060.65
590.299	2124.2
590.5	2100.95
590.702	2123.81
590.903	2179.8
591.104	2260.79
591.305	2273.19
591.507	2250.91
591.708	2254.2
591.909	2236.96
592.11	2306.12
592.311	2310.19
592.512	2235.79
592.714	2183.1
592.915	2240.64
593.116	2200.34
593.317	2243.93
593.518	2220.49
593.719	2218.94
593.92	2259.43
594.121	2272.99
594.322	2272.03
594.523	2265.83
594.724	2159.07
594.925	2252.46
595.126	2238.89
595.327	2250.33
595.528	2235.21
595.729	2241.8
595.929	2208.09
596.13	2213.32
596.331	2247.23
596.532	2266.99
596.733	2298.37
596.934	2286.56
597.135	2274.35
597.335	2290.24
597.536	2237.15
597.737	2245.09
597.938	2223.01
598.138	2254.78
598.339	2252.07
598.54	2240.25
598.74	2180.77
598.941	2209.64
599.142	2296.24
599.342	2244.51
599.543	2211.96
599.744	2218.94
599.944	2200.73
600.145	2200.34
600.345	2213.71
600.546	2278.61
600.746	2252.07
600.947	2294.69
601.147	2187.94
601.348	2249.16
601.548	2198.98
601.749	2195.88
601.949	2124.78
602.15	2151.9
602.35	2147.25
602.551	2222.81
602.751	2134.66
602.951	2130.2
603.152	2062.2
603.352	2192.59
603.552	2177.48
603.753	2215.84
603.953	2190.46
604.153	2256.53
604.354	2178.06
604.554	2166.43
604.754	2212.74
604.954	2155.2
605.155	2266.6
605.355	2140.86
605.555	2222.62
605.755	2252.65
605.955	2190.07
606.155	2213.13
606.356	2174.18
606.556	2252.26
606.756	2201.89
606.956	2181.16
607.156	2267.76
607.356	2125.36
607.556	2179.8
607.756	2220.88
607.956	2258.66
608.156	2162.36
608.356	2122.06
608.556	2217.19
608.756	2192.98
608.956	2132.33
609.156	2201.31
609.356	2109.47
609.556	2097.65
609.755	2132.53
609.955	2108.31
610.155	2149.77
610.355	2147.83
610.555	2056.97
610.755	2087.19
610.954	2020.15
611.154	2114.51
611.354	2114.9
611.554	2075.76
611.753	2092.23
611.953	2064.72
612.153	2116.83
612.352	2110.63
612.552	2024.22
