Data from gum_old_FLMT105791__185__15-48-12-249.txt Node

Date: Mon Mar 20 15:48:12 GMT 2023
User: antho
Spectrometer: FLMT10579
Trigger mode: 0
Integration Time (sec): 1.000000E-1
Scans to average: 10
Electric dark correction enabled: true
Nonlinearity correction enabled: false
Boxcar width: 0
XAxis mode: Wavelengths
Number of Pixels in Spectrum: 3648
>>>>>Begin Spectral Data<<<<<
345.248	-179.93
345.464	-179.93
345.681	-179.93
345.898	-172.76
346.114	-179.15
346.331	-30.93
346.548	37.46
346.764	-0.71
346.981	-10.79
347.197	-8.46
347.414	12.66
347.631	-25.12
347.847	50.05
348.064	-29.77
348.28	28.35
348.497	-55.93
348.713	33.2
348.93	67.29
349.146	54.51
349.363	-9.43
349.579	30.29
349.796	17.31
350.012	-28.8
350.229	71.56
350.445	4.13
350.661	-8.85
350.878	16.15
351.094	38.62
351.311	25.45
351.527	33.2
351.743	10.53
351.96	68.46
352.176	47.15
352.392	53.54
352.609	56.25
352.825	30.1
353.041	15.56
353.257	53.35
353.474	66.52
353.69	49.47
353.906	26.03
354.122	-12.72
354.339	70.39
354.555	19.83
354.771	23.7
354.987	75.82
355.203	97.33
355.42	13.05
355.636	-8.85
355.852	15.95
356.068	44.43
356.284	-8.46
356.5	86.28
356.716	44.24
356.932	24.48
357.148	58.19
357.364	28.16
357.58	71.75
357.796	98.88
358.012	81.63
358.228	64.78
358.444	-40.43
358.66	100.62
358.876	59.54
359.092	19.83
359.308	53.15
359.524	62.45
359.74	0.84
359.956	15.56
360.172	32.42
360.388	109.92
360.604	2
360.819	110.11
361.035	37.65
361.251	72.72
361.467	25.83
361.683	78.34
361.898	64.58
362.114	73.49
362.33	29.13
362.546	89.19
362.762	43.08
362.977	19.44
363.193	-3.62
363.409	65.55
363.624	18.86
363.84	-0.9
364.056	25.45
364.271	54.51
364.487	84.93
364.703	46.95
364.918	6.85
365.134	35.91
365.35	52.38
365.565	159.13
365.781	65.74
365.996	32.03
366.212	116.89
366.427	45.79
366.643	19.05
366.858	39.59
367.074	11.69
367.289	117.67
367.505	156.03
367.72	-3.42
367.936	37.46
368.151	96.55
368.367	100.23
368.582	72.53
368.798	50.25
369.013	113.21
369.228	63.03
369.444	44.82
369.659	105.46
369.874	70.39
370.09	112.05
370.305	-15.05
370.52	64.78
370.736	110.31
370.951	52.38
371.166	109.92
371.381	131.23
371.597	63.81
371.812	36.49
372.027	38.23
372.242	64.58
372.458	127.55
372.673	38.04
372.888	68.84
373.103	76.59
373.318	167.66
373.533	63.03
373.749	70.01
373.964	-3.62
374.179	93.84
374.394	24.09
374.609	108.56
374.824	29.71
375.039	102.36
375.254	39.78
375.469	119.61
375.684	65.55
375.899	99.07
376.114	68.26
376.329	101.01
376.544	111.08
376.759	104.3
376.974	45.4
377.189	52.38
377.404	69.62
377.619	105.08
377.834	40.17
378.049	4.13
378.264	41.91
378.478	98.49
378.693	62.84
378.908	108.37
379.123	101.01
379.338	115.34
379.553	62.26
379.767	87.25
379.982	68.84
380.197	101.2
380.412	82.99
380.626	82.21
380.841	180.44
381.056	118.06
381.271	165.52
381.485	76.79
381.7	60.32
381.915	82.79
382.129	53.73
382.344	71.36
382.559	64.97
382.773	136.08
382.988	29.9
383.202	73.11
383.417	60.32
383.632	174.63
383.846	68.07
384.061	74.66
384.275	65.55
384.49	80.08
384.704	94.23
384.919	90.54
385.133	72.53
385.348	107.59
385.562	76.21
385.777	132.01
385.991	89.19
386.206	77.76
386.42	79.11
386.634	164.56
386.849	100.23
387.063	113.79
387.277	71.36
387.492	63.03
387.706	63.61
387.92	76.01
388.135	123.48
388.349	111.08
388.563	80.66
388.778	99.26
388.992	99.84
389.206	136.08
389.42	161.46
389.635	101.01
389.849	138.98
390.063	155.64
390.277	136.08
390.491	176.96
390.706	171.53
390.92	161.65
391.134	133.17
391.348	172.69
391.562	95.78
391.776	105.27
391.99	111.08
392.205	178.7
392.419	104.11
392.633	126.78
392.847	187.61
393.061	104.49
393.275	170.17
393.489	95.19
393.703	101.59
393.917	108.95
394.131	47.92
394.345	132.2
394.559	152.16
394.773	91.9
394.986	142.47
395.2	144.99
395.414	175.21
395.628	103.14
395.842	162.04
396.056	151.96
396.27	83.76
396.484	151.57
396.697	176.76
396.911	173.66
397.125	140.73
397.339	125.81
397.553	125.61
397.766	203.5
397.98	170.17
398.194	196.72
398.408	155.64
398.621	181.8
398.835	207.76
399.049	215.9
399.262	255.23
399.476	217.26
399.69	251.74
399.903	290.88
400.117	219.39
400.331	245.15
400.544	196.91
400.758	336.8
400.971	236.05
401.185	241.86
401.398	196.52
401.612	272.86
401.826	272.86
402.039	250.19
402.253	224.81
402.466	256.2
402.68	240.5
402.893	257.94
403.106	268.79
403.32	247.67
403.533	263.37
403.747	229.27
403.96	261.43
404.174	289.72
404.387	219.58
404.6	248.84
404.814	286.23
405.027	265.89
405.24	242.44
405.454	244.19
405.667	290.1
405.88	197.3
406.094	260.46
406.307	317.81
406.52	274.02
406.733	207.96
406.947	220.55
407.16	331.37
407.373	304.64
407.586	227.33
407.799	229.27
408.012	309.48
408.226	275.96
408.439	337.96
408.652	231.59
408.865	287.59
409.078	336.8
409.291	304.05
409.504	231.4
409.717	309.87
409.93	329.24
410.143	283.9
410.357	231.21
410.57	219.97
410.783	264.34
410.996	275.77
411.209	286.04
411.421	346.29
411.634	318.59
411.847	297.27
412.06	328.08
412.273	313.74
412.486	295.53
412.699	392.4
412.912	290.1
413.125	328.08
413.338	334.86
413.55	318.97
413.763	317.81
413.976	324.4
414.189	287.2
414.402	309.09
414.615	363.15
414.827	280.8
415.04	356.56
415.253	369.35
415.466	376.13
415.678	401.12
415.891	357.92
416.104	342.42
416.316	338.54
416.529	339.12
416.742	370.9
416.954	414.49
417.167	366.44
417.38	359.27
417.592	389.5
417.805	326.72
418.017	288.17
418.23	372.64
418.442	316.45
418.655	326.72
418.868	358.5
419.08	369.54
419.293	414.68
419.505	358.69
419.718	367.22
419.93	414.68
420.142	323.62
420.355	396.08
420.567	407.13
420.78	377.48
420.992	344.74
421.205	440.84
421.417	344.74
421.629	392.98
421.842	322.27
422.054	343.77
422.266	411.78
422.479	414.49
422.691	349
422.903	386.98
423.115	330.4
423.328	373.42
423.54	371.48
423.752	391.82
423.964	382.91
424.177	362.18
424.389	385.62
424.601	508.46
424.813	404.8
425.025	448.59
425.238	412.55
425.45	392.98
425.662	379.23
425.874	722.35
426.086	408.68
426.298	443.16
426.51	421.66
426.722	390.47
426.934	402.09
427.146	439.48
427.358	354.04
427.57	428.25
427.782	417.01
427.994	407.71
428.206	383.68
428.418	365.28
428.63	456.73
428.842	465.06
429.054	419.33
429.266	473.97
429.478	388.33
429.69	413.71
429.902	361.4
430.114	427.66
430.325	398.8
430.537	340.87
430.749	348.23
430.961	302.7
431.173	343.38
431.384	371.67
431.596	268.6
431.808	356.56
432.02	409.65
432.231	450.91
432.443	515.43
432.655	484.24
432.867	442.97
433.078	475.33
433.29	545.46
433.502	499.93
433.713	524.15
433.925	501.29
434.136	515.82
434.348	423.79
434.56	380.39
434.771	519.11
434.983	385.43
435.194	460.02
435.406	477.07
435.617	532.48
435.829	569.49
436.04	505.16
436.252	530.93
436.463	557.67
436.675	568.13
436.886	558.64
437.098	599.52
437.309	646.21
437.521	569.88
437.732	584.6
437.943	543.72
438.155	534.03
438.366	459.63
438.578	599.13
438.789	520.08
439	534.03
439.211	520.47
439.423	529.58
439.634	547.98
439.845	557.86
440.057	571.81
440.268	605.52
440.479	564.84
440.69	576.46
440.902	566.58
441.113	550.5
441.324	528.41
441.535	590.02
441.746	628.19
441.957	553.99
442.168	583.63
442.38	649.7
442.591	631.49
442.802	578.4
443.013	621.41
443.224	642.14
443.435	605.33
443.646	590.61
443.857	585.18
444.068	613.27
444.279	576.27
444.49	706.66
444.701	615.41
444.912	766.33
445.123	704.53
445.334	645.24
445.545	684.96
445.756	669.66
445.967	585.96
446.178	629.16
446.388	667.14
446.599	670.82
446.81	646.21
447.021	624.51
447.232	696.39
447.443	719.84
447.653	643.31
447.864	720.61
448.075	671.01
448.286	708.21
448.496	702.2
448.707	715.57
448.918	671.98
449.129	773.7
449.339	658.61
449.55	684.57
449.761	687.67
449.971	723.52
450.182	691.74
450.393	767.3
450.603	708.02
450.814	719.64
451.024	772.53
451.235	780.09
451.446	779.32
451.656	803.34
451.867	704.92
452.077	752.97
452.288	820.97
452.498	754.32
452.709	711.89
452.919	746.57
453.13	673.72
453.34	732.43
453.55	675.66
453.761	754.32
453.971	729.33
454.182	730.3
454.392	752.58
454.602	814
454.813	798.11
455.023	759.36
455.233	690.58
455.444	778.93
455.654	653.57
455.864	735.14
456.075	739.02
456.285	707.05
456.495	764.98
456.705	760.72
456.916	846.16
457.126	831.82
457.336	760.33
457.546	682.83
457.756	765.75
457.967	840.15
458.177	752.97
458.387	804.89
458.597	744.44
458.807	764.2
459.017	743.86
459.227	736.5
459.437	749.87
459.647	806.25
459.857	822.52
460.068	757.42
460.278	842.09
460.488	804.89
460.698	864.56
460.908	793.27
461.117	744.44
461.327	777.77
461.537	829.69
461.747	821.75
461.957	833.57
462.167	917.07
462.377	820.97
462.587	816.52
462.797	879.29
463.007	809.93
463.216	871.54
463.426	906.03
463.636	899.63
463.846	762.85
464.056	801.4
464.265	866.89
464.475	767.3
464.685	841.51
464.895	864.76
465.104	828.33
465.314	856.23
465.524	832.02
465.733	767.69
465.943	908.74
466.153	926.56
466.362	882.2
466.572	897.11
466.782	840.35
466.991	849.84
467.201	897.11
467.41	786.48
467.62	849.26
467.829	845.96
468.039	894.4
468.249	868.63
468.458	882.58
468.668	939.74
468.877	949.23
469.086	947.29
469.296	948.84
469.505	883.36
469.715	964.34
469.924	922.3
470.134	950.78
470.343	988.37
470.552	898.47
470.762	894.4
470.971	920.56
471.18	926.56
471.39	899.25
471.599	883.36
471.808	999.03
472.018	948.26
472.227	982.17
472.436	1031.57
472.645	1010.84
472.855	978.88
473.064	1065.87
473.273	1038.16
473.482	1042.42
473.691	1046.69
473.901	1043.39
474.11	1019.18
474.319	1124.19
474.528	1013.17
474.737	1152.86
474.946	1055.6
475.155	1077.11
475.364	1130.97
475.573	1093.96
475.783	1107.72
475.992	1114.3
476.201	1135.04
476.41	1112.17
476.619	1061.61
476.828	1083.89
477.037	1064.51
477.245	1098.42
477.454	1158.09
477.663	1139.49
477.872	1119.73
478.081	1236.17
478.29	1140.27
478.499	1282.09
478.708	1219.9
478.917	1276.08
479.125	1207.5
479.334	1233.46
479.543	1199.75
479.752	1222.61
479.961	1265.04
480.169	1278.02
480.378	1248.18
480.587	1400.86
480.796	1282.28
481.004	1263.88
481.213	1313.28
481.422	1317.93
481.63	1306.7
481.839	1334.98
482.048	1411.13
482.256	1308.83
482.465	1353.2
482.674	1375.48
482.882	1406.67
483.091	1394.66
483.299	1318.32
483.508	1407.25
483.716	1410.74
483.925	1433.02
484.134	1359.78
484.342	1398.53
484.551	1407.25
484.759	1377.99
484.967	1445.42
485.176	1423.53
485.384	1411.71
485.593	1494.82
485.801	1443.87
486.01	1343.12
486.218	1328.2
486.426	1212.15
486.635	1239.47
486.843	1223.19
487.051	1242.37
487.26	1268.72
487.468	1314.64
487.676	1370.24
487.885	1383.61
488.093	1396.01
488.301	1460.34
488.509	1434.57
488.717	1503.35
488.926	1487.46
489.134	1450.65
489.342	1442.71
489.55	1447.74
489.758	1464.79
489.967	1496.96
490.175	1604.87
490.383	1561.86
490.591	1651.18
490.799	1539.97
491.007	1613.59
491.215	1603.32
491.423	1623.67
491.631	1558.95
491.839	1572.32
492.047	1607
492.255	1542.68
492.463	1498.31
492.671	1505.48
492.879	1582.79
493.087	1583.56
493.295	1567.48
493.503	1639.94
493.711	1644.78
493.919	1659.51
494.127	1687.8
494.334	1692.45
494.542	1601.97
494.75	1673.07
494.958	1655.25
495.166	1728.68
495.374	1742.43
495.581	1727.32
495.789	1757.93
495.997	1772.46
496.205	1647.69
496.412	1645.37
496.62	1716.67
496.828	1694.97
497.035	1706.98
497.243	1746.11
497.451	1719.18
497.658	1717.05
497.866	1708.53
498.074	1795.91
498.281	1711.63
498.489	1808.31
498.696	1729.26
498.904	1656.6
499.112	1675.01
499.319	1770.91
499.527	1692.64
499.734	1792.23
499.942	1735.26
500.149	1734.88
500.357	1757.55
500.564	1722.67
500.771	1728.1
500.979	1705.23
501.186	1698.45
501.394	1725.96
501.601	1703.1
501.808	1721.7
502.016	1704.46
502.223	1702.33
502.43	1742.63
502.638	1715.89
502.845	1683.34
503.052	1797.46
503.26	1731
503.467	1836.4
503.674	1789.51
503.881	1795.13
504.089	1872.44
504.296	1819.16
504.503	1723.64
504.71	1736.43
504.917	1739.33
505.125	1781.96
505.332	1787.77
505.539	1816.64
505.746	1926.88
505.953	1907.51
506.16	1884.26
506.367	1928.24
506.574	1979.19
506.781	1983.26
506.988	1864.3
507.195	1919.13
507.402	1887.94
507.609	1918.36
507.816	1853.06
508.023	1845.31
508.23	1838.53
508.437	1820.71
508.644	1914.67
508.851	1874.96
509.058	1945.48
509.265	1916.61
509.472	1927.07
509.679	2028.79
509.885	1974.16
510.092	1959.04
510.299	1891.81
510.506	1905.76
510.713	1929.98
510.92	1908.67
511.126	1937.15
511.333	1998.95
511.54	1997.6
511.746	2035.19
511.953	2032.09
512.16	2074.13
512.367	1992.75
512.573	2025.11
512.78	1978.22
512.987	1979.19
513.193	2008.84
513.4	1902.66
513.606	1970.09
513.813	1993.34
514.02	1995.47
514.226	2063.86
514.433	1993.14
514.639	1893.17
514.846	1971.83
515.052	1951.29
515.259	2001.47
515.465	1976.09
515.672	2007.29
515.878	2094.08
516.085	2058.24
516.291	2072
516.497	2036.15
516.704	1967.96
516.91	1974.16
517.117	1885.61
517.323	1798.62
517.529	1827.49
517.736	1869.73
517.942	1820.51
518.148	1859.46
518.354	1979.77
518.561	1921.46
518.767	1939.09
518.973	1952.07
519.179	1962.72
519.386	1938.51
519.592	1970.86
519.798	1988.49
520.004	2110.36
520.21	2047
520.417	2140.97
520.623	2161.12
520.829	2187.08
521.035	2147.37
521.241	2170.81
521.447	2212.08
521.653	2339.56
521.859	2153.76
522.065	2260.13
522.271	2326.58
522.477	2265.55
522.683	2304.69
522.889	2261.09
523.095	2271.75
523.301	2233
523.507	2216.73
523.713	2201.23
523.919	2226.41
524.125	2314.76
524.331	2289.58
524.537	2381.41
524.742	2389.94
524.948	2424.81
525.154	2401.76
525.36	2506.57
525.566	2401.95
525.772	2444.77
525.977	2367.85
526.183	2424.23
526.389	2457.94
526.595	2379.67
526.8	2350.02
527.006	2269.43
527.212	2214.21
527.417	2201.81
527.623	2153.76
527.829	2266.52
528.034	2322.51
528.24	2336.66
528.446	2371.53
528.651	2461.04
528.857	2472.28
529.062	2501.34
529.268	2528.47
529.473	2508.32
529.679	2543
529.884	2650.14
530.09	2588.92
530.295	2550.17
530.501	2568.77
530.706	2554.62
530.912	2512.97
531.117	2564.7
531.323	2614.68
531.528	2650.33
531.733	2688.5
531.939	2622.82
532.144	2586.4
532.35	2616.43
532.555	2662.35
532.76	2573.8
532.966	2618.36
533.171	2556.56
533.376	2510.64
533.581	2472.28
533.787	2559.85
533.992	2586.59
534.197	2613.13
534.402	2607.51
534.607	2609.84
534.813	2707.29
535.018	2590.08
535.223	2621.66
535.428	2635.41
535.633	2691.41
535.838	2719.11
536.043	2702.64
536.249	2792.16
536.454	2697.8
536.659	2788.47
536.864	2706.71
537.069	2683.08
537.274	2668.93
537.479	2679.59
537.684	2656.73
537.889	2629.21
538.094	2723.38
538.299	2719.31
538.504	2709.04
538.708	2739.07
538.913	2762.9
539.118	2740.43
539.323	2729.58
539.528	2705.55
539.733	2673.97
539.938	2737.13
540.142	2711.17
540.347	2674.36
540.552	2645.68
540.757	2640.45
540.962	2651.3
541.166	2602.67
541.371	2592.98
541.576	2659.05
541.781	2560.82
541.985	2709.43
542.19	2698.96
542.395	2808.82
542.599	2812.11
542.804	2749.14
543.008	2821.41
543.213	2722.02
543.418	2720.08
543.622	2828
543.827	2673.97
544.031	2807.85
544.236	2857.25
544.44	2794.48
544.645	2855.32
544.849	2776.07
545.054	2826.84
545.258	2910.73
545.463	2902.2
545.667	2784.99
545.872	2870.82
546.076	2852.8
546.281	2781.5
546.485	2837.49
546.689	2826.84
546.894	2845.05
547.098	2848.92
547.302	2782.47
547.507	2838.66
547.711	2863.45
547.915	2895.81
548.119	2738.1
548.324	2726.48
548.528	2866.55
548.732	2817.73
548.936	2836.91
549.141	2844.86
549.345	2792.16
549.549	2822.38
549.753	2867.52
549.957	2928.94
550.161	2872.17
550.366	2903.17
550.57	2847.57
550.774	2836.14
550.978	2857.84
551.182	2880.31
551.386	2790.8
551.59	2798.36
551.794	2861.13
551.998	2871.59
552.202	2817.73
552.406	2795.26
552.61	2882.83
552.814	2839.04
553.018	2915.77
553.222	2826.64
553.426	2815.21
553.63	2923.32
553.833	2845.82
554.037	2735.97
554.241	2860.35
554.445	2846.6
554.649	2823.16
554.853	2817.54
555.056	2908.99
555.26	2929.14
555.464	2870.24
555.668	2851.83
555.871	2861.32
556.075	2916.54
556.279	2842.92
556.483	2765.81
556.686	2806.69
556.89	2784.6
557.094	2810.17
557.297	2729.96
557.501	2793.12
557.704	2693.93
557.908	2793.71
558.112	2703.03
558.315	2846.41
558.519	2783.24
558.722	2734.81
558.926	2733.45
559.129	2659.44
559.333	2651.5
559.536	2661.38
559.74	2629.41
559.943	2621.85
560.147	2595.31
560.35	2669.9
560.553	2644.13
560.757	2612.55
560.96	2740.62
561.164	2680.56
561.367	2726.28
561.57	2671.65
561.774	2733.06
561.977	2648.2
562.18	2611.39
562.384	2742.56
562.587	2626.31
562.79	2625.53
562.993	2623.4
563.197	2669.9
563.4	2739.46
563.603	2682.49
563.806	2782.66
564.009	2641.61
564.212	2664.28
564.416	2552.68
564.619	2668.16
564.822	2568.18
565.025	2655.76
565.228	2600.35
565.431	2643.75
565.634	2524.2
565.837	2553.85
566.04	2527.69
566.243	2519.36
566.446	2401.95
566.649	2573.22
566.852	2443.41
567.055	2502.7
567.258	2534.86
567.461	2576.32
567.664	2587.17
567.867	2485.45
568.07	2563.15
568.273	2568.77
568.475	2615.46
568.678	2506.77
568.881	2500.76
569.084	2486.04
569.287	2358.74
569.489	2389.36
569.692	2488.55
569.895	2492.82
570.098	2405.05
570.3	2404.86
570.503	2324.06
570.706	2361.65
570.909	2378.12
571.111	2308.56
571.314	2299.46
571.516	2339.37
571.719	2302.94
571.922	2298.29
572.124	2352.93
572.327	2377.92
572.529	2299.84
572.732	2295
572.935	2386.45
573.137	2438.76
573.34	2341.5
573.542	2409.12
573.745	2388.19
573.947	2375.99
574.15	2369.4
574.352	2339.37
574.554	2396.52
574.757	2313.41
574.959	2278.73
575.162	2271.94
575.364	2245.21
575.566	2407.96
575.769	2257.8
575.971	2254.51
576.173	2153.57
576.376	2266.13
576.578	2298.29
576.78	2332.97
576.982	2162.28
577.185	2235.71
577.387	2226.61
577.589	2186.11
577.791	2232.42
577.993	2215.56
578.196	2215.56
578.398	2245.21
578.6	2195.41
578.802	2166.16
579.004	2182.82
579.206	2121.79
579.408	2169.06
579.61	2124.12
579.812	2195.22
580.014	2127.99
580.216	2168.68
580.418	2182.43
580.62	2156.66
580.822	2112.49
581.024	2170.81
581.226	2184.76
581.428	2125.08
581.63	2243.85
581.832	2143.49
582.034	2213.24
582.236	2191.54
582.438	2214.79
582.64	2236.3
582.841	2271.56
583.043	2295.19
583.245	2194.25
583.447	2228.93
583.649	2191.73
583.85	2197.35
584.052	2229.9
584.254	2152.4
584.456	2238.62
584.657	2135.55
584.859	2203.75
585.061	2156.47
585.262	2151.43
585.464	2117.33
585.666	2163.64
585.867	2109
586.069	2164.8
586.27	2117.14
586.472	2129.54
586.674	2108.81
586.875	2086.72
587.077	2097.77
587.278	2084.59
587.48	2099.32
587.681	2214.79
587.883	2102.61
588.084	2017.36
588.285	2055.34
588.487	2054.75
588.688	2064.05
588.89	1971.83
589.091	1965.24
589.292	1898.59
589.494	1891.81
589.695	1875.54
589.896	1792.61
590.098	1786.22
590.299	1839.69
590.5	1827.68
590.702	1862.75
590.903	1883.68
591.104	2000.5
591.305	1948.19
591.507	2015.81
591.708	1979.58
591.909	1923.39
592.11	2013.87
592.311	1961.76
592.512	1939.67
592.714	1881.54
592.915	1956.33
593.116	1965.63
593.317	1964.08
593.518	1952.65
593.719	1940.64
593.92	1984.23
594.121	1985.39
594.322	1977.26
594.523	1973.77
594.724	1912.54
594.925	1949.74
595.126	1951.68
595.327	1983.45
595.528	1951.1
595.729	1935.02
595.929	1934.05
596.13	1970.86
596.331	1960.01
596.532	1966.21
596.733	2003.02
596.934	1960.01
597.135	1995.47
597.335	1968.15
597.536	1927.07
597.737	1962.72
597.938	1920.68
598.138	1933.08
598.339	1900.72
598.54	1938.51
598.74	1908.28
598.941	1922.42
599.142	2013.1
599.342	1976.29
599.543	1885.23
599.744	1948.77
599.944	1891.23
600.145	1905.76
600.345	1979.19
600.546	1968.54
600.746	1983.07
600.947	1985.59
601.147	1943.35
601.348	1970.86
601.548	1905.96
601.749	1943.74
601.949	1834.08
602.15	1895.11
602.35	1898.98
602.551	1896.27
602.751	1832.53
602.951	1904.21
603.152	1818.58
603.352	1906.15
603.552	1880.77
603.753	1939.67
603.953	1933.66
604.153	1907.7
604.354	1880.77
604.554	1893.75
604.754	1911.77
604.954	1852.87
605.155	1903.24
605.355	1886.58
605.555	1927.46
605.755	1936.57
605.955	1924.94
606.155	1925.52
606.356	1906.92
606.556	1887.94
606.756	1900.14
606.956	1801.33
607.156	1941.61
607.356	1852.48
607.556	1900.14
607.756	1864.69
607.956	1949.74
608.156	1898.59
608.356	1827.1
608.556	1869.14
608.756	1872.83
608.956	1807.73
609.156	1836.98
609.356	1830.98
609.556	1794.36
609.755	1830.2
609.955	1803.66
610.155	1807.73
610.355	1830.2
610.555	1767.81
610.755	1813.73
610.954	1709.5
611.154	1797.85
611.354	1788.16
611.554	1761.81
611.753	1758.51
611.953	1723.64
612.153	1806.37
612.352	1777.89
612.552	1723.64
612.752	1669
612.951	1762
613.151	1814.12
613.351	1712.79
613.55	1759.29
613.75	1756.96
613.949	1731.2
614.149	1734.3
