Data from gum_old_FLMT105791__164__15-47-51-250.txt Node

Date: Mon Mar 20 15:47:51 GMT 2023
User: antho
Spectrometer: FLMT10579
Trigger mode: 0
Integration Time (sec): 1.000000E-1
Scans to average: 10
Electric dark correction enabled: true
Nonlinearity correction enabled: false
Boxcar width: 0
XAxis mode: Wavelengths
Number of Pixels in Spectrum: 3648
>>>>>Begin Spectral Data<<<<<
345.248	-167.7
345.464	-167.7
345.681	-167.7
345.898	-205.1
346.114	-196.38
346.331	-58.24
346.548	40.96
346.764	-18.52
346.981	14.22
347.197	-10.77
347.414	18.68
347.631	-17.55
347.847	50.84
348.064	15.97
348.28	15.97
348.497	-48.94
348.713	-2.63
348.93	37.09
349.146	17.91
349.363	25.46
349.579	8.41
349.796	17.32
350.012	-5.73
350.229	54.14
350.445	41.54
350.661	-12.32
350.878	6.09
351.094	27.21
351.311	31.27
351.527	41.35
351.743	-12.51
351.96	51.62
352.176	65.76
352.392	55.69
352.609	48.71
352.825	21.97
353.041	41.93
353.257	7.06
353.474	31.66
353.69	36.12
353.906	31.47
354.122	-14.64
354.339	58.79
354.555	15.58
354.771	23.33
354.987	70.8
355.203	91.92
355.42	7.25
355.636	5.31
355.852	40.96
356.068	39.99
356.284	-7.48
356.5	71.38
356.716	50.84
356.932	15
357.148	36.31
357.364	16.74
357.58	73.9
357.796	71.38
358.012	78.74
358.228	32.82
358.444	-68.31
358.66	80.1
358.876	64.4
359.092	6.28
359.308	47.55
359.524	50.26
359.74	25.46
359.956	-2.05
360.172	24.11
360.388	86.3
360.604	15.58
360.819	110.13
361.035	48.71
361.251	89.98
361.467	5.7
361.683	97.92
361.898	51.23
362.114	99.47
362.33	39.02
362.546	60.92
362.762	37.86
362.977	49.1
363.193	-4.96
363.409	73.32
363.624	15.19
363.84	15.97
364.056	20.04
364.271	56.27
364.487	52.78
364.703	9.57
364.918	15.97
365.134	50.65
365.35	8.99
365.565	127.37
365.781	66.54
365.996	91.72
366.212	115.17
366.427	78.94
366.643	21.59
366.858	27.79
367.074	26.62
367.289	104.12
367.505	152.95
367.72	-2.44
367.936	18.49
368.151	104.32
368.367	67.89
368.582	78.16
368.798	38.06
369.013	85.91
369.228	61.11
369.444	73.12
369.659	101.8
369.874	72.15
370.09	128.34
370.305	-11.93
370.52	43.29
370.736	116.33
370.951	89.2
371.166	95.21
371.381	107.61
371.597	72.15
371.812	9.57
372.027	37.09
372.242	62.66
372.458	123.89
372.673	33.99
372.888	35.73
373.103	83
373.318	153.72
373.533	62.27
373.749	92.3
373.964	14.61
374.179	101.22
374.394	33.99
374.609	88.04
374.824	9.77
375.039	95.79
375.254	74.09
375.469	111.49
375.684	54.91
375.899	105.29
376.114	75.64
376.329	84.75
376.544	96.37
376.759	77.39
376.974	48.13
377.189	44.06
377.404	56.85
377.619	120.98
377.834	-1.86
378.049	20.04
378.264	22.94
378.478	84.36
378.693	61.89
378.908	93.08
379.123	77.19
379.338	108.97
379.553	95.21
379.767	72.93
379.982	95.21
380.197	105.48
380.412	56.65
380.626	90.75
380.841	164.77
381.056	90.95
381.271	137.06
381.485	62.85
381.7	26.82
381.915	90.17
382.129	61.89
382.344	45.22
382.559	61.69
382.773	120.01
382.988	16.55
383.202	79.52
383.417	37.47
383.632	185.5
383.846	51.23
384.061	45.81
384.275	67.12
384.49	83.97
384.704	93.08
384.919	107.03
385.133	71.19
385.348	103.93
385.562	35.54
385.777	125.24
385.991	91.53
386.206	80.49
386.42	47.74
386.634	131.64
386.849	94.24
387.063	90.75
387.277	85.33
387.492	49.1
387.706	67.7
387.92	49.49
388.135	115.36
388.349	73.9
388.563	106.84
388.778	124.08
388.992	118.27
389.206	119.43
389.42	170
389.635	123.89
389.849	140.55
390.063	159.15
390.277	149.65
390.491	172.13
390.706	146.75
390.92	154.5
391.134	126.6
391.348	145.78
391.562	58.59
391.776	122.34
391.99	101.22
392.205	138.8
392.419	100.44
392.633	100.83
392.847	157.6
393.061	57.62
393.275	196.35
393.489	101.22
393.703	85.72
393.917	119.82
394.131	64.02
394.345	114.39
394.559	148.88
394.773	116.14
394.986	143.84
395.2	113.23
395.414	185.11
395.628	69.83
395.842	145.78
396.056	151.98
396.27	62.47
396.484	147.52
396.697	138.22
396.911	159.92
397.125	144.23
397.339	141.71
397.553	120.98
397.766	177.55
397.98	184.14
398.194	186.85
398.408	164.77
398.621	193.83
398.835	203.71
399.049	153.72
399.262	221.15
399.476	202.35
399.69	247.11
399.903	271.13
400.117	168.06
400.331	252.53
400.544	177.36
400.758	307.36
400.971	244.78
401.185	269.78
401.398	194.22
401.612	271.33
401.826	240.71
402.039	251.76
402.253	218.24
402.466	259.12
402.68	243.43
402.893	271.52
403.106	284.7
403.32	231.22
403.533	280.24
403.747	244.59
403.96	248.08
404.174	270.94
404.387	228.51
404.6	245.56
404.814	305.43
405.027	250.98
405.24	264.93
405.454	235.29
405.667	302.91
405.88	198.87
406.094	255.63
406.307	305.81
406.52	271.13
406.733	214.75
406.947	202.93
407.16	331
407.373	307.36
407.586	219.79
407.799	227.73
408.012	293.41
408.226	254.66
408.439	323.25
408.652	236.06
408.865	297.1
409.078	338.75
409.291	301.94
409.504	259.12
409.717	320.34
409.93	327.32
410.143	287.02
410.357	202.55
410.57	222.5
410.783	248.08
410.996	277.91
411.209	270.94
411.421	314.73
411.634	300.39
411.847	286.44
412.06	324.99
412.273	290.7
412.486	311.24
412.699	407.14
412.912	324.61
413.125	330.23
413.338	330.81
413.55	318.6
413.763	319.18
413.976	311.43
414.189	269.58
414.402	305.43
414.615	370.14
414.827	279.27
415.04	371.11
415.253	346.89
415.466	374.4
415.678	405.01
415.891	340.11
416.104	350.57
416.316	316.86
416.529	309.88
416.742	386.03
416.954	399.78
417.167	350.96
417.38	337.78
417.592	350.38
417.805	320.34
418.017	275.01
418.23	356.58
418.442	343.79
418.655	323.83
418.868	337.98
419.08	378.28
419.293	379.44
419.505	369.56
419.718	387.58
419.93	395.91
420.142	361.61
420.355	387.58
420.567	405.4
420.78	366.26
420.992	347.66
421.205	421.87
421.417	334.88
421.629	357.93
421.842	345.53
422.054	339.14
422.266	431.36
422.479	436.21
422.691	356.77
422.903	398.62
423.115	349.6
423.328	359.87
423.54	397.07
423.752	378.86
423.964	352.31
424.177	366.26
424.389	390.48
424.601	466.62
424.813	422.45
425.025	434.66
425.238	406.95
425.45	374.21
425.662	373.43
425.874	725.47
426.086	409.86
426.298	413.54
426.51	414.51
426.722	388.54
426.934	392.61
427.146	433.49
427.358	391.06
427.57	429.81
427.782	387.19
427.994	383.12
428.206	364.52
428.418	355.03
428.63	433.69
428.842	462.36
429.054	419.16
429.266	416.83
429.478	366.84
429.69	398.23
429.902	330.03
430.114	413.15
430.325	407.14
430.537	359.09
430.749	358.71
430.961	272.1
431.173	332.55
431.384	363.74
431.596	256.41
431.808	341.27
432.02	411.99
432.231	456.74
432.443	515.06
432.655	465.46
432.867	407.34
433.078	441.63
433.29	535.6
433.502	477.47
433.713	503.05
433.925	460.42
434.136	545.67
434.348	413.34
434.56	384.28
434.771	534.44
434.983	374.21
435.194	404.82
435.406	475.15
435.617	536.37
435.829	540.64
436.04	506.73
436.252	531.34
436.463	575.9
436.675	581.71
436.886	543.15
437.098	532.89
437.309	610.97
437.521	550.32
437.732	550.71
437.943	498.59
438.155	527.65
438.366	465.46
438.578	576.87
438.789	497.82
439	493.75
439.211	471.66
439.423	500.92
439.634	554
439.845	553.62
440.057	555.17
440.268	570.09
440.479	537.54
440.69	548.39
440.902	554.78
441.113	517.58
441.324	499.17
441.535	581.71
441.746	622.59
441.957	516.61
442.168	571.25
442.38	607.48
442.591	604.77
442.802	595.66
443.013	584.23
443.224	611.74
443.435	574.93
443.646	625.69
443.857	565.05
444.068	562.53
444.279	552.65
444.49	692.15
444.701	585
444.912	711.91
445.123	671.61
445.334	629.76
445.545	627.43
445.756	608.06
445.967	564.08
446.178	597.98
446.388	654.37
446.599	616
446.81	624.14
447.021	609.42
447.232	645.65
447.443	682.65
447.653	623.37
447.864	698.93
448.075	681.68
448.286	704.35
448.496	648.75
448.707	689.24
448.918	636.73
449.129	748.91
449.339	612.13
449.55	710.94
449.761	646.62
449.971	706.48
450.182	670.64
450.393	682.65
450.603	652.62
450.814	736.9
451.024	740.58
451.235	774.1
451.446	776.62
451.656	772.16
451.867	708.03
452.077	701.25
452.288	765.19
452.498	750.27
452.709	696.41
452.919	706.29
453.13	657.66
453.34	723.15
453.55	636.73
453.761	698.73
453.971	706.29
454.182	720.05
454.392	735.35
454.602	785.92
454.813	738.06
455.023	740.39
455.233	675.29
455.444	726.83
455.654	651.46
455.864	697.96
456.075	703
456.285	696.02
456.495	710.75
456.705	757.24
456.916	787.66
457.126	800.84
457.336	768.87
457.546	696.6
457.756	697.76
457.967	804.33
458.177	728.57
458.387	734.19
458.597	701.45
458.807	728.38
459.017	716.17
459.227	749.5
459.437	724.31
459.647	783.4
459.857	760.34
460.068	719.85
460.278	806.46
460.488	763.06
460.698	839.01
460.908	776.81
461.117	716.36
461.327	736.9
461.537	797.93
461.747	797.16
461.957	775.65
462.167	886.09
462.377	810.91
462.587	776.23
462.797	840.17
463.007	786.89
463.216	824.28
463.426	863.81
463.636	836.29
463.846	737.29
464.056	796.77
464.265	801.81
464.475	775.26
464.685	795.61
464.895	794.44
465.104	779.53
465.314	871.17
465.524	789.02
465.733	768.87
465.943	861.48
466.153	895.97
466.362	858.38
466.572	802.39
466.782	833.19
466.991	821.96
467.201	880.08
467.41	759.96
467.62	846.17
467.829	812.85
468.039	843.46
468.249	849.47
468.458	859.16
468.668	870.2
468.877	872.91
469.086	910.89
469.296	900.04
469.505	834.16
469.715	951.96
469.924	927.94
470.134	963.59
470.343	925.8
470.552	886.09
470.762	867.49
470.971	873.3
471.18	876.21
471.39	902.75
471.599	872.52
471.808	934.33
472.018	890.35
472.227	961.84
472.436	976.95
472.645	947.5
472.855	922.32
473.064	1051.35
473.273	995.36
473.482	980.44
473.691	1035.47
473.901	1033.33
474.11	947.31
474.319	1109.28
474.528	996.14
474.737	1087.58
474.946	1054.84
475.155	1037.98
475.364	1073.25
475.573	1059.88
475.783	1069.57
475.992	1106.96
476.201	1110.06
476.41	1036.43
476.619	1029.46
476.828	1031.98
477.037	1052.32
477.245	1050.58
477.454	1118.97
477.663	1079.06
477.872	1094.75
478.081	1184.07
478.29	1108.12
478.499	1211.19
478.708	1198.21
478.917	1230.38
479.125	1133.31
479.334	1186.4
479.543	1166.83
479.752	1199.18
479.961	1205.77
480.169	1253.82
480.378	1205.19
480.587	1363.09
480.796	1246.65
481.004	1225.73
481.213	1254.21
481.422	1256.34
481.63	1251.49
481.839	1272.61
482.048	1345.07
482.256	1294.51
482.465	1317.37
482.674	1328.99
482.882	1313.11
483.091	1422.19
483.299	1314.85
483.508	1359.02
483.716	1353.79
483.925	1356.7
484.134	1309.62
484.342	1287.53
484.551	1402.23
484.759	1364.84
484.967	1385.37
485.176	1372.39
485.384	1390.8
485.593	1398.35
485.801	1378.59
486.01	1351.08
486.218	1290.05
486.426	1170.7
486.635	1198.02
486.843	1176.32
487.051	1247.04
487.26	1217.2
487.468	1270.48
487.676	1319.5
487.885	1302.84
488.093	1363.67
488.301	1414.05
488.509	1406.49
488.717	1465.97
488.926	1408.43
489.134	1407.07
489.342	1415.99
489.55	1382.27
489.758	1425.09
489.967	1434
490.175	1547.73
490.383	1515.38
490.591	1573.7
490.799	1462.1
491.007	1583
491.215	1533.2
491.423	1506.27
491.631	1520.42
491.839	1520.61
492.047	1559.94
492.255	1436.72
492.463	1440.98
492.671	1430.32
492.879	1508.02
493.087	1488.83
493.295	1514.6
493.503	1556.26
493.711	1557.81
493.919	1618.84
494.127	1595.78
494.334	1612.45
494.542	1567.5
494.75	1575.83
494.958	1599.46
495.166	1690.72
495.374	1609.93
495.581	1647.71
495.789	1652.74
495.997	1707.58
496.205	1632.59
496.412	1613.61
496.62	1603.53
496.828	1650.23
497.035	1645.38
497.243	1678.32
497.451	1671.15
497.658	1696.92
497.866	1658.17
498.074	1751.94
498.281	1649.45
498.489	1779.26
498.696	1660.3
498.904	1624.65
499.112	1628.33
499.319	1701.96
499.527	1683.74
499.734	1752.52
499.942	1603.34
500.149	1689.17
500.357	1682.39
500.564	1637.44
500.771	1664.95
500.979	1614.19
501.186	1617.48
501.394	1694.98
501.601	1639.38
501.808	1681.61
502.016	1637.44
502.223	1640.15
502.43	1682.39
502.638	1656.23
502.845	1626.39
503.052	1730.24
503.26	1648.48
503.467	1788.95
503.674	1720.56
503.881	1750.39
504.089	1818.98
504.296	1759.31
504.503	1657.39
504.71	1697.11
504.917	1661.08
505.125	1725.01
505.332	1755.04
505.539	1745.55
505.746	1839.9
505.953	1809.29
506.16	1806
506.367	1905
506.574	1903.84
506.781	1872.26
506.988	1806.77
507.195	1856.18
507.402	1823.63
507.609	1843.78
507.816	1806
508.023	1794.57
508.23	1797.86
508.437	1753.3
508.644	1775.58
508.851	1845.91
509.058	1875.36
509.265	1853.08
509.472	1871.29
509.679	1950.73
509.885	1866.25
510.092	1863.74
510.299	1848.82
510.506	1847.07
510.713	1848.62
510.92	1838.16
511.126	1876.52
511.333	1893.57
511.54	1917.02
511.746	1950.92
511.953	1946.47
512.16	1994.51
512.367	1965.07
512.573	1907.13
512.78	1922.83
512.987	1890.47
513.193	1891.63
513.4	1795.54
513.606	1913.33
513.813	1909.07
514.02	1898.8
514.226	1961.97
514.433	1936.58
514.639	1861.6
514.846	1907.52
515.052	1863.93
515.259	1911.78
515.465	1926.32
515.672	1949.76
515.878	2023.38
516.085	1960.8
516.291	1974.56
516.497	1941.43
516.704	1899.38
516.91	1832.54
517.117	1803.09
517.323	1722.69
517.529	1747.68
517.736	1738.57
517.942	1747.29
518.148	1768.02
518.354	1858.7
518.561	1844.17
518.767	1813.55
518.973	1896.67
519.179	1911.4
519.386	1812.39
519.592	1867.03
519.798	1884.47
520.004	2027.45
520.21	1956.15
520.417	1997.42
520.623	2086.93
520.829	2115.61
521.035	2091
521.241	2063.88
521.447	2088.68
521.653	2202.02
521.859	2090.42
522.065	2100.11
522.271	2185.55
522.477	2166.17
522.683	2226.62
522.889	2170.24
523.095	2141.57
523.301	2154.55
523.507	2076.47
523.713	2120.84
523.919	2098.94
524.125	2247.94
524.331	2213.45
524.537	2291.92
524.742	2311.29
524.948	2290.56
525.154	2267.31
525.36	2392.08
525.566	2305.29
525.772	2329.7
525.977	2245.61
526.183	2289.79
526.389	2363.8
526.595	2233.21
526.8	2211.51
527.006	2133.63
527.212	2101.08
527.417	2058.06
527.623	2045.28
527.829	2152.03
528.034	2193.88
528.24	2181.67
528.446	2220.81
528.651	2355.27
528.857	2357.4
529.062	2414.36
529.268	2366.9
529.473	2414.75
529.679	2421.53
529.884	2516.86
530.09	2471.71
530.295	2441.1
530.501	2441.1
530.706	2432.58
530.912	2409.33
531.117	2486.05
531.323	2437.23
531.528	2540.69
531.733	2545.73
531.939	2464.74
532.144	2515.5
532.35	2527.32
532.555	2504.46
532.76	2466.68
532.966	2519.57
533.171	2433.93
533.376	2376.2
533.581	2359.15
533.787	2447.69
533.992	2517.05
534.197	2481.98
534.402	2469.78
534.607	2516.28
534.813	2588.54
535.018	2453.7
535.223	2506.98
535.428	2521.31
535.633	2552.7
535.838	2587.57
536.043	2566.65
536.249	2661.2
536.454	2585.64
536.659	2592.61
536.864	2592.42
537.069	2581.18
537.274	2606.95
537.479	2563.94
537.684	2535.26
537.889	2487.8
538.094	2659.65
538.299	2574.98
538.504	2535.46
538.708	2593
538.913	2667.4
539.118	2597.26
539.323	2611.21
539.528	2586.99
539.733	2559.68
539.938	2601.72
540.142	2634.27
540.347	2575.56
540.552	2541.08
540.757	2536.43
540.962	2542.63
541.166	2470.16
541.371	2470.75
541.576	2551.73
541.781	2417.85
541.985	2564.91
542.19	2549.41
542.395	2661.78
542.599	2694.14
542.804	2616.44
543.008	2665.46
543.213	2567.43
543.418	2580.41
543.622	2604.82
543.827	2523.25
544.031	2647.06
544.236	2680.57
544.44	2642.02
544.645	2716.61
544.849	2610.82
545.054	2661.39
545.258	2757.1
545.463	2723.97
545.667	2608.89
545.872	2698.2
546.076	2666.43
546.281	2675.92
546.485	2636.79
546.689	2661.97
546.894	2720.29
547.098	2678.83
547.302	2636.01
547.507	2652.87
547.711	2679.8
547.915	2722.81
548.119	2602.49
548.324	2624.39
548.528	2699.95
548.732	2687.74
548.936	2701.3
549.141	2697.04
549.345	2670.89
549.549	2687.94
549.753	2705.95
549.957	2758.46
550.161	2769.89
550.366	2737.15
550.57	2677.28
550.774	2692.59
550.978	2695.1
551.182	2695.88
551.386	2647.83
551.59	2662.17
551.794	2622.06
551.998	2698.01
552.202	2666.04
552.406	2711.96
552.61	2748
552.814	2703.44
553.018	2739.09
553.222	2665.46
553.426	2706.34
553.63	2777.64
553.833	2702.08
554.037	2605.21
554.241	2694.52
554.445	2727.07
554.649	2703.63
554.853	2665.66
555.056	2731.92
555.26	2746.25
555.464	2740.44
555.668	2736.76
555.871	2768.73
556.075	2779.77
556.279	2680.38
556.483	2619.16
556.686	2697.62
556.89	2711.96
557.094	2717
557.297	2574.21
557.501	2676.7
557.704	2569.75
557.908	2643.18
558.112	2592.42
558.315	2719.13
558.519	2627.1
558.722	2571.49
558.926	2573.43
559.129	2526.35
559.333	2513.76
559.536	2515.31
559.74	2508.14
559.943	2465.9
560.147	2496.32
560.35	2498.84
560.553	2500.19
560.757	2447.11
560.96	2554.64
561.164	2516.66
561.367	2638.14
561.57	2573.43
561.774	2569.56
561.977	2503.49
562.18	2498.45
562.384	2622.84
562.587	2519.18
562.79	2482.76
562.993	2516.86
563.197	2561.23
563.4	2556.19
563.603	2580.6
563.806	2637.17
564.009	2503.1
564.212	2564.71
564.416	2469.2
564.619	2530.61
564.822	2428.7
565.025	2536.23
565.228	2506.2
565.431	2509.3
565.634	2404.87
565.837	2430.64
566.04	2390.15
566.243	2391.31
566.446	2315.36
566.649	2450.6
566.852	2367.28
567.055	2416.5
567.258	2370
567.461	2466.48
567.664	2460.28
567.867	2363.02
568.07	2417.27
568.273	2416.69
568.475	2462.8
568.678	2348.88
568.881	2376.97
569.084	2387.24
569.287	2238.44
569.489	2291.53
569.692	2360.5
569.895	2347.33
570.098	2260.92
570.3	2251.62
570.503	2241.35
570.706	2226.82
570.909	2243.67
571.111	2190.01
571.314	2174.51
571.516	2205.12
571.719	2255.1
571.922	2177.99
572.124	2175.67
572.327	2200.47
572.529	2158.23
572.732	2196.79
572.935	2220.81
573.137	2329.7
573.34	2186.71
573.542	2270.22
573.745	2258.98
573.947	2246.39
574.15	2236.89
574.352	2165.98
574.554	2257.04
574.757	2212.09
574.959	2185.16
575.162	2151.26
575.364	2150.29
575.566	2251.81
575.769	2079.96
575.971	2128.2
576.173	2006.33
576.376	2158.23
576.578	2143.51
576.78	2214.42
576.982	2044.31
577.185	2127.43
577.387	2064.26
577.589	2085.19
577.791	2119.48
577.993	2103.01
578.196	2132.46
578.398	2094.29
578.6	2135.37
578.802	2052.83
579.004	2036.75
579.206	2031.52
579.408	2074.34
579.61	1999.75
579.812	2102.24
580.014	2026.1
580.216	2035.01
580.418	2041.98
580.62	2029.39
580.822	2026.1
581.024	2032.49
581.226	2070.27
581.428	2042.37
581.63	2131.69
581.832	2027.84
582.034	2105.34
582.236	2049.93
582.438	2094.29
582.64	2152.42
582.841	2139.24
583.043	2165.79
583.245	2085.58
583.447	2070.85
583.649	2069.49
583.85	2066.2
584.052	2091
584.254	2025.13
584.456	2107.66
584.657	2020.28
584.859	2042.95
585.061	2036.36
585.262	2026.1
585.464	1970.49
585.666	2058.06
585.867	2004.4
586.069	2050.9
586.27	2001.49
586.472	1992.19
586.674	1965.65
586.875	1975.14
587.077	1968.94
587.278	2009.63
587.48	1988.7
587.681	2109.21
587.883	1999.55
588.084	1912.75
588.285	1959.83
588.487	1947.05
588.688	1960.03
588.89	1869.16
589.091	1872.84
589.292	1850.95
589.494	1784.3
589.695	1785.85
589.896	1685.1
590.098	1709.13
590.299	1766.86
590.5	1726.76
590.702	1775
590.903	1771.71
591.104	1870.71
591.305	1861.8
591.507	1900.16
591.708	1859.67
591.909	1828.86
592.11	1970.3
592.311	1899.38
592.512	1838.55
592.714	1788.76
592.915	1796.12
593.116	1824.99
593.317	1885.82
593.518	1828.28
593.719	1848.43
593.92	1882.34
594.121	1894.54
594.322	1828.09
594.523	1859.47
594.724	1796.31
594.925	1825.18
595.126	1835.45
595.327	1841.07
595.528	1870.13
595.729	1862.19
595.929	1826.34
596.13	1851.53
596.331	1809.1
596.532	1875.36
596.733	1930.58
596.934	1871.87
597.135	1890.28
597.335	1855.4
597.536	1807.55
597.737	1840.29
597.938	1816.46
598.138	1832.93
598.339	1830.41
598.54	1855.99
598.74	1789.14
598.941	1842.04
599.142	1874.78
599.342	1853.47
599.543	1799.8
599.744	1793.02
599.944	1788.17
600.145	1812.97
600.345	1797.86
600.546	1886.21
600.746	1892.41
600.947	1906.94
601.147	1804.06
601.348	1864.12
601.548	1774.42
601.749	1823.44
601.949	1780.42
602.15	1808.32
602.35	1786.43
602.551	1857.34
602.751	1724.82
602.951	1775
603.152	1710.68
603.352	1857.15
603.552	1813.55
603.753	1808.32
603.953	1880.79
604.153	1854.05
604.354	1788.76
604.554	1789.72
604.754	1834.87
604.954	1759.11
605.155	1831.57
605.355	1790.69
605.555	1814.52
605.755	1895.12
605.955	1821.89
606.155	1807.16
606.356	1811.81
606.556	1787.21
606.756	1799.6
606.956	1720.17
607.156	1850.75
607.356	1760.08
607.556	1796.12
607.756	1796.51
607.956	1812
608.156	1780.42
608.356	1734.31
608.556	1789.14
608.756	1777.13
608.956	1691.69
609.156	1761.24
609.356	1695.37
609.556	1723.07
609.755	1750.2
609.955	1724.62
610.155	1721.14
610.355	1734.51
610.555	1662.24
610.755	1717.65
610.954	1627.94
611.154	1724.04
611.354	1741.48
611.554	1692.46
611.753	1678.13
611.953	1632.4
612.153	1702.54
612.352	1702.54
612.552	1644.22
612.752	1612.45
612.951	1650.23
613.151	1660.49
613.351	1672.31
613.55	1664.18
613.75	1705.64
613.949	1641.31
614.149	1655.84
614.348	1634.53
614.548	1590.16
614.747	1570.98
