Data from gum_old_FLMT105791__32__15-42-54-259.txt Node

Date: Mon Mar 20 15:42:54 GMT 2023
User: antho
Spectrometer: FLMT10579
Trigger mode: 0
Integration Time (sec): 1.000000E-1
Scans to average: 10
Electric dark correction enabled: true
Nonlinearity correction enabled: false
Boxcar width: 0
XAxis mode: Wavelengths
Number of Pixels in Spectrum: 3648
>>>>>Begin Spectral Data<<<<<
345.248	-180.93
345.464	-180.93
345.681	-180.93
345.898	-192.75
346.114	-157.29
346.331	-31.55
346.548	24.06
346.764	-26.7
346.981	-3.65
347.197	-15.27
347.414	25.99
347.631	-3.65
347.847	50.21
348.064	6.62
348.28	35.88
348.497	-44.92
348.713	-17.02
348.93	14.76
349.146	25.8
349.363	11.08
349.579	35.29
349.796	15.34
350.012	16.69
350.229	38.01
350.445	35.1
350.661	5.65
350.878	8.36
351.094	27.93
351.311	40.72
351.527	52.15
351.743	1.78
351.96	51.57
352.176	49.05
352.392	44.01
352.609	73.46
352.825	27.74
353.041	18.83
353.257	27.54
353.474	28.9
353.69	42.27
353.906	20.96
354.122	17.08
354.339	82.37
354.555	31.23
354.771	36.84
354.987	76.17
355.203	80.44
355.42	10.49
355.636	62.81
355.852	20.18
356.068	24.83
356.284	-10.24
356.5	86.06
356.716	60.68
356.932	27.74
357.148	48.66
357.364	42.27
357.58	66.49
357.796	83.15
358.012	96.91
358.228	63
358.444	-32.9
358.66	83.54
358.876	46.53
359.092	22.12
359.308	43.04
359.524	41.3
359.74	34.33
359.956	28.9
360.172	62.61
360.388	58.54
360.604	65.52
360.819	131.59
361.035	69.78
361.251	93.61
361.467	37.62
361.683	97.49
361.898	84.89
362.114	115.89
362.33	78.5
362.546	89.74
362.762	68.43
362.977	61.06
363.193	45.37
363.409	79.86
363.624	29.48
363.84	34.33
364.056	41.88
364.271	69.39
364.487	74.82
364.703	69.01
364.918	42.08
365.134	58.16
365.35	86.44
365.565	161.42
365.781	80.05
365.996	89.54
366.212	141.08
366.427	118.99
366.643	75.21
366.858	52.15
367.074	77.34
367.289	127.13
367.505	204.24
367.72	41.69
367.936	75.59
368.151	108.92
368.367	112.41
368.582	90.71
368.798	76.56
369.013	124.22
369.228	95.36
369.444	104.85
369.659	137.98
369.874	140.5
370.09	161.04
370.305	45.56
370.52	83.34
370.736	144.37
370.951	100.01
371.166	153.48
371.381	160.65
371.597	129.46
371.812	73.27
372.027	81.21
372.242	109.31
372.458	153.67
372.673	83.15
372.888	118.02
373.103	130.23
373.318	175.37
373.533	124.81
373.749	108.92
373.964	53.7
374.179	147.09
374.394	41.11
374.609	155.81
374.824	33.94
375.039	153.09
375.254	26.38
375.469	147.09
375.684	111.24
375.899	175.37
376.114	86.64
376.329	114.15
376.544	142.82
376.759	143.21
376.974	93.22
377.189	98.07
377.404	96.71
377.619	145.34
377.834	108.92
378.049	90.51
378.264	83.34
378.478	134.69
378.693	112.6
378.908	162.39
379.123	121.12
379.338	153.87
379.553	136.24
379.767	124.22
379.982	162.59
380.197	155.22
380.412	117.64
380.626	131.01
380.841	231.95
381.056	147.28
381.271	214.12
381.485	118.02
381.7	106.79
381.915	150.38
382.129	112.21
382.344	126.74
382.559	121.12
382.773	145.54
382.988	34.33
383.202	89.54
383.417	88.57
383.632	178.86
383.846	104.85
384.061	131.78
384.275	106.59
384.49	129.65
384.704	147.28
384.919	146.31
385.133	129.65
385.348	178.67
385.562	96.71
385.777	186.8
385.991	150.38
386.206	131.2
386.42	115.51
386.634	232.14
386.849	152.51
387.063	148.06
387.277	151.93
387.492	160.65
387.706	115.51
387.92	129.84
388.135	191.26
388.349	170.72
388.563	174.4
388.778	165.88
388.992	199.59
389.206	169.95
389.42	255.2
389.635	198.04
389.849	204.05
390.063	250.93
390.277	242.8
390.491	248.8
390.706	236.6
390.92	239.7
391.134	200.95
391.348	230.01
391.562	151.35
391.776	267.6
391.99	211.02
392.205	238.54
392.419	191.26
392.633	214.12
392.847	243.19
393.061	183.7
393.275	245.12
393.489	140.31
393.703	141.47
393.917	186.03
394.131	104.66
394.345	161.04
394.559	189.32
394.773	143.6
394.986	241.44
395.2	245.7
395.414	271.86
395.628	259.85
395.842	276.32
396.056	273.02
396.27	221.87
396.484	246.29
396.697	241.64
396.911	202.5
397.125	177.7
397.339	198.62
397.553	176.54
397.766	271.28
397.98	228.46
398.194	260.43
398.408	253.65
398.621	329.02
398.835	329.98
399.049	342.96
399.262	390.24
399.476	383.65
399.69	377.84
399.903	450.3
400.117	395.08
400.331	410.78
400.544	361.37
400.758	476.46
400.971	408.65
401.185	418.91
401.398	361.76
401.612	451.66
401.826	433.06
402.039	426.86
402.253	378.81
402.466	449.53
402.68	417.95
402.893	453.01
403.106	439.45
403.32	410.39
403.533	435.19
403.747	398.76
403.96	428.79
404.174	468.51
404.387	402.06
404.6	460.96
404.814	478.59
405.027	428.41
405.24	434.03
405.454	429.96
405.667	466.19
405.88	394.5
406.094	462.51
406.307	494.67
406.52	451.08
406.733	384.23
406.947	408.65
407.16	502.61
407.373	505.52
407.586	454.18
407.799	419.11
408.012	487.11
408.226	464.44
408.439	541.94
408.652	451.85
408.865	490.79
409.078	541.36
409.291	501.26
409.504	478.39
409.717	539.62
409.93	550.27
410.143	522.76
410.357	439.84
410.57	393.15
410.783	467.93
410.996	473.55
411.209	505.91
411.421	576.43
411.634	528.77
411.847	522.18
412.06	546.59
412.273	575.85
412.486	556.47
412.699	645.6
412.912	571.2
413.125	610.92
413.338	559.38
413.55	587.28
413.763	566.94
413.976	565
414.189	541.56
414.402	539.81
414.615	656.45
414.827	540.97
415.04	598.71
415.253	585.54
415.466	654.12
415.678	657.8
415.891	573.33
416.104	588.83
416.316	583.99
416.529	569.84
416.742	655.87
416.954	651.8
417.167	621.96
417.38	614.21
417.592	651.22
417.805	578.17
418.017	546.79
418.23	653.35
418.442	569.26
418.655	575.07
418.868	596.97
419.08	626.03
419.293	634.55
419.505	657.22
419.718	617.12
419.93	673.69
420.142	610.53
420.355	661.49
420.567	654.9
420.78	651.41
420.992	610.72
421.205	698.49
421.417	603.94
421.629	677.18
421.842	647.15
422.054	635.14
422.266	689
422.479	711.28
422.691	619.44
422.903	673.89
423.115	611.3
423.328	613.24
423.54	628.94
423.752	620.41
423.964	622.74
424.177	694.03
424.389	636.49
424.601	739.18
424.813	669.62
425.025	705.27
425.238	721.16
425.45	654.12
425.662	650.05
425.874	976.91
426.086	695.2
426.298	689.38
426.51	654.12
426.722	672.34
426.934	653.35
427.146	730.85
427.358	656.06
427.57	725.23
427.782	673.69
427.994	634.55
428.206	630.29
428.418	658
428.63	717.28
428.842	748.09
429.054	697.52
429.266	726.2
429.478	625.25
429.69	664.97
429.902	627.39
430.114	653.93
430.325	633.2
430.537	588.83
430.749	568.29
430.961	512.3
431.173	550.86
431.384	572.94
431.596	518.31
431.808	621.77
432.02	692.68
432.231	773.86
432.443	821.91
432.655	829.66
432.867	775.6
433.078	773.08
433.29	835.47
433.502	805.44
433.713	829.08
433.925	864.34
434.136	876.35
434.348	740.73
434.56	690.35
434.771	847.29
434.983	701.98
435.194	769.21
435.406	819
435.617	837.99
435.829	912.39
436.04	868.21
436.252	867.24
436.463	893.79
436.675	919.75
436.886	938.16
437.098	941.64
437.309	981.17
437.521	882.36
437.732	925.18
437.943	864.34
438.155	844.19
438.366	808.35
438.578	912.19
438.789	820.16
439	864.34
439.211	836.44
439.423	832.95
439.634	872.86
439.845	907.54
440.057	876.35
440.268	927.89
440.479	904.83
440.69	943.39
440.902	881.97
441.113	893.79
441.324	884.1
441.535	976.32
441.746	992.02
441.957	952.88
442.168	992.99
442.38	1010.23
442.591	1028.06
442.802	1003.26
443.013	1001.32
443.224	1056.34
443.435	989.5
443.646	1006.36
443.857	996.28
444.068	985.62
444.279	991.44
444.49	1134.23
444.701	1050.72
444.912	1156.51
445.123	1125.51
445.334	1088.31
445.545	1071.45
445.756	1067.97
445.967	1007.32
446.178	1047.43
446.388	1048.2
446.599	1043.55
446.81	1015.85
447.021	1017.4
447.232	1080.95
447.443	1130.74
447.653	1098
447.864	1132.87
448.075	1133.84
448.286	1097.61
448.496	1107.3
448.707	1153.02
448.918	1064.87
449.129	1173.17
449.339	1102.65
449.55	1147.21
449.761	1115.24
449.971	1154.96
450.182	1129.58
450.393	1178.02
450.603	1156.9
450.814	1225.87
451.024	1190.22
451.235	1250.09
451.446	1287.29
451.656	1277.21
451.867	1208.63
452.077	1192.35
452.288	1247.18
452.498	1231.68
452.709	1193.32
452.919	1163.87
453.13	1114.27
453.34	1169.1
453.55	1061.77
453.761	1146.82
453.971	1133.26
454.182	1171.43
454.392	1193.52
454.602	1239.82
454.813	1193.9
455.023	1197.58
455.233	1172.78
455.444	1194.68
455.654	1078.04
455.864	1182.67
456.075	1166.39
456.285	1152.83
456.495	1197.97
456.705	1193.32
456.916	1293.88
457.126	1270.63
457.336	1247.76
457.546	1168.91
457.756	1183.63
457.967	1269.46
458.177	1220.25
458.387	1239.82
458.597	1136.55
458.807	1194.87
459.017	1184.22
459.227	1197.58
459.437	1176.27
459.647	1232.26
459.857	1226.26
460.068	1229.36
460.278	1270.63
460.488	1246.99
460.698	1304.14
460.908	1231.68
461.117	1229.55
461.327	1259.39
461.537	1275.47
461.747	1295.43
461.957	1309.76
462.167	1403.15
462.377	1350.84
462.587	1282.45
462.797	1365.56
463.007	1310.73
463.216	1385.91
463.426	1418.65
463.636	1375.25
463.846	1236.91
464.056	1313.06
464.265	1336.69
464.475	1263.07
464.685	1331.27
464.895	1337.08
465.104	1298.53
465.314	1369.24
465.524	1322.55
465.733	1290.2
465.943	1401.21
466.153	1448.29
466.362	1418.46
466.572	1371.57
466.782	1329.91
466.991	1363.82
467.201	1408.57
467.41	1271.6
467.62	1342.31
467.829	1407.22
468.039	1409.16
468.249	1364.79
468.458	1423.3
468.668	1400.05
468.877	1415.16
469.086	1428.72
469.296	1468.06
469.505	1464.96
469.715	1531.02
469.924	1453.72
470.134	1483.36
470.343	1478.32
470.552	1403.54
470.762	1428.72
470.971	1421.94
471.18	1445.77
471.39	1465.92
471.599	1415.74
471.808	1513.97
472.018	1522.5
472.227	1537.61
472.436	1597.28
472.645	1559.12
472.855	1555.63
473.064	1684.86
473.273	1655.8
473.482	1613.37
473.691	1645.14
473.901	1653.08
474.11	1593.02
474.319	1700.16
474.528	1618.02
474.737	1744.14
474.946	1701.71
475.155	1694.16
475.364	1760.23
475.573	1706.56
475.783	1778.05
475.992	1729.23
476.201	1766.81
476.41	1788.9
476.619	1695.51
476.828	1733.68
477.037	1711.01
477.245	1734.46
477.454	1803.04
477.663	1793.16
477.872	1803.82
478.081	1912.9
478.29	1822.03
478.499	1948.55
478.708	1955.72
478.917	1969.09
479.125	1872.02
479.334	1898.56
479.543	1920.26
479.752	1950.68
479.961	1964.63
480.169	2012.29
480.378	1984
480.587	2157.41
480.796	2032.44
481.004	2052.01
481.213	2052.78
481.422	2050.65
481.63	2071
481.839	2137.45
482.048	2187.63
482.256	2146.56
482.465	2170.19
482.674	2183.56
482.882	2206.81
483.091	2254.86
483.299	2153.73
483.508	2238.59
483.716	2245.95
483.925	2224.64
484.134	2169.03
484.342	2210.11
484.551	2242.85
484.759	2268.42
484.967	2288.77
485.176	2314.92
485.384	2335.27
485.593	2303.69
485.801	2284.12
486.01	2234.91
486.218	2084.95
486.426	1959.2
486.635	1931.3
486.843	1938.09
487.051	2004.93
487.26	2027.79
487.468	2059.95
487.676	2221.15
487.885	2189.18
488.093	2267.46
488.301	2329.46
488.509	2346.12
488.717	2418.39
488.926	2387.39
489.134	2358.9
489.342	2325
489.55	2336.82
489.758	2410.44
489.967	2417.22
490.175	2542
490.383	2531.53
490.591	2629.38
490.799	2511.77
491.007	2585.01
491.215	2579.2
491.423	2550.71
491.631	2577.84
491.839	2505.77
492.047	2550.13
492.255	2465.85
492.463	2429.62
492.671	2389.71
492.879	2522.23
493.087	2473.99
493.295	2519.52
493.503	2585.78
493.711	2677.43
493.919	2604.19
494.127	2635.77
494.334	2627.83
494.542	2536.38
494.75	2614.84
494.958	2593.92
495.166	2706.68
495.374	2768.87
495.581	2765.39
495.789	2735.36
495.997	2744.66
496.205	2668.32
496.412	2672.19
496.62	2748.92
496.828	2712.3
497.035	2761.32
497.243	2769.65
497.451	2795.8
497.658	2779.14
497.866	2756.09
498.074	2830.49
498.281	2715.4
498.489	2807.43
498.696	2702.61
498.904	2653.4
499.112	2675.49
499.319	2806.07
499.527	2740.01
499.734	2757.06
499.942	2720.63
500.149	2766.36
500.357	2778.17
500.564	2688.08
500.771	2729.93
500.979	2649.14
501.186	2650.3
501.394	2700.87
501.601	2657.28
501.808	2660.18
502.016	2643.91
502.223	2665.41
502.43	2720.05
502.638	2690.79
502.845	2678.78
503.052	2806.65
503.26	2721.99
503.467	2864.97
503.674	2787.28
503.881	2784.76
504.089	2829.13
504.296	2816.34
504.503	2744.66
504.71	2706.1
504.917	2695.06
505.125	2806.85
505.332	2743.69
505.539	2785.54
505.746	2911.67
505.953	2930.07
506.16	2862.65
506.367	2938.02
506.574	2958.75
506.781	2935.5
506.988	2887.25
507.195	2935.88
507.402	2862.45
507.609	2903.92
507.816	2871.37
508.023	2799.68
508.23	2807.24
508.437	2776.24
508.644	2797.74
508.851	2847.92
509.058	2870.59
509.265	2875.24
509.472	2935.88
509.679	3000.4
509.885	2947.12
510.092	2945.77
510.299	2898.49
510.506	2854.9
510.713	2879.31
510.92	2925.03
511.126	2908.76
511.333	2974.63
511.54	2963.78
511.746	2995.95
511.953	2989.55
512.16	3025.78
512.367	3021.71
512.573	2930.46
512.78	3000.79
512.987	2946.54
513.193	2917.28
513.4	2863.04
513.606	2896.17
513.813	2941.7
514.02	2910.7
514.226	2940.92
514.433	2961.26
514.639	2849.28
514.846	2900.62
515.052	2867.3
515.259	2921.35
515.465	2950.42
515.672	2922.71
515.878	3008.73
516.085	3001.37
516.291	3042.83
516.497	3006.6
516.704	2880.08
516.91	2864.39
517.117	2713.27
517.323	2591.98
517.529	2600.7
517.736	2573.96
517.942	2612.52
518.148	2664.25
518.354	2780.5
518.561	2778.56
518.767	2743.88
518.973	2775.66
519.179	2778.37
519.386	2778.17
519.592	2806.65
519.798	2858
520.004	3005.05
520.21	2956.03
520.417	3041.86
520.623	3047.68
520.829	3088.17
521.035	3070.54
521.241	3037.8
521.447	3110.45
521.653	3242.78
521.859	3036.83
522.065	3174.39
522.271	3220.89
522.477	3239.29
522.683	3258.67
522.889	3178.84
523.095	3155.01
523.301	3117.81
523.507	3118.59
523.713	3154.62
523.919	3042.25
524.125	3193.57
524.331	3194.92
524.537	3276.3
524.742	3340.62
524.948	3335.2
525.154	3381.12
525.36	3409.79
525.566	3283.08
525.772	3406.11
525.977	3286.76
526.183	3308.46
526.389	3355.35
526.595	3243.55
526.8	3186.4
527.006	3077.13
527.212	3032.18
527.417	3014.35
527.623	2970.56
527.829	3148.81
528.034	3168.57
528.24	3204.42
528.446	3214.49
528.651	3373.95
528.857	3364.07
529.062	3411.73
529.268	3396.81
529.473	3496.2
529.679	3459.2
529.884	3533.21
530.09	3488.26
530.295	3455.71
530.501	3463.85
530.706	3500.66
530.912	3427.61
531.117	3476.25
531.323	3467.14
531.528	3593.46
531.733	3580.48
531.939	3565.95
532.144	3558.2
532.35	3533.79
532.555	3580.67
532.76	3508.41
532.966	3475.08
533.171	3382.28
533.376	3383.44
533.581	3346.24
533.787	3415.99
533.992	3479.54
534.197	3461.91
534.402	3488.06
534.607	3469.66
534.813	3576.41
535.018	3515.19
535.223	3551.61
535.428	3533.21
535.633	3594.62
535.838	3632.41
536.043	3684.14
536.249	3707
536.454	3628.72
536.659	3666.7
536.864	3594.82
537.069	3579.51
537.274	3613.03
537.479	3622.72
537.684	3550.84
537.889	3512.28
538.094	3639.77
538.299	3611.67
538.504	3590.36
538.708	3613.42
538.913	3715.52
539.118	3604.89
539.323	3657.98
539.528	3569.05
539.733	3604.51
539.938	3629.31
540.142	3566.73
540.347	3587.84
540.552	3539.79
540.757	3517.9
540.962	3543.28
541.166	3459.78
541.371	3437.88
541.576	3536.89
541.781	3447.96
541.985	3590.75
542.19	3545.8
542.395	3706.61
542.599	3708.55
542.804	3615.94
543.008	3715.72
543.213	3636.47
543.418	3574.86
543.622	3630.47
543.827	3564.4
544.031	3665.54
544.236	3700.41
544.44	3678.71
544.645	3768.61
544.849	3645
545.054	3769
545.258	3815.5
545.463	3775.97
545.667	3613.42
545.872	3737.8
546.076	3768.03
546.281	3688.2
546.485	3629.31
546.689	3750.78
546.894	3718.04
547.098	3655.07
547.302	3633.76
547.507	3702.54
547.711	3705.84
547.915	3688.4
548.119	3612.06
548.324	3609.74
548.528	3701.57
548.732	3607.99
548.936	3683.36
549.141	3693.44
549.345	3661.27
549.549	3677.55
549.753	3689.95
549.957	3754.66
550.161	3744
550.366	3686.27
550.57	3661.47
550.774	3709.71
550.978	3652.36
551.182	3663.4
551.386	3607.8
551.59	3673.48
551.794	3644.22
551.998	3689.56
552.202	3684.14
552.406	3639.19
552.61	3712.62
552.814	3700.41
553.018	3762.8
553.222	3683.55
553.426	3663.6
553.63	3769
553.833	3679.29
554.037	3623.3
554.241	3677.16
554.445	3654.3
554.649	3692.85
554.853	3618.07
555.056	3685.1
555.26	3730.44
555.464	3682.78
555.668	3725.21
555.871	3765.12
556.075	3720.37
556.279	3656.04
556.483	3642.29
556.686	3637.06
556.89	3624.46
557.094	3614.19
557.297	3500.08
557.501	3644.61
557.704	3490.78
557.908	3611.29
558.112	3533.4
558.315	3650.04
558.519	3552.78
558.722	3525.26
558.926	3556.07
559.129	3432.07
559.333	3453.38
559.536	3453
559.74	3433.43
559.943	3387.32
560.147	3404.95
560.35	3440.6
560.553	3456.68
560.757	3418.12
560.96	3541.54
561.164	3471.79
561.367	3587.07
561.57	3518.87
561.774	3508.02
561.977	3435.75
562.18	3413.47
562.384	3536.89
562.587	3463.26
562.79	3440.79
562.993	3443.11
563.197	3456.29
563.4	3517.32
563.603	3552.19
563.806	3559.94
564.009	3504.34
564.212	3523.91
564.416	3377.05
564.619	3455.51
564.822	3363.1
565.025	3417.54
565.228	3450.86
565.431	3447.57
565.634	3312.14
565.837	3386.15
566.04	3301.1
566.243	3308.46
566.446	3244.14
566.649	3318.73
566.852	3236.77
567.055	3276.1
567.258	3288.31
567.461	3401.26
567.664	3428.78
567.867	3304.97
568.07	3349.92
568.273	3328.61
568.475	3390.61
568.678	3266.8
568.881	3290.05
569.084	3245.49
569.287	3097.86
569.489	3176.32
569.692	3273
569.895	3261.38
570.098	3157.92
570.3	3149.78
570.503	3124.21
570.706	3086.43
570.909	3108.9
571.111	3027.14
571.314	3076.16
571.516	3069.38
571.719	3070.54
571.922	3069.76
572.124	3080.42
572.327	3108.32
572.529	3062.79
572.732	3069.38
572.935	3132.73
573.137	3211.59
573.34	3127.11
573.542	3197.64
573.745	3187.76
573.947	3174
574.15	3141.26
574.352	3150.56
574.554	3199.57
574.757	3081.19
574.959	3056.78
575.162	3098.44
575.364	2955.07
575.566	3114.33
575.769	2997.3
575.971	3053.29
576.173	2903.72
576.376	3005.83
576.578	3006.99
576.78	3065.89
576.982	2944.8
577.185	3063.18
577.387	2979.67
577.589	2982
577.791	3003.31
577.993	3000.4
578.196	3009.7
578.398	2968.82
578.6	3036.44
578.802	2932.78
579.004	2886.28
579.206	2866.14
579.408	2952.16
579.61	2906.43
579.812	3005.44
580.014	2906.24
580.216	2913.8
580.418	2936.85
580.62	2929.88
580.822	2931.62
581.024	2965.91
581.226	2994.98
581.428	2920.58
581.63	3027.33
581.832	2931.04
582.034	2959.13
582.236	2943.44
582.438	2982.19
582.64	3007.38
582.841	3021.52
583.043	3083.52
583.245	2962.04
583.447	2993.62
583.649	2957.39
583.85	3016.1
584.052	3033.15
584.254	2991.88
584.456	2997.3
584.657	2926.97
584.859	3014.93
585.061	2896.75
585.262	2955.26
585.464	2939.37
585.666	2995.17
585.867	2926.39
586.069	2991.88
586.27	2933.56
586.472	2915.93
586.674	2837.65
586.875	2849.86
587.077	2876.02
587.278	2933.37
587.48	2853.93
587.681	3018.03
587.883	2918.06
588.084	2836.49
588.285	2897.33
588.487	2841.34
588.688	2829.71
588.89	2746.59
589.091	2749.11
589.292	2671.03
589.494	2607.87
589.695	2567.76
589.896	2496.08
590.098	2520.1
590.299	2560.21
590.5	2588.11
590.702	2566.21
590.903	2644.1
591.104	2750.66
591.305	2769.26
591.507	2775.46
591.708	2726.25
591.909	2695.06
592.11	2788.44
592.311	2775.27
592.512	2720.82
592.714	2649.72
592.915	2693.31
593.116	2684.59
593.317	2738.26
593.518	2711.91
593.719	2751.63
593.92	2744.07
594.121	2756.86
594.322	2725.67
594.523	2786.12
594.724	2695.44
594.925	2705.91
595.126	2719.27
595.327	2720.63
595.528	2683.43
595.729	2702.61
595.929	2697.57
596.13	2765
596.331	2762.09
596.532	2727.61
596.733	2808.2
596.934	2783.02
597.135	2770.42
597.335	2756.28
597.536	2712.88
597.737	2741.94
597.938	2716.17
598.138	2699.12
598.339	2726.64
598.54	2734.39
598.74	2670.84
598.941	2644.29
599.142	2775.66
599.342	2689.83
599.543	2640.42
599.744	2649.91
599.944	2665.41
600.145	2653.4
600.345	2671.81
600.546	2730.71
600.746	2700.09
600.947	2756.28
601.147	2667.16
601.348	2729.74
601.548	2666.38
601.749	2653.79
601.949	2576.29
602.15	2646.62
602.35	2611.36
602.551	2625.69
602.751	2560.6
602.951	2595.28
603.152	2553.04
603.352	2691.18
603.552	2635.38
603.753	2669.68
603.953	2682.08
604.153	2662.89
604.354	2690.6
604.554	2631.89
604.754	2657.86
604.954	2605.55
605.155	2663.28
605.355	2638.68
605.555	2629.38
605.755	2683.82
605.955	2638.29
606.155	2690.79
606.356	2662.31
606.556	2635.58
606.756	2647.39
606.956	2610.97
607.156	2657.28
607.356	2612.52
607.556	2637.71
607.756	2638.68
607.956	2640.03
608.156	2617.75
608.356	2552.85
608.556	2598.76
608.756	2595.66
608.956	2547.03
609.156	2559.63
609.356	2536.57
609.556	2491.82
609.755	2557.88
609.955	2508.67
610.155	2494.14
610.355	2541.41
610.555	2487.36
610.755	2483.1
610.954	2437.57
611.154	2516.23
611.354	2533.86
611.554	2494.14
611.753	2477.48
611.953	2442.22
612.153	2503.44
