Data from gum_old_FLMT105791__35__15-42-57-259.txt Node

Date: Mon Mar 20 15:42:57 GMT 2023
User: antho
Spectrometer: FLMT10579
Trigger mode: 0
Integration Time (sec): 1.000000E-1
Scans to average: 10
Electric dark correction enabled: true
Nonlinearity correction enabled: false
Boxcar width: 0
XAxis mode: Wavelengths
Number of Pixels in Spectrum: 3648
>>>>>Begin Spectral Data<<<<<
345.248	-167.96
345.464	-167.96
345.681	-167.96
345.898	-177.46
346.114	-151.49
346.331	-32.92
346.548	27.72
346.764	-4.44
346.981	-5.99
347.197	-36.99
347.414	36.83
347.631	-30.4
347.847	42.83
348.064	-9.48
348.28	49.23
348.497	-37.57
348.713	1.18
348.93	39.73
349.146	53.3
349.363	7.18
349.579	37.99
349.796	28.88
350.012	35.47
350.229	55.82
350.445	30.82
350.661	0.98
350.878	34.7
351.094	37.6
351.311	32.18
351.527	40.32
351.743	-2.31
351.96	69.57
352.176	61.63
352.392	61.82
352.609	54.85
352.825	1.18
353.041	20.94
353.257	24.82
353.474	31.79
353.69	60.47
353.906	74.03
354.122	17.45
354.339	86.81
354.555	43.61
354.771	53.68
354.987	102.51
355.203	88.95
355.42	14.93
355.636	48.84
355.852	21.72
356.068	40.32
356.284	-15.1
356.5	88.17
356.716	32.18
356.932	66.47
357.148	75.97
357.364	43.61
357.58	85.85
357.796	120.53
358.012	63.95
358.228	85.85
358.444	-40.86
358.66	96.7
358.876	47.1
359.092	16.48
359.308	62.4
359.524	71.7
359.74	50.39
359.956	57.95
360.172	54.46
360.388	114.71
360.604	46.13
360.819	133.7
361.035	85.46
361.251	86.81
361.467	15.71
361.683	68.6
361.898	71.32
362.114	85.26
362.33	75.38
362.546	95.53
362.762	62.4
362.977	87.01
363.193	46.52
363.409	110.84
363.624	73.45
363.84	68.8
364.056	53.1
364.271	84.1
364.487	97.66
364.703	68.22
364.918	22.1
365.134	85.85
365.35	77.13
365.565	178.65
365.781	95.34
365.996	91.27
366.212	193.76
366.427	127.5
366.643	99.02
366.858	102.7
367.074	84.88
367.289	165.48
367.505	205.19
367.72	42.83
367.936	77.13
368.151	130.8
368.367	93.21
368.582	101.15
368.798	66.86
369.013	156.56
369.228	90.3
369.444	87.78
369.659	141.26
369.874	123.63
370.09	140.87
370.305	34.31
370.52	94.56
370.736	156.95
370.951	115.68
371.166	162.18
371.381	151.72
371.597	131.96
371.812	71.51
372.027	55.43
372.242	96.89
372.458	176.33
372.673	89.72
372.888	77.32
373.103	120.33
373.318	169.93
373.533	124.6
373.749	109.68
373.964	23.85
374.179	130.41
374.394	65.5
374.609	127.31
374.824	86.23
375.039	141.26
375.254	57.56
375.469	137.58
375.684	112.2
375.899	151.14
376.114	93.01
376.329	131.18
376.544	152.11
376.759	144.94
376.974	91.08
377.189	117.43
377.404	106.96
377.619	149.98
377.834	83.71
378.049	95.15
378.264	82.36
378.478	149.98
378.693	130.8
378.908	145.13
379.123	125.76
379.338	185.04
379.553	144.36
379.767	131.76
379.982	152.11
380.197	145.71
380.412	97.08
380.626	141.06
380.841	234.64
381.056	186.59
381.271	210.04
381.485	113.75
381.7	112.39
381.915	134.09
382.129	121.88
382.344	140.87
382.559	116.85
382.773	158.5
382.988	61.63
383.202	130.02
383.417	80.81
383.632	217.98
383.846	100.76
384.061	133.12
384.275	73.83
384.49	144.16
384.704	145.91
384.919	145.71
385.133	153.08
385.348	168.58
385.562	121.3
385.777	183.88
385.991	158.31
386.206	162.57
386.42	155.79
386.634	192.02
386.849	173.03
387.063	179.43
387.277	131.76
387.492	160.05
387.706	153.85
387.92	115.3
388.135	214.3
388.349	181.36
388.563	185.63
388.778	185.43
388.992	185.43
389.206	198.61
389.42	252.47
389.635	181.36
389.849	216.82
390.063	227.86
390.277	204.42
390.491	285.21
390.706	255.76
390.92	239.49
391.134	221.66
391.348	271.46
391.562	204.42
391.776	237.36
391.99	206.55
392.205	260.02
392.419	191.63
392.633	212.75
392.847	259.44
393.061	176.52
393.275	208.1
393.489	153.85
393.703	146.1
393.917	170.13
394.131	107.93
394.345	160.83
394.559	214.11
394.773	178.65
394.986	223.21
395.2	231.35
395.414	264.87
395.628	227.48
395.842	257.89
396.056	268.55
396.27	218.56
396.484	269.71
396.697	262.35
396.911	254.99
397.125	192.79
397.339	195.12
397.553	188.34
397.766	266.81
397.98	236.19
398.194	280.95
398.408	288.31
398.621	310.98
398.835	334.42
399.049	333.84
399.262	352.25
399.476	385.96
399.69	376.47
399.903	449.51
400.117	391.39
400.331	377.63
400.544	353.41
400.758	477.41
400.971	384.22
401.185	436.33
401.398	345.47
401.612	457.84
401.826	442.92
402.039	410.76
402.253	384.22
402.466	434.59
402.68	430.33
402.893	456.68
403.106	458.03
403.32	436.14
403.533	469.08
403.747	432.46
403.96	447.96
404.174	471.02
404.387	392.35
404.6	433.43
404.814	474.89
405.027	430.33
405.24	450.09
405.454	423.35
405.667	483.8
405.88	412.89
406.094	477.02
406.307	488.84
406.52	450.48
406.733	419.29
406.947	393.9
407.16	496.4
407.373	497.56
407.586	457.45
407.799	444.47
408.012	470.24
408.226	469.08
408.439	490.78
408.652	438.27
408.865	503.57
409.078	569.63
409.291	518.1
409.504	481.87
409.717	564.01
409.93	550.06
410.143	483.42
410.357	429.94
410.57	398.17
410.783	420.45
410.996	456.68
411.209	474.89
411.421	533.4
411.634	509.77
411.847	496.01
412.06	530.69
412.273	571.38
412.486	546.58
412.699	625.04
412.912	534.95
413.125	580.48
413.338	559.56
413.55	552.78
413.763	554.52
413.976	543.09
414.189	525.26
414.402	558.4
414.615	622.33
414.827	513.64
415.04	603.54
415.253	601.21
415.466	594.05
415.678	627.95
415.891	563.63
416.104	562.27
416.316	527.98
416.529	553.36
416.742	614
416.954	639.19
417.167	618.07
417.38	589.78
417.592	576.03
417.805	549.1
418.017	539.6
418.23	575.25
418.442	572.54
418.655	573.9
418.868	577.58
419.08	607.41
419.293	620.39
419.505	627.18
419.718	647.13
419.93	662.24
420.142	616.13
420.355	627.95
420.567	629.5
420.78	625.63
420.992	605.48
421.205	714.94
421.417	611.09
421.629	631.44
421.842	623.3
422.054	623.88
422.266	669.03
422.479	701.57
422.691	630.47
422.903	635.31
423.115	605.28
423.328	594.82
423.54	617.1
423.752	624.46
423.964	624.85
424.177	651.2
424.389	608.38
424.601	755.44
424.813	682.01
425.025	703.32
425.238	678.91
425.45	645.97
425.662	638.03
425.874	944.73
426.086	635.51
426.298	694.6
426.51	669.99
426.722	659.73
426.934	644.61
427.146	710.1
427.358	646.16
427.57	713.97
427.782	630.47
427.994	627.56
428.206	635.31
428.418	610.32
428.63	680.46
428.842	728.31
429.054	662.63
429.266	689.18
429.478	609.93
429.69	643.84
429.902	582.81
430.114	679.88
430.325	612.64
430.537	536.11
430.749	548.9
430.961	479.93
431.173	524.1
431.384	561.5
431.596	490.78
431.808	598.7
432.02	702.35
432.231	766.29
432.443	780.82
432.655	765.51
432.867	715.14
433.078	765.9
433.29	810.27
433.502	786.44
433.713	821.7
433.925	826.15
434.136	826.93
434.348	714.56
434.56	677.74
434.771	820.73
434.983	659.53
435.194	723.08
435.406	809.69
435.617	849.79
435.829	891.45
436.04	812.98
436.252	860.84
436.463	899
436.675	950.15
436.886	891.83
437.098	908.5
437.309	953.83
437.521	890.28
437.732	870.33
437.943	868.39
438.155	845.72
438.366	822.09
438.578	906.95
438.789	856.38
439	837.39
439.211	798.84
439.423	839.91
439.634	862
439.845	893.38
440.057	899
440.268	950.35
440.479	902.49
440.69	895.52
440.902	886.22
441.113	857.15
441.324	864.71
441.535	941.05
441.746	969.91
441.957	940.08
442.168	965.46
442.38	946.67
442.591	986.96
442.802	925.93
443.013	1002.46
443.224	1007.89
443.435	989.29
443.646	973.4
443.857	994.13
444.068	967.59
444.279	962.16
444.49	1077.44
444.701	1010.21
444.912	1136.34
445.123	1065.63
445.334	1065.43
445.545	1033.08
445.756	983.28
445.967	963.71
446.178	1010.6
446.388	989.87
446.599	1027.26
446.81	1029.4
447.021	976.31
447.232	1019.71
447.443	1087.13
447.653	1055.74
447.864	1087.13
448.075	1086.16
448.286	1092.94
448.496	1056.71
448.707	1111.54
448.918	1013.9
449.129	1174.32
449.339	1060.01
449.55	1105.54
449.761	1080.35
449.971	1100.5
450.182	1105.93
450.393	1102.05
450.603	1101.28
450.814	1201.06
451.024	1165.41
451.235	1233.99
451.446	1195.44
451.656	1204.54
451.867	1160.95
452.077	1127.04
452.288	1202.22
452.498	1212.29
452.709	1157.07
452.919	1156.49
453.13	1120.65
453.34	1148.16
453.55	1030.56
453.761	1131.5
453.971	1126.27
454.182	1152.04
454.392	1121.04
454.602	1215.59
454.813	1129.37
455.023	1170.06
455.233	1108.44
455.444	1162.89
455.654	1075.31
455.864	1105.93
456.075	1162.89
456.285	1128.59
456.495	1141.96
456.705	1152.04
456.916	1251.43
457.126	1247.75
457.336	1167.15
457.546	1140.99
457.756	1168.7
457.967	1233.6
458.177	1183.62
458.387	1204.93
458.597	1130.72
458.807	1181.1
459.017	1155.33
459.227	1155.14
459.437	1169.09
459.647	1198.15
459.857	1253.56
460.068	1177.61
460.278	1254.72
460.488	1226.44
460.698	1273.13
460.908	1214.81
461.117	1216.55
461.327	1228.57
461.537	1239.42
461.747	1294.44
461.957	1272.35
462.167	1371.55
462.377	1332.8
462.587	1282.62
462.797	1346.75
463.007	1308.2
463.216	1360.51
463.426	1402.36
463.636	1333.58
463.846	1224.69
464.056	1273.52
464.265	1315.56
464.475	1236.7
464.685	1310.33
464.895	1317.69
465.104	1276.62
465.314	1348.88
465.524	1290.18
465.733	1279.14
465.943	1385.89
466.153	1405.07
466.362	1364.97
466.572	1347.53
466.782	1318.08
466.991	1311.49
467.201	1367.48
467.41	1225.08
467.62	1323.31
467.829	1356.83
468.039	1362.83
468.249	1336.1
468.458	1362.06
468.668	1396.55
468.877	1399.65
469.086	1411.46
469.296	1448.28
469.505	1388.41
469.715	1499.43
469.924	1443.05
470.134	1449.83
470.343	1470.56
470.552	1464.36
470.762	1391.9
470.971	1387.63
471.18	1411.46
471.39	1461.26
471.599	1385.89
471.808	1467.85
472.018	1476.56
472.227	1516.28
472.436	1588.74
472.645	1519.77
472.855	1530.43
473.064	1666.24
473.273	1609.09
473.482	1560.26
473.691	1602.69
473.901	1596.88
474.11	1551.74
474.319	1659.85
474.528	1598.82
474.737	1697.63
474.946	1667.02
475.155	1697.44
475.364	1741.42
475.573	1725.34
475.783	1717.39
475.992	1703.64
476.201	1717.39
476.41	1683.29
476.619	1631.76
476.828	1718.94
477.037	1639.31
477.245	1675.93
477.454	1758.47
477.663	1747.03
477.872	1799.15
478.081	1869.48
478.29	1802.45
478.499	1924.7
478.708	1876.46
478.917	1919.66
479.125	1823.37
479.334	1838.68
479.543	1840.61
479.752	1916.95
479.961	1886.92
480.169	1970.43
480.378	1942.14
480.587	2094.04
480.796	2002.2
481.004	1981.86
481.213	2027
481.422	2009.37
481.63	2021.96
481.839	2089.97
482.048	2119.42
482.256	2082.22
482.465	2110.89
482.674	2106.82
482.882	2165.92
483.091	2199.63
483.299	2089.97
483.508	2182.77
483.716	2186.65
483.925	2203.7
484.134	2117.87
484.342	2122.71
484.551	2189.75
484.759	2177.54
484.967	2242.25
485.176	2254.07
485.384	2279.06
485.593	2241.28
485.801	2153.52
486.01	2136.66
486.218	2015.37
486.426	1907.26
486.635	1892.35
486.843	1861.54
487.051	1909.01
487.26	1936.33
487.468	2045.02
487.676	2079.89
487.885	2114.19
488.093	2174.25
488.301	2238.18
488.509	2235.08
488.717	2308.32
488.926	2296.11
489.134	2239.54
489.342	2239.15
489.55	2256.01
489.758	2257.75
489.967	2301.15
490.175	2393.57
490.383	2393.57
490.591	2493.16
490.799	2412.75
491.007	2448.98
491.215	2428.44
491.423	2413.53
491.631	2424.18
491.839	2383.88
492.047	2411.78
492.255	2332.93
492.463	2249.62
492.671	2280.42
492.879	2409.84
493.087	2379.04
493.295	2383.3
493.503	2440.07
493.711	2551.67
493.919	2543.14
494.127	2491.99
494.334	2509.24
494.542	2450.72
494.75	2542.17
494.958	2535.78
495.166	2624.52
495.374	2639.63
495.581	2644.08
495.789	2599.91
495.997	2691.36
496.205	2524.74
496.412	2548.76
496.62	2569.88
496.828	2613.67
497.035	2605.92
497.243	2620.83
497.451	2636.53
497.658	2633.23
497.866	2628.78
498.074	2715
498.281	2579.95
498.489	2737.66
498.696	2603.79
498.904	2508.66
499.112	2556.7
499.319	2628
499.527	2634.98
499.734	2669.47
499.942	2598.55
500.149	2608.24
500.357	2634.2
500.564	2585.77
500.771	2613.09
500.979	2570.46
501.186	2520.28
501.394	2563.68
501.601	2517.96
501.808	2557.48
502.016	2533.65
502.223	2507.11
502.43	2539.27
502.638	2555.15
502.845	2577.24
503.052	2698.72
503.26	2604.95
503.467	2693.68
503.674	2669.27
503.881	2679.93
504.089	2707.25
504.296	2685.93
504.503	2582.47
504.71	2582.86
504.917	2612.7
505.125	2670.82
505.332	2662.49
505.539	2677.99
505.746	2815.36
505.953	2763.63
506.16	2791.53
506.367	2842.87
506.574	2872.9
506.781	2873.48
506.988	2812.26
507.195	2801.21
507.402	2788.23
507.609	2818.65
507.816	2749.68
508.023	2733.01
508.23	2729.33
508.437	2693.88
508.644	2739.8
508.851	2778.16
509.058	2799.66
509.265	2758.01
509.472	2823.11
509.679	2892.86
509.885	2879.49
510.092	2860.89
510.299	2818.46
510.506	2806.44
510.713	2844.81
510.92	2836.28
511.126	2860.69
511.333	2909.71
511.54	2904.48
511.746	2964.54
511.953	2934.71
512.16	2961.64
512.367	2928.12
512.573	2884.14
512.78	2922.89
512.987	2900.61
513.193	2848.88
513.4	2792.49
513.606	2839.77
513.813	2884.72
514.02	2879.68
514.226	2910.49
514.433	2938
514.639	2808.58
514.846	2852.17
515.052	2808.58
515.259	2857.01
515.465	2873.87
515.672	2859.92
515.878	2939.94
516.085	2921.53
516.291	2938.58
516.497	2899.64
516.704	2863.6
516.91	2756.07
517.117	2696.59
517.323	2573.17
517.529	2558.45
517.736	2577.82
517.942	2602.43
518.148	2654.93
518.354	2727.59
518.561	2733.98
518.767	2678.38
518.973	2703.95
519.179	2758.2
519.386	2756.65
519.592	2741.35
519.798	2785.91
520.004	2951.76
520.21	2881.42
520.417	2915.72
520.623	2987.02
520.829	2996.7
521.035	2988.95
521.241	2984.11
521.447	3020.73
521.653	3173.4
521.859	3018.21
522.065	3072.27
522.271	3189.48
522.477	3113.92
522.683	3152.86
522.889	3092.22
523.095	3089.51
523.301	3086.8
523.507	3031.97
523.713	3097.65
523.919	3045.53
524.125	3108.88
524.331	3134.46
524.537	3235.59
524.742	3277.83
524.948	3249.35
525.154	3282.29
525.36	3367.34
525.566	3244.31
525.772	3330.92
525.977	3198.59
526.183	3283.84
526.389	3266.79
526.595	3187.35
526.8	3182.51
527.006	3038.55
527.212	2917.27
527.417	2938.97
527.623	2965.32
527.829	3040.69
528.034	3080.98
528.24	3130.78
528.446	3165.07
528.651	3282.48
528.857	3272.6
529.062	3304.57
529.268	3333.44
529.473	3374.32
529.679	3370.06
529.884	3486.5
530.09	3415.2
530.295	3375.48
530.501	3368.12
530.706	3395.05
530.912	3411.9
531.117	3368.7
531.323	3428.95
531.528	3476.42
531.733	3502.77
531.939	3456.47
532.144	3488.82
532.35	3465.77
532.555	3504.9
532.76	3390.4
532.966	3407.06
533.171	3330.72
533.376	3273.38
533.581	3244.31
533.787	3356.11
533.992	3410.35
534.197	3361.72
534.402	3423.34
534.607	3395.24
534.813	3474.1
535.018	3450.65
535.223	3466.74
535.428	3465.96
535.633	3471.19
535.838	3532.42
536.043	3554.89
536.249	3643.43
536.454	3572.13
536.659	3548.88
536.864	3523.89
537.069	3502
537.274	3527.57
537.479	3454.53
537.684	3496.77
537.889	3430.7
538.094	3563.22
538.299	3479.72
538.504	3472.74
538.708	3502.77
538.913	3614.18
539.118	3539.97
539.323	3527.18
539.528	3437.09
539.733	3451.43
539.938	3473.32
540.142	3477.59
540.347	3430.12
540.552	3401.44
540.757	3437.87
540.962	3430.12
541.166	3343.71
541.371	3312.71
541.576	3364.82
541.781	3326.46
541.985	3477.59
542.19	3378.19
542.395	3546.17
542.599	3576.59
542.804	3500.45
543.008	3605.65
543.213	3455.11
543.418	3442.32
543.622	3542.1
543.827	3436.9
544.031	3565.16
544.236	3580.08
544.44	3571.36
544.645	3619.99
544.849	3567.48
545.054	3621.54
545.258	3737.01
545.463	3655.83
545.667	3526.41
545.872	3652.73
546.076	3626.19
546.281	3619.6
546.485	3604.49
546.689	3643.24
546.894	3658.55
547.098	3593.64
547.302	3583.18
547.507	3568.84
547.711	3602.94
547.915	3629.48
548.119	3565.93
548.324	3526.02
548.528	3612.05
548.732	3513.62
548.936	3622.9
549.141	3621.54
549.345	3555.67
549.549	3626.19
549.753	3645.76
549.957	3714.34
550.161	3649.83
550.366	3601.39
550.57	3604.88
550.774	3599.06
550.978	3653.31
551.182	3639.17
551.386	3594.8
551.59	3568.65
551.794	3576.01
551.998	3634.33
552.202	3609.33
552.406	3591.7
552.61	3633.55
552.814	3627.74
553.018	3665.91
553.222	3582.21
553.426	3595
553.63	3628.51
553.833	3599.06
554.037	3535.52
554.241	3578.14
554.445	3618.83
554.649	3594.22
554.853	3566.9
555.056	3663
555.26	3637.23
555.464	3659.32
555.668	3626.96
555.871	3661.65
556.075	3671.53
556.279	3581.82
556.483	3538.42
556.686	3548.11
556.89	3580.46
557.094	3595.77
557.297	3451.04
557.501	3561.87
557.704	3468.48
557.908	3520.4
558.112	3477.78
558.315	3558.77
558.519	3543.65
558.722	3453.17
558.926	3501.61
559.129	3349.52
559.333	3396.6
559.536	3355.91
559.74	3373.35
559.943	3339.06
560.147	3323.75
560.35	3360.17
560.553	3377.42
560.757	3356.88
560.96	3396.99
561.164	3379.74
561.367	3543.27
561.57	3453.56
561.774	3466.15
561.977	3414.04
562.18	3354.56
562.384	3446.2
562.587	3355.91
562.79	3413.65
562.993	3342.74
563.197	3331.31
563.4	3448.72
563.603	3463.25
563.806	3517.11
564.009	3396.99
564.212	3420.43
564.416	3307.67
564.619	3361.34
564.822	3292.36
565.025	3443.1
565.228	3371.22
565.431	3365.21
565.634	3224.94
565.837	3282.29
566.04	3230.36
566.243	3255.55
566.446	3168.95
566.649	3312.71
566.852	3199.95
567.055	3246.25
567.258	3244.12
567.461	3298.56
567.664	3305.34
567.867	3236.76
568.07	3281.13
568.273	3277.06
568.475	3287.52
568.678	3240.24
568.881	3225.91
569.084	3209.05
569.287	3079.82
569.489	3126.71
569.692	3194.13
569.895	3204.4
570.098	3078.85
570.3	3101.52
570.503	3012.2
570.706	3061.03
570.909	3018.99
571.111	2958.92
571.314	2947.3
571.516	2999.22
571.719	3028.48
571.922	2977.91
572.124	3003.49
572.327	2979.65
572.529	2923.86
572.732	2979.27
572.935	2997.09
573.137	3110.05
573.34	2997.48
573.542	3082.92
573.745	3043.59
573.947	3096.29
574.15	2989.15
574.352	3010.85
574.554	3127.87
574.757	3014.53
574.959	2954.86
575.162	2956.79
575.364	2938.58
575.566	3049.21
575.769	2947.3
575.971	2957.18
576.173	2807.41
576.376	2923.08
576.578	2952.14
576.78	2989.34
576.982	2864.38
577.185	2920.95
577.387	2848.68
577.589	2920.95
577.791	2951.37
577.993	2938.77
578.196	2921.34
578.398	2900.22
578.6	2896.34
578.802	2831.05
579.004	2790.75
579.206	2840.35
579.408	2878.71
579.61	2801.21
579.812	2896.34
580.014	2829.89
580.216	2838.03
580.418	2871.93
580.62	2835.12
580.822	2841.13
581.024	2918.43
581.226	2936.45
581.428	2848.49
581.63	2989.92
581.832	2857.98
582.034	2935.87
582.236	2884.14
582.438	2887.24
582.64	2961.44
582.841	2931.61
583.043	3030.61
583.245	2891.69
583.447	2915.91
583.649	2885.69
583.85	2925.02
584.052	2920.37
584.254	2864.76
584.456	2942.84
584.657	2850.62
584.859	2894.79
585.061	2912.42
585.262	2854.49
585.464	2816.13
585.666	2910.49
585.867	2825.04
586.069	2891.11
586.27	2832.99
586.472	2827.95
586.674	2789.78
586.875	2819.43
587.077	2775.06
587.278	2835.7
587.48	2826.59
587.681	2901.77
587.883	2824.85
588.084	2792.49
588.285	2801.79
588.487	2770.6
588.688	2838.61
588.89	2653
589.091	2584.8
589.292	2610.18
589.494	2535
589.695	2475.52
589.896	2431.35
590.098	2401.51
590.299	2508.46
590.5	2481.14
590.702	2507.3
590.903	2550.12
591.104	2619.87
591.305	2604.95
591.507	2673.34
591.708	2653.97
591.909	2674.12
592.11	2681.67
592.311	2712.67
592.512	2616.18
592.714	2562.71
592.915	2601.46
593.116	2569.3
593.317	2659.2
593.518	2655.52
593.719	2643.12
593.92	2686.13
594.121	2666.56
594.322	2644.28
594.523	2673.34
594.724	2615.41
594.925	2689.23
595.126	2615.8
595.327	2650.09
595.528	2665.4
595.729	2630.13
595.929	2621.61
596.13	2614.25
596.331	2643.5
596.532	2663.65
596.733	2725.65
596.934	2740.38
597.135	2689.42
597.335	2694.07
597.536	2668.5
597.737	2643.7
597.938	2627.23
598.138	2671.02
598.339	2660.94
598.54	2701.24
598.74	2629.36
598.941	2601.07
599.142	2674.7
599.342	2616.96
599.543	2596.62
599.744	2621.42
599.944	2594.68
600.145	2653.77
600.345	2615.6
600.546	2701.05
600.746	2688.84
600.947	2725.65
601.147	2607.47
601.348	2653.38
601.548	2589.64
601.749	2619.87
601.949	2529.58
602.15	2605.72
602.35	2577.63
602.551	2614.83
602.751	2546.63
602.951	2580.15
603.152	2516.79
603.352	2603.98
603.552	2565.23
603.753	2664.62
603.953	2668.3
604.153	2609.02
604.354	2657.45
604.554	2581.89
604.754	2613.47
604.954	2587.32
605.155	2631.88
605.355	2625.87
605.555	2666.75
605.755	2671.4
605.955	2648.73
606.155	2670.43
606.356	2622.58
606.556	2643.89
606.756	2608.05
606.956	2522.8
607.156	2688.45
607.356	2602.82
607.556	2608.82
607.756	2592.55
607.956	2602.43
608.156	2624.9
608.356	2543.34
608.556	2616.57
608.756	2538.88
608.956	2513.11
609.156	2582.28
609.356	2555.35
609.556	2510.4
609.755	2570.46
609.955	2474.75
610.155	2522.02
610.355	2541.01
610.555	2476.11
610.755	2494.9
610.954	2444.72
611.154	2511.17
611.354	2512.92
611.554	2481.72
611.753	2502.46
611.953	2403.84
612.153	2508.27
