Data from gum_old_FLMT105791__142__15-46-31-252.txt Node

Date: Mon Mar 20 15:46:31 GMT 2023
User: antho
Spectrometer: FLMT10579
Trigger mode: 0
Integration Time (sec): 1.000000E-1
Scans to average: 10
Electric dark correction enabled: true
Nonlinearity correction enabled: false
Boxcar width: 0
XAxis mode: Wavelengths
Number of Pixels in Spectrum: 3648
>>>>>Begin Spectral Data<<<<<
345.248	-208.52
345.464	-208.52
345.681	-208.52
345.898	-200.38
346.114	-175.39
346.331	-33.37
346.548	14.1
346.764	6.54
346.981	-24.85
347.197	-22.33
347.414	35.79
347.631	-10.51
347.847	63.69
348.064	4.41
348.28	12.93
348.497	-40.35
348.713	-6.05
348.93	50.91
349.146	41.41
349.363	-6.83
349.579	31.53
349.796	17
350.012	7.12
350.229	26.88
350.445	5.96
350.661	-19.62
350.878	14.29
351.094	19.91
351.311	37.15
351.527	24.36
351.743	-10.7
351.96	26.49
352.176	41.03
352.392	45.87
352.609	52.07
352.825	2.08
353.041	30.18
353.257	14.29
353.474	2.47
353.69	39.28
353.906	17.58
354.122	-15.74
354.339	65.24
354.555	19.52
354.771	-11.09
354.987	93.14
355.203	57.69
355.42	4.02
355.636	-10.12
355.852	14.1
356.068	6.93
356.284	-20
356.5	88.49
356.716	34.44
356.932	8.67
357.148	23.78
357.364	17.97
357.58	66.21
357.796	63.11
358.012	66.21
358.228	17.97
358.444	-29.5
358.66	63.5
358.876	55.56
359.092	10.61
359.308	14.1
359.524	31.92
359.74	15.26
359.956	-3.15
360.172	42.38
360.388	68.15
360.604	32.11
360.819	111.55
361.035	16.23
361.251	59.82
361.467	-28.53
361.683	53.23
361.898	63.69
362.114	55.75
362.33	41.03
362.546	46.84
362.762	27.46
362.977	15.84
363.193	14.48
363.409	56.72
363.624	8.67
363.84	1.5
364.056	11.58
364.271	45.87
364.487	40.06
364.703	1.89
364.918	17.58
365.134	13.51
365.35	18.75
365.565	122.79
365.781	44.32
365.996	27.46
366.212	102.64
366.427	63.11
366.643	21.07
366.858	14.29
367.074	18.55
367.289	80.55
367.505	164.44
367.72	-1.79
367.936	16.61
368.151	80.55
368.367	60.4
368.582	57.69
368.798	14.68
369.013	75.32
369.228	25.53
369.444	50.13
369.659	100.12
369.874	41.41
370.09	94.5
370.305	-37.25
370.52	37.54
370.736	74.74
370.951	35.02
371.166	66.99
371.381	123.17
371.597	96.63
371.812	-11.09
372.027	39.48
372.242	44.51
372.458	112.32
372.673	59.43
372.888	52.65
373.103	60.79
373.318	137.32
373.533	69.12
373.749	44.51
373.964	-10.32
374.179	113.49
374.394	22.62
374.609	83.46
374.824	12.35
375.039	94.11
375.254	18.75
375.469	80.74
375.684	40.64
375.899	66.41
376.114	43.16
376.329	67.57
376.544	91.01
376.759	69.89
376.974	25.91
377.189	45.68
377.404	38.31
377.619	78.03
377.834	-27.75
378.049	11.77
378.264	23.59
378.478	59.82
378.693	33.47
378.908	90.24
379.123	65.83
379.338	100.51
379.553	57.49
379.767	57.3
379.982	70.67
380.197	71.64
380.412	40.83
380.626	53.62
380.841	155.14
381.056	81.33
381.271	123.56
381.485	11
381.7	19.71
381.915	55.56
382.129	9.25
382.344	44.13
382.559	50.71
382.773	77.45
382.988	-13.22
383.202	48.19
383.417	24.94
383.632	150.11
383.846	73.19
384.061	21.84
384.275	41.03
384.49	67.18
384.704	81.52
384.919	51.1
385.133	48
385.348	95.08
385.562	20.88
385.777	72.03
385.991	54.98
386.206	31.92
386.42	33.08
386.634	106.51
386.849	102.64
387.063	69.51
387.277	41.8
387.492	54.39
387.706	40.44
387.92	47.61
388.135	105.74
388.349	81.71
388.563	75.13
388.778	71.06
388.992	81.33
389.206	102.64
389.42	145.46
389.635	64.47
389.849	99.15
390.063	114.07
390.277	111.74
390.491	141.19
390.706	129.76
390.92	100.31
391.134	75.13
391.348	124.14
391.562	43.74
391.776	98.57
391.99	68.73
392.205	127.05
392.419	82.68
392.633	65.63
392.847	127.82
393.061	56.91
393.275	141.19
393.489	82.49
393.703	82.29
393.917	122.59
394.131	26.88
394.345	82.88
394.559	100.89
394.773	60.98
394.986	107.87
395.2	95.28
395.414	128.21
395.628	87.53
395.842	103.41
396.056	85.2
396.27	32.31
396.484	116.97
396.697	127.63
396.911	127.24
397.125	102.06
397.339	102.83
397.553	117.56
397.766	147.2
397.98	140.81
398.194	152.82
398.408	94.11
398.621	142.36
398.835	142.94
399.049	138.67
399.262	161.73
399.476	193.89
399.69	161.54
399.903	214.62
400.117	157.27
400.331	176.65
400.544	126.47
400.758	225.28
400.971	166.96
401.185	175.68
401.398	125.11
401.612	214.82
401.826	192.92
402.039	187.31
402.253	113.29
402.466	213.07
402.68	145.46
402.893	179.56
403.106	173.36
403.32	147.78
403.533	180.91
403.747	164.83
403.96	171.42
404.174	191.37
404.387	146.62
404.6	172.77
404.814	223.54
405.027	176.84
405.24	165.8
405.454	188.27
405.667	202.42
405.88	105.16
406.094	193.31
406.307	228.96
406.52	178.59
406.733	162.7
406.947	137.71
407.16	228.77
407.373	213.27
407.586	219.08
407.799	145.26
408.012	218.3
408.226	200.67
408.439	252.79
408.652	136.54
408.865	179.94
409.078	268.29
409.291	227.02
409.504	172.19
409.717	230.7
409.93	233.8
410.143	205.9
410.357	171.03
410.57	151.46
410.783	164.06
410.996	170.06
411.209	197.19
411.421	231.09
411.634	214.24
411.847	184.4
412.06	200.29
412.273	233.42
412.486	245.62
412.699	310.53
412.912	178.59
413.125	252.99
413.338	227.99
413.55	253.37
413.763	196.6
413.976	250.27
414.189	219.08
414.402	224.12
414.615	274.3
414.827	197.38
415.04	261.7
415.253	223.54
415.466	260.54
415.678	278.17
415.891	229.93
416.104	213.65
416.316	201.64
416.529	209.39
416.742	250.27
416.954	294.45
417.167	236.9
417.38	221.6
417.592	277.4
417.805	179.17
418.017	190.41
418.23	258.99
418.442	205.32
418.655	207.65
418.868	232.06
419.08	264.8
419.293	282.63
419.505	238.45
419.718	238.07
419.93	274.49
420.142	244.27
420.355	304.52
420.567	285.92
420.78	277.59
420.992	231.29
421.205	313.24
421.417	208.04
421.629	246.79
421.842	243.1
422.054	202.42
422.266	305.1
422.479	282.63
422.691	238.65
422.903	281.66
423.115	240.2
423.328	230.9
423.54	261.51
423.752	230.12
423.964	225.47
424.177	259.96
424.389	236.13
424.601	363.23
424.813	272.94
425.025	300.26
425.238	283.21
425.45	276.82
425.662	250.47
425.874	559.49
426.086	273.52
426.298	250.85
426.51	292.7
426.722	275.46
426.934	256.09
427.146	305.49
427.358	230.51
427.57	280.5
427.782	259.96
427.994	240
428.206	226.83
428.418	213.27
428.63	308.2
428.842	317.89
429.054	284.37
429.266	316.53
429.478	261.12
429.69	282.82
429.902	215.01
430.114	294.25
430.325	273.91
430.537	226.05
430.749	224.7
430.961	174.91
431.173	192.54
431.384	257.83
431.596	139.45
431.808	226.83
432.02	276.82
432.231	313.63
432.443	339.4
432.655	296.77
432.867	264.61
433.078	304.13
433.29	350.05
433.502	345.02
433.713	347.53
433.925	314.6
434.136	348.7
434.348	273.72
434.56	237.68
434.771	389.77
434.983	217.14
435.194	294.45
435.406	303.36
435.617	359.93
435.829	392.1
436.04	364.2
436.252	354.12
436.463	382.8
436.675	384.93
436.886	335.52
437.098	352.18
437.309	423.87
437.521	357.61
437.732	363.62
437.943	354.9
438.155	339.01
438.366	287.28
438.578	396.36
438.789	325.06
439	362.65
439.211	306.85
439.423	333.39
439.634	334.94
439.845	373.88
440.057	357.42
440.268	400.62
440.479	356.25
440.69	347.34
440.902	347.73
441.113	371.36
441.324	328.16
441.535	388.8
441.746	428.33
441.957	327.38
442.168	340.75
442.38	416.12
442.591	422.13
442.802	353.15
443.013	379.5
443.224	419.8
443.435	358.19
443.646	371.95
443.857	374.85
444.068	354.12
444.279	361.48
444.49	460.1
444.701	350.44
444.912	494.39
445.123	441.31
445.334	426.39
445.545	411.86
445.756	401.2
445.967	363.81
446.178	405.46
446.388	424.06
446.599	430.65
446.81	442.66
447.021	413.8
447.232	442.08
447.443	462.43
447.653	404.5
447.864	476.76
448.075	419.41
448.286	430.46
448.496	439.18
448.707	509.51
448.918	386.09
449.129	494.59
449.339	407.6
449.55	441.11
449.761	405.66
449.971	460.1
450.182	414.38
450.393	478.51
450.603	421.93
450.814	472.31
451.024	443.83
451.235	504.08
451.446	517.06
451.656	525.39
451.867	416.51
452.077	450.03
452.288	497.69
452.498	526.17
452.709	433.36
452.919	486.06
453.13	404.69
453.34	489.36
453.55	421.93
453.761	472.89
453.971	453.9
454.182	457
454.392	458.36
454.602	559.88
454.813	479.86
455.023	501.56
455.233	402.56
455.444	461.07
455.654	387.06
455.864	459.71
456.075	454.87
456.285	445.57
456.495	447.31
456.705	474.05
456.916	519.97
457.126	514.74
457.336	467.85
457.546	397.33
457.756	435.5
457.967	526.56
458.177	461.84
458.387	498.08
458.597	432.4
458.807	449.83
459.017	448.67
459.227	477.34
459.437	429.1
459.647	493.62
459.857	496.91
460.068	456.42
460.278	540.89
460.488	465.72
460.698	544.96
460.908	494.98
461.117	429.1
461.327	450.22
461.537	492.65
461.747	476.38
461.957	501.18
462.167	595.53
462.377	550.19
462.587	478.89
462.797	540.12
463.007	518.81
463.216	517.45
463.426	552.32
463.636	521.52
463.846	450.41
464.056	487.42
464.265	529.85
464.475	468.43
464.685	505.24
464.895	528.69
465.104	493.23
465.314	552.91
465.524	514.54
465.733	485.09
465.943	620.72
466.153	574.41
466.362	551.94
466.572	548.26
466.782	525.39
466.991	513.77
467.201	590.88
467.41	480.64
467.62	515.51
467.829	514.54
468.039	523.07
468.249	533.34
468.458	536.44
468.668	566.47
468.877	569.96
469.086	602.89
469.296	570.15
469.505	521.33
469.715	624.79
469.924	588.36
470.134	626.92
470.343	632.54
470.552	575.57
470.762	520.74
470.971	514.54
471.18	541.86
471.39	577.32
471.599	547.09
471.808	598.82
472.018	526.17
472.227	623.82
472.436	626.72
472.645	594.76
472.855	543.8
473.064	653.27
473.273	622.46
473.482	616.84
473.691	655.59
473.901	635.05
474.11	616.46
474.319	723.79
474.528	637.96
474.737	685.43
474.946	675.55
475.155	670.51
475.364	700.35
475.573	667.22
475.783	689.5
475.992	674.39
476.201	717.79
476.41	640.29
476.619	650.36
476.828	661.99
477.037	676.32
477.245	701.12
477.454	687.37
477.663	657.53
477.872	683.1
478.081	756.73
478.29	678.26
478.499	787.34
478.708	703.84
478.917	790.25
479.125	731.15
479.334	747.62
479.543	695.12
479.752	740.65
479.961	749.37
480.169	796.64
480.378	725.15
480.587	882.47
480.796	774.17
481.004	779.4
481.213	765.83
481.422	793.35
481.63	807.3
481.839	794.9
482.048	859.8
482.256	809.81
482.465	822.6
482.674	799.16
482.882	814.85
483.091	877.82
483.299	828.41
483.508	861.16
483.716	846.43
483.925	841.4
484.134	822.99
484.342	829.96
484.551	875.3
484.759	868.91
484.967	882.86
485.176	906.3
485.384	872.78
485.593	915.41
485.801	858.83
486.01	886.54
486.218	798
486.426	736
486.635	753.24
486.843	735.42
487.051	776.49
487.26	775.72
487.468	811.95
487.676	855.15
487.885	805.55
488.093	881.5
488.301	901.46
488.509	887.7
488.717	889.25
488.926	898.16
489.134	893.13
489.342	929.55
489.55	844.69
489.758	894.48
489.967	868.13
490.175	985.93
490.383	919.09
490.591	986.9
490.799	916.96
491.007	999.11
491.215	953.77
491.423	939.63
491.631	954.74
491.839	935.17
492.047	979.54
492.255	890.22
492.463	899.52
492.671	903.2
492.879	981.86
493.087	945.63
493.295	1006.08
493.503	993.1
493.711	1006.47
493.919	1020.03
494.127	1029.33
494.334	1008.6
494.542	953.58
494.75	1003.56
494.958	950.09
495.166	1034.56
495.374	997.56
495.581	1008.6
495.789	1006.66
495.997	1095.01
496.205	978.38
496.412	981.28
496.62	1011.89
496.828	1059.75
497.035	1009.96
497.243	1066.14
497.451	1025.26
497.658	1046.77
497.866	1045.02
498.074	1099.47
498.281	987.09
498.489	1131.63
498.696	1051.61
498.904	1022.16
499.112	977.6
499.319	1111.67
499.527	1045.61
499.734	1054.52
499.942	1006.66
500.149	1035.92
500.357	1047.16
500.564	1027.59
500.771	1038.63
500.979	1038.82
501.186	1012.47
501.394	1020.03
501.601	1041.34
501.808	1067.31
502.016	1023.13
502.223	1021.58
502.43	1018.67
502.638	1024.87
502.845	998.33
503.052	1098.5
503.26	1053.55
503.467	1143.84
503.674	1063.62
503.881	1077.38
504.089	1150.04
504.296	1083
504.503	1030.88
504.71	1042.12
504.917	1032.04
505.125	1066.53
505.332	1060.33
505.539	1108.19
505.746	1146.35
505.953	1163.79
506.16	1140.35
506.367	1167.86
506.574	1188.98
506.781	1156.43
506.988	1115.16
507.195	1125.62
507.402	1097.14
507.609	1151
507.816	1129.3
508.023	1119.04
508.23	1111.48
508.437	1050.06
508.644	1119.23
508.851	1171.93
509.058	1164.57
509.265	1122.14
509.472	1179.87
509.679	1211.84
509.885	1175.8
510.092	1181.81
510.299	1137.83
510.506	1172.32
510.713	1180.45
510.92	1130.27
511.126	1156.82
511.333	1181.03
511.54	1181.62
511.746	1225.6
511.953	1221.14
512.16	1238.38
512.367	1185.68
512.573	1210.48
512.78	1178.52
512.987	1179.48
513.193	1193.82
513.4	1116.9
513.606	1161.27
513.813	1194.6
514.02	1179.87
514.226	1230.44
514.433	1245.75
514.639	1177.74
514.846	1188.98
515.052	1170.77
515.259	1204.67
515.465	1192.27
515.672	1198.28
515.878	1296.51
516.085	1208.93
516.291	1248.07
516.497	1224.05
516.704	1232.57
516.91	1160.69
517.117	1147.71
517.323	1081.06
517.529	1150.62
517.736	1092.49
517.942	1118.45
518.148	1127.37
518.354	1185.88
518.561	1169.41
518.767	1162.05
518.973	1228.12
519.179	1213.97
519.386	1157.98
519.592	1198.86
519.798	1163.98
520.004	1306.97
520.21	1237.03
520.417	1344.75
520.623	1338.55
520.829	1339.91
521.035	1322.66
521.241	1352.5
521.447	1341.84
521.653	1479.99
521.859	1336.23
522.065	1380.79
522.271	1492.19
522.477	1395.32
522.683	1469.52
522.889	1414.89
523.095	1397.64
523.301	1375.94
523.507	1380.79
523.713	1407.53
523.919	1361.22
524.125	1477.86
524.331	1422.25
524.537	1543.34
524.742	1524.35
524.948	1517.38
525.154	1511.95
525.36	1616.97
525.566	1517.96
525.772	1593.14
525.977	1464.49
526.183	1544.31
526.389	1588.87
526.595	1493.74
526.8	1507.69
527.006	1455.77
527.212	1399
527.417	1382.53
527.623	1399.39
527.829	1499.17
528.034	1478.44
528.24	1492.97
528.446	1492
528.651	1576.67
528.857	1563.69
529.062	1603.98
529.268	1587.32
529.473	1637.89
529.679	1621.03
529.884	1701.63
530.09	1660.37
530.295	1689.04
530.501	1669.28
530.706	1657.07
530.912	1600.88
531.117	1637.89
531.323	1653.78
531.528	1714.61
531.733	1719.26
531.939	1678
532.144	1717.71
532.35	1705.31
532.555	1775.84
532.76	1734.38
532.966	1710.74
533.171	1694.46
533.376	1663.85
533.581	1612.51
533.787	1651.45
533.992	1715
534.197	1712.48
534.402	1717.13
534.607	1725.66
534.813	1789.01
535.018	1725.85
535.223	1703.76
535.428	1743.29
535.633	1776.42
535.838	1774.29
536.043	1750.65
536.249	1841.52
536.454	1798.31
536.659	1832.22
536.864	1797.34
537.069	1770.03
537.274	1776.42
537.479	1772.54
537.684	1767.51
537.889	1715.58
538.094	1831.25
538.299	1769.44
538.504	1794.63
538.708	1815.94
538.913	1832.41
539.118	1804.51
539.323	1828.54
539.528	1773.9
539.733	1786.69
539.938	1803.54
540.142	1833.96
540.347	1786.49
540.552	1709
540.757	1751.23
540.962	1756.66
541.166	1723.91
541.371	1702.41
541.576	1764.02
541.781	1669.86
541.985	1793.08
542.19	1808.78
542.395	1871.36
542.599	1868.06
542.804	1834.16
543.008	1879.49
543.213	1790.56
543.418	1779.71
543.622	1809.16
543.827	1755.3
544.031	1875.23
544.236	1869.03
544.44	1862.64
544.645	1950.02
544.849	1829.7
545.054	1900.03
545.258	1927.35
545.463	1893.44
545.667	1843.65
545.872	1877.94
546.076	1889.57
546.281	1873.87
546.485	1831.83
546.689	1869.22
546.894	1907.01
547.098	1853.73
547.302	1822.34
547.507	1869.81
547.711	1895.77
547.915	1934.32
548.119	1803.74
548.324	1843.46
548.528	1893.64
548.732	1854.89
548.936	1909.33
549.141	1876.39
549.345	1879.3
549.549	1904.1
549.753	1881.62
549.957	1988.57
550.161	1993.61
550.366	1865.35
550.57	1853.53
550.774	1906.62
550.978	1905.84
551.182	1928.51
551.386	1856.44
551.59	1878.52
551.794	1894.99
551.998	1925.61
552.202	1861.86
552.406	1833.77
552.61	1909.14
552.814	1901.58
553.018	1952.73
553.222	1879.49
553.426	1896.16
553.63	1964.94
553.833	1850.04
554.037	1841.33
554.241	1906.04
554.445	1895.38
554.649	1890.34
554.853	1860.12
555.056	1929.29
555.26	1957.96
555.464	1880.85
555.668	1897.9
555.871	1911.07
556.075	1932
556.279	1866.12
556.483	1816.53
556.686	1868.64
556.89	1887.24
557.094	1910.3
557.297	1819.63
557.501	1891.51
557.704	1746.39
557.908	1863.99
558.112	1803.74
558.315	1916.69
558.519	1804.13
558.722	1843.46
558.926	1786.49
559.129	1785.14
559.333	1766.54
559.536	1780.49
559.74	1739.03
559.943	1727.4
560.147	1751.62
560.35	1767.51
560.553	1766.35
560.757	1698.53
560.96	1824.86
561.164	1757.63
561.367	1875.42
561.57	1770.99
561.774	1794.83
561.977	1747.75
562.18	1752.01
562.384	1830.48
562.587	1732.44
562.79	1757.24
562.993	1749.1
563.197	1744.45
563.4	1785.72
563.603	1821.76
563.806	1820.79
564.009	1701.44
564.212	1751.23
564.416	1675.67
564.619	1744.84
564.822	1680.13
565.025	1742.13
565.228	1715.97
565.431	1718.3
565.634	1627.04
565.837	1651.84
566.04	1661.33
566.243	1649.71
566.446	1553.42
566.649	1684.58
566.852	1588.49
567.055	1611.54
567.258	1684
567.461	1703.18
567.664	1736.9
567.867	1614.64
568.07	1649.52
568.273	1661.72
568.475	1703.38
568.678	1624.52
568.881	1600.69
569.084	1640.8
569.287	1501.11
569.489	1568.92
569.692	1631.3
569.895	1633.24
570.098	1527.26
570.3	1526.29
570.503	1480.76
570.706	1531.33
570.909	1495.87
571.111	1460.22
571.314	1491.61
571.516	1478.44
571.719	1544.12
571.922	1474.56
572.124	1465.84
572.327	1473.79
572.529	1410.04
572.732	1457.12
572.935	1488.51
573.137	1531.33
573.34	1468.94
573.542	1521.25
573.745	1514.28
573.947	1521.06
574.15	1454.22
574.352	1459.84
574.554	1542.95
574.757	1480.76
574.959	1410.04
575.162	1430.58
575.364	1454.99
575.566	1501.3
575.769	1380.98
575.971	1457.51
576.173	1332.54
576.376	1372.65
576.578	1406.56
576.78	1489.48
576.982	1349.59
577.185	1411.59
577.387	1369.16
577.589	1377.69
577.791	1415.86
577.993	1393.77
578.196	1375.36
578.398	1380.21
578.6	1409.85
578.802	1319.76
579.004	1335.64
579.206	1320.92
579.408	1382.14
579.61	1319.18
579.812	1379.04
580.014	1317.82
580.216	1324.6
580.418	1363.54
580.62	1313.95
580.822	1278.3
581.024	1334.87
581.226	1404.43
581.428	1316.66
581.63	1406.36
581.832	1325.57
582.034	1376.72
582.236	1335.45
582.438	1351.14
582.64	1395.51
582.841	1405.59
583.043	1444.92
583.245	1383.31
583.447	1345.53
583.649	1328.67
583.85	1349.79
584.052	1418.57
584.254	1281.2
584.456	1372.26
584.657	1307.16
584.859	1341.65
585.061	1325.38
585.262	1324.02
585.464	1256.4
585.666	1331
585.867	1290.11
586.069	1361.99
586.27	1293.02
586.472	1257.95
586.674	1297.09
586.875	1261.05
587.077	1232.18
587.278	1275.39
587.48	1276.55
587.681	1374.78
587.883	1266.09
588.084	1255.63
588.285	1258.92
588.487	1251.17
588.688	1279.07
588.89	1239.35
589.091	1196.92
589.292	1186.27
589.494	1156.43
589.695	1153.91
589.896	1079.7
590.098	1060.14
590.299	1134.92
590.5	1092.3
590.702	1137.44
590.903	1155.27
591.104	1227.15
591.305	1163.98
591.507	1260.08
591.708	1184.72
591.909	1188.98
592.11	1253.69
592.311	1224.24
592.512	1164.18
592.714	1123.1
592.915	1144.22
593.116	1148.1
593.317	1162.05
593.518	1167.67
593.719	1153.14
593.92	1201.38
594.121	1229.67
594.322	1184.33
594.523	1162.82
594.724	1163.4
594.925	1187.23
595.126	1172.9
595.327	1183.36
595.528	1185.88
595.729	1198.47
595.929	1191.88
596.13	1165.53
596.331	1171.35
596.532	1165.53
596.733	1224.24
596.934	1208.35
597.135	1249.81
597.335	1186.07
597.536	1152.75
597.737	1163.21
597.938	1134.54
598.138	1175.42
598.339	1157.01
598.54	1174.25
598.74	1185.68
598.941	1197.7
599.142	1233.54
599.342	1167.86
599.543	1129.69
599.744	1160.5
599.944	1180.26
600.145	1101.02
600.345	1154.1
600.546	1237.61
600.746	1229.28
600.947	1255.24
601.147	1169.41
601.348	1178.71
601.548	1099.66
601.749	1145
601.949	1114
602.15	1083
602.35	1120.39
602.551	1198.08
602.751	1113.8
602.951	1117.49
603.152	1021
603.352	1178.52
603.552	1144.42
603.753	1166.12
603.953	1142.67
604.153	1150.81
604.354	1145.58
604.554	1174.25
604.754	1128.34
604.954	1106.83
605.155	1133.95
605.355	1101.02
605.555	1163.4
605.755	1169.8
605.955	1136.47
606.155	1176.97
606.356	1125.43
606.556	1140.93
606.756	1166.7
606.956	1073.89
607.156	1183.75
607.356	1104.7
607.556	1147.52
607.756	1130.08
607.956	1146.55
608.156	1123.69
608.356	1086.1
608.556	1145
608.756	1101.4
608.956	1089.97
609.156	1109.54
609.356	1046.77
609.556	1076.99
609.755	1091.52
609.955	1070.02
610.155	1101.99
610.355	1081.45
610.555	1042.51
610.755	1057.04
610.954	1017.9
611.154	1085.71
611.354	1104.89
611.554	1073.7
611.753	1048.32
611.953	1009.57
612.153	1084.16
612.352	1059.94
612.552	1014.8
612.752	961.33
612.951	1048.71
613.151	1031.46
613.351	985.54
613.55	1031.46
613.75	1070.79
613.949	1028.75
614.149	1055.87
614.348	1047.54
614.548	988.06
614.747	965.39
614.947	982.83
615.146	958.03
615.346	1031.66
615.545	982.64
615.745	1003.95
615.944	1006.86
616.144	1043.47
616.343	1045.99
616.542	991.36
