Data from gum_old_FLMT105791__0__15-42-22-260.txt Node

Date: Mon Mar 20 15:42:22 GMT 2023
User: antho
Spectrometer: FLMT10579
Trigger mode: 0
Integration Time (sec): 1.000000E-1
Scans to average: 10
Electric dark correction enabled: true
Nonlinearity correction enabled: false
Boxcar width: 0
XAxis mode: Wavelengths
Number of Pixels in Spectrum: 3648
>>>>>Begin Spectral Data<<<<<
345.248	-158.58
345.464	-158.58
345.681	-158.58
345.898	-177.57
346.114	-178.15
346.331	-66.16
346.548	41.56
346.764	-3.39
346.981	5.91
347.197	-17.34
347.414	5.52
347.631	-12.69
347.847	46.98
348.064	8.82
348.28	47.56
348.497	-32.84
348.713	-23.93
348.93	40.4
349.146	21.8
349.363	18.12
349.579	42.53
349.796	2.42
350.012	3.58
350.229	16.57
350.445	37.88
350.661	-12.11
350.878	43.88
351.094	26.64
351.311	19.28
351.527	31.1
351.743	4.36
351.96	54.73
352.176	46.98
352.392	40.4
352.609	26.83
352.825	9.59
353.041	27.42
353.257	-11.14
353.474	16.18
353.69	35.17
353.906	31.1
354.122	-14.43
354.339	73.91
354.555	15.98
354.771	17.34
354.987	91.93
355.203	94.84
355.42	19.67
355.636	-7.85
355.852	6.68
356.068	29.16
356.284	-13.08
356.5	65
356.716	76.63
356.932	42.72
357.148	56.28
357.364	29.93
357.58	70.81
357.796	98.33
358.012	59.38
358.228	34.58
358.444	-22.38
358.66	93.1
358.876	44.27
359.092	-19.28
359.308	66.36
359.524	48.92
359.74	42.92
359.956	27.42
360.172	55.12
360.388	92.51
360.604	47.95
360.819	114.6
361.035	30.52
361.251	74.69
361.467	20.05
361.683	110.15
361.898	46.79
362.114	78.18
362.33	71.2
362.546	79.73
362.762	62.48
362.977	37.88
363.193	8.43
363.409	96.58
363.624	27.22
363.84	41.95
364.056	55.9
364.271	75.27
364.487	63.84
364.703	58.8
364.918	4.75
365.134	55.12
365.35	52.02
365.565	158.78
365.781	86.12
365.996	95.03
366.212	148.51
366.427	84.76
366.643	66.36
366.858	67.91
367.074	40.2
367.289	157.42
367.505	171.18
367.72	23.73
367.936	40.78
368.151	90
368.367	83.6
368.582	71.98
368.798	60.16
369.013	123.32
369.228	92.13
369.444	91.74
369.659	127.58
369.874	72.36
370.09	126.61
370.305	13.85
370.52	71.78
370.736	131.46
370.951	87.86
371.166	121.58
371.381	134.94
371.597	121.77
371.812	22.96
372.027	55.51
372.242	93.29
372.458	149.48
372.673	60.93
372.888	60.74
373.103	100.26
373.318	151.8
373.533	86.9
373.749	118.86
373.964	49.31
374.179	109.56
374.394	58.61
374.609	114.02
374.824	53.96
375.039	116.54
375.254	44.85
375.469	136.69
375.684	74.88
375.899	137.85
376.114	78.76
376.329	82.83
376.544	117.7
376.759	109.37
376.974	77.79
377.189	100.65
377.404	79.15
377.619	124.48
377.834	63.65
378.049	65.78
378.264	66.16
378.478	100.46
378.693	71.98
378.908	144.05
379.123	97.94
379.338	165.17
379.553	106.46
379.767	132.04
379.982	137.08
380.197	126.23
380.412	82.44
380.626	119.83
380.841	203.73
381.056	151.41
381.271	176.02
381.485	117.12
381.7	91.55
381.915	139.59
382.129	88.06
382.344	116.54
382.559	105.69
382.773	130.49
382.988	59.19
383.202	91.93
383.417	58.22
383.632	168.66
383.846	80.89
384.061	86.31
384.275	74.88
384.49	126.81
384.704	139.01
384.919	131.46
385.133	118.67
385.348	176.6
385.562	88.06
385.777	168.27
385.991	108.98
386.206	78.56
386.42	122.35
386.634	165.17
386.849	153.16
387.063	147.93
387.277	107.63
387.492	105.69
387.706	91.55
387.92	89.03
388.135	160.71
388.349	155.29
388.563	125.06
388.778	123.13
388.992	157.42
389.206	152.58
389.42	237.24
389.635	151.61
389.849	170.98
390.063	191.52
390.277	183.77
390.491	220.97
390.706	192.49
390.92	207.99
391.134	154.13
391.348	191.13
391.562	122.74
391.776	184.16
391.99	137.46
392.205	217.29
392.419	153.35
392.633	190.36
392.847	220.19
393.061	110.34
393.275	205.47
393.489	127.58
393.703	121.96
393.917	134.94
394.131	107.63
394.345	121.77
394.559	155.68
394.773	151.61
394.986	161.68
395.2	203.14
395.414	241.31
395.628	173.11
395.842	213.8
396.056	210.7
396.27	133.39
396.484	194.43
396.697	200.63
396.911	199.66
397.125	195.59
397.339	165.75
397.553	160.71
397.766	224.84
397.98	224.46
398.194	207.41
398.408	231.43
398.621	252.36
398.835	254.49
399.049	264.17
399.262	315.32
399.476	322.3
399.69	298.08
399.903	329.66
400.117	292.07
400.331	295.56
400.544	284.32
400.758	408.52
400.971	304.09
401.185	329.85
401.398	275.61
401.612	365.12
401.826	359.3
402.039	356.59
402.253	293.24
402.466	340.9
402.68	341.29
402.893	364.54
403.106	370.15
403.32	323.65
403.533	340.51
403.747	293.62
403.96	364.92
404.174	382.17
404.387	329.66
404.6	339.54
404.814	381.39
405.027	333.92
405.24	350
405.454	301.76
405.667	394.95
405.88	299.05
406.094	352.33
406.307	378.1
406.52	351.94
406.733	312.03
406.947	297.5
407.16	390.11
407.373	398.25
407.586	334.89
407.799	322.69
408.012	369.96
408.226	351.17
408.439	423.05
408.652	333.92
408.865	385.85
409.078	415.1
409.291	410.65
409.504	398.83
409.717	408.13
409.93	403.48
410.143	364.15
410.357	306.02
410.57	303.7
410.783	359.89
410.996	368.41
411.209	377.71
411.421	444.55
411.634	403.09
411.847	366.47
412.06	436.61
412.273	455.21
412.486	433.7
412.699	511.2
412.912	415.88
413.125	454.24
413.338	449.2
413.55	455.6
413.763	393.98
413.976	445.72
414.189	428.86
414.402	428.28
414.615	499
414.827	409.87
415.04	478.46
415.253	462.57
415.466	478.65
415.678	492.99
415.891	460.05
416.104	448.23
416.316	439.71
416.529	480.98
416.742	515.27
416.954	492.41
417.167	486.98
417.38	455.21
417.592	492.02
417.805	410.07
418.017	422.85
418.23	481.56
418.442	445.52
418.655	431.38
418.868	449.2
419.08	493.57
419.293	507.13
419.505	488.34
419.718	494.35
419.93	515.85
420.142	457.92
420.355	468.77
420.567	521.47
420.78	496.67
420.992	475.75
421.205	549.95
421.417	500.74
421.629	508.88
421.842	497.06
422.054	485.63
422.266	540.26
422.479	552.47
422.691	476.52
422.903	534.84
423.115	477.68
423.328	487.56
423.54	511.01
423.752	485.63
423.964	499
424.177	521.66
424.389	505.39
424.601	624.54
424.813	542.01
425.025	549.18
425.238	560.61
425.45	491.44
425.662	519.34
425.874	813.25
426.086	527.28
426.298	532.71
426.51	529.22
426.722	513.14
426.934	544.91
427.146	556.54
427.358	487.37
427.57	558.09
427.782	501.9
427.994	513.72
428.206	501.32
428.418	504.81
428.63	586.96
428.842	594.71
429.054	529.41
429.266	561.96
429.478	498.61
429.69	533.68
429.902	446.1
430.114	541.62
430.325	504.61
430.537	439.13
430.749	456.76
430.961	399.8
431.173	449.98
431.384	438.93
431.596	384.69
431.808	499
432.02	569.52
432.231	592.96
432.443	636.75
432.655	616.6
432.867	589.28
433.078	607.49
433.29	661.94
433.502	606.91
433.713	648.57
433.925	670.66
434.136	662.71
434.348	568.16
434.56	538.71
434.771	673.17
434.983	513.91
435.194	626.68
435.406	631.71
435.617	693.52
435.829	725.49
436.04	676.27
436.252	663.87
436.463	738.86
436.675	741.37
436.886	720.64
437.098	740.79
437.309	760.55
437.521	711.73
437.732	714.44
437.943	699.14
438.155	696.23
438.366	627.45
438.578	721.03
438.789	654.19
439	685.77
439.211	647.41
439.423	660.77
439.634	685.57
439.845	754.94
440.057	721.61
440.268	755.9
440.479	701.07
440.69	721.22
440.902	691.58
441.113	692.74
441.324	679.37
441.535	779.54
441.746	790.59
441.957	754.74
442.168	746.02
442.38	793.3
442.591	805.12
442.802	737.5
443.013	765.2
443.224	809.77
443.435	805.89
443.646	775.28
443.857	775.09
444.068	771.21
444.279	754.74
444.49	881.84
444.701	811.51
444.912	908.58
445.123	870.41
445.334	849.1
445.545	813.06
445.756	784.58
445.967	800.66
446.178	785.55
446.388	817.52
446.599	792.33
446.81	812.09
447.021	789.04
447.232	845.61
447.443	855.3
447.653	812.09
447.864	877
448.075	871.38
448.286	895.98
448.496	854.72
448.707	879.13
448.918	808.8
449.129	929.11
449.339	850.26
449.55	887.85
449.761	836.89
449.971	898.7
450.182	867.89
450.393	917.1
450.603	885.52
450.814	942.1
451.024	940.93
451.235	974.45
451.446	994.21
451.656	1000.41
451.867	919.81
452.077	896.18
452.288	976
452.498	978.52
452.709	907.03
452.919	931.44
453.13	865.18
453.34	914.2
453.55	846.77
453.761	884.36
453.971	877.19
454.182	909.93
454.392	943.26
454.602	972.71
454.813	951.98
455.023	947.13
455.233	881.65
455.444	941.51
455.654	857.43
455.864	921.75
456.075	907.8
456.285	917.1
456.495	957.6
456.705	929.31
456.916	967.67
457.126	1017.85
457.336	957.21
457.546	882.81
457.756	936.48
457.967	997.7
458.177	954.3
458.387	962.05
458.597	886.1
458.807	927.76
459.017	926.6
459.227	921.36
459.437	929.5
459.647	959.15
459.857	992.08
460.068	967.67
460.278	1007.78
460.488	964.38
460.698	1025.41
460.908	991.31
461.117	936.86
461.327	962.83
461.537	991.5
461.747	1012.43
461.957	1020.76
462.167	1112.59
462.377	1036.64
462.587	998.86
462.797	1084.11
463.007	1024.24
463.216	1078.49
463.426	1108.91
463.636	1049.24
463.846	978.52
464.056	1012.43
464.265	1068.81
464.475	996.54
464.685	1025.6
464.895	1050.79
465.104	998.48
465.314	1076.17
465.524	1022.5
465.733	1031.22
465.943	1110.85
466.153	1081.01
466.362	1119.18
466.572	1076.36
466.782	1045.36
466.991	1075.98
467.201	1115.5
467.41	1007.39
467.62	1061.44
467.829	1055.05
468.039	1080.43
468.249	1110.07
468.458	1086.24
468.668	1133.13
468.877	1125.19
469.086	1178.66
469.296	1160.26
469.505	1124.8
469.715	1218.38
469.924	1113.17
470.134	1184.28
470.343	1162.39
470.552	1138.75
470.762	1130.03
470.971	1096.71
471.18	1156.38
471.39	1142.82
471.599	1106.59
471.808	1194.35
472.018	1183.89
472.227	1224.77
472.436	1276.12
472.645	1249.96
472.855	1202.3
473.064	1321.26
473.273	1270.69
473.482	1278.05
473.691	1304.21
473.901	1274.95
474.11	1224.58
474.319	1339.08
474.528	1265.85
474.737	1349.16
474.946	1307.7
475.155	1343.54
475.364	1378.8
475.573	1338.31
475.783	1380.55
475.992	1393.14
476.201	1374.73
476.41	1393.14
476.619	1330.75
476.828	1366.01
477.037	1339.28
477.245	1346.45
477.454	1386.55
477.663	1382.48
477.872	1411.16
478.081	1509.19
478.29	1416.39
478.499	1523.73
478.708	1493.5
478.917	1529.54
479.125	1465.79
479.334	1503.77
479.543	1489.24
479.752	1529.73
479.961	1521.98
480.169	1565.19
480.378	1543.29
480.587	1677.56
480.796	1587.66
481.004	1568.09
481.213	1582.62
481.422	1576.23
481.63	1592.7
481.839	1620.02
482.048	1713.6
482.256	1664.97
482.465	1666.71
482.674	1685.12
482.882	1661.09
483.091	1748.28
483.299	1657.99
483.508	1715.15
483.716	1680.47
483.925	1706.43
484.134	1683.76
484.342	1702.75
484.551	1763.97
484.759	1712.43
484.967	1763.2
485.176	1770.75
485.384	1802.72
485.593	1763.2
485.801	1761.65
486.01	1661.87
486.218	1594.44
486.426	1511.52
486.635	1506.09
486.843	1510.36
487.051	1523.92
487.26	1551.43
487.468	1598.51
487.676	1661.09
487.885	1667.49
488.093	1694.42
488.301	1786.83
488.509	1807.37
488.717	1831.78
488.926	1801.75
489.134	1800.98
489.342	1809.31
489.55	1778.31
489.758	1818.03
489.967	1852.71
490.175	1949.19
490.383	1898.24
490.591	1966.05
490.799	1900.56
491.007	1977.29
491.215	1962.76
491.423	1930.98
491.631	1958.11
491.839	1939.12
492.047	1904.83
492.255	1867.82
492.463	1835.85
492.671	1837.01
492.879	1916.06
493.087	1903.47
493.295	1964.89
493.503	2002.09
493.711	2028.05
493.919	2009.64
494.127	2027.66
494.334	2018.17
494.542	1949.58
494.75	2046.84
494.958	1991.43
495.166	2098.19
495.374	2093.15
495.581	2125.5
495.789	2109.81
495.997	2171.81
496.205	2046.26
496.412	2058.85
496.62	2057.5
496.828	2057.69
497.035	2075.32
497.243	2106.9
497.451	2109.42
497.658	2109.42
497.866	2099.15
498.074	2194.09
498.281	2121.05
498.489	2206.68
498.696	2083.27
498.904	2025.34
499.112	2027.08
499.319	2145.85
499.527	2107.68
499.734	2153.21
499.942	2071.84
500.149	2085.98
500.357	2132.48
500.564	2050.33
500.771	2081.52
500.979	2023.79
501.186	2030.57
501.394	2075.32
501.601	1981.55
501.808	2051.3
502.016	2042.39
502.223	2033.67
502.43	2038.71
502.638	2046.65
502.845	2028.24
503.052	2164.45
503.26	2104.19
503.467	2195.64
503.674	2141.2
503.881	2116.01
504.089	2228.38
504.296	2126.47
504.503	2075.13
504.71	2125.12
504.917	2056.34
505.125	2131.9
505.332	2152.05
505.539	2143.91
505.746	2237.49
505.953	2258.8
506.16	2257.25
506.367	2312.47
506.574	2359.55
506.781	2339.59
506.988	2211.72
507.195	2254.93
507.402	2216.18
507.609	2287.28
507.816	2197
508.023	2178.2
508.23	2156.5
508.437	2131.51
508.644	2211.72
508.851	2259.58
509.058	2275.66
509.265	2266.75
509.472	2252.6
509.679	2386.48
509.885	2265.2
510.092	2320.41
510.299	2290.38
510.506	2259
510.713	2264.42
510.92	2249.7
511.126	2283.6
511.333	2322.93
511.54	2360.71
511.746	2345.6
511.953	2362.07
512.16	2395.59
512.367	2345.41
512.573	2324.68
512.78	2317.12
512.987	2290.19
513.193	2283.41
513.4	2203.78
513.606	2309.18
513.813	2290.58
514.02	2265.39
514.226	2343.66
514.433	2353.35
514.639	2196.8
514.846	2306.46
515.052	2230.51
515.259	2247.76
515.465	2316.54
515.672	2316.34
515.878	2370.01
516.085	2341.53
516.291	2366.53
516.497	2335.14
516.704	2271.59
516.91	2209.01
517.117	2130.35
517.323	2026.5
517.529	2039.29
517.736	2072.61
517.942	2093.54
518.148	2108.84
518.354	2208.23
518.561	2173.17
518.767	2184.4
518.973	2221.6
519.179	2263.45
519.386	2196.8
519.592	2211.14
519.798	2223.73
520.004	2334.75
520.21	2281.08
520.417	2362.84
520.623	2388.42
520.829	2402.37
521.035	2424.26
521.241	2379.12
521.447	2450.03
521.653	2532.95
521.859	2443.83
522.065	2487.81
522.271	2552.14
522.477	2494.79
522.683	2556.98
522.889	2502.15
523.095	2478.32
523.301	2484.71
523.507	2429.11
523.713	2443.25
523.919	2473.09
524.125	2564.92
524.331	2505.83
524.537	2660.63
524.742	2649.2
524.948	2638.55
525.154	2658.5
525.36	2756.73
525.566	2592.63
525.772	2684.66
525.977	2601.73
526.183	2638.35
526.389	2662.18
526.595	2580.62
526.8	2554.27
527.006	2437.24
527.212	2410.89
527.417	2398.3
527.623	2380.28
527.829	2508.15
528.034	2513.97
528.24	2532.57
528.446	2516.49
528.651	2694.15
528.857	2647.27
529.062	2743.56
529.268	2729.41
529.473	2807.69
529.679	2783.66
529.884	2835.98
530.09	2799.16
530.295	2782.5
530.501	2769.13
530.706	2809.43
530.912	2700.16
531.117	2815.44
531.323	2809.82
531.528	2899.91
531.733	2868.72
531.939	2865.81
532.144	2847.79
532.35	2845.08
532.555	2878.99
532.76	2804.01
532.966	2858.45
533.171	2739.3
533.376	2725.73
533.581	2698.61
533.787	2746.66
533.992	2816.41
534.197	2818.93
534.402	2781.14
534.607	2810.98
534.813	2917.54
535.018	2811.56
535.223	2829
535.428	2848.76
535.633	2906.5
535.838	2904.37
536.043	2932.46
536.249	3029.33
536.454	2910.76
536.659	2951.45
536.864	2943.5
537.069	2891.58
537.274	2923.36
537.479	2899.91
537.684	2884.02
537.889	2800.52
538.094	2968.89
538.299	2897.78
538.504	2914.06
538.708	2922.77
538.913	2984.19
539.118	2947.38
539.323	2969.27
539.528	2889.84
539.733	2917.74
539.938	2918.9
540.142	2931.88
540.347	2891
540.552	2824.16
540.757	2820.67
540.962	2818.93
541.166	2761.77
541.371	2798.39
541.576	2803.43
541.781	2747.63
541.985	2879.76
542.19	2896.42
542.395	2944.67
542.599	2981.48
542.804	2896.04
543.008	2974.89
543.213	2873.37
543.418	2885.77
543.622	2933.82
543.827	2903.21
544.031	2960.75
544.236	2969.27
544.44	2967.92
544.645	3035.15
544.849	2940.02
545.054	3006.09
545.258	3038.83
545.463	3021.39
545.667	2938.08
545.872	3006.09
546.076	2975.28
546.281	2973.54
546.485	2947.38
546.689	2984.97
546.894	3030.11
547.098	3015
547.302	2936.53
547.507	3013.25
547.711	3010.93
547.915	3028.95
548.119	2922.97
548.324	2934.2
548.528	2994.46
548.732	2977.02
548.936	2995.04
549.141	3005.12
549.345	2963.46
549.549	3011.12
549.753	3028.95
549.957	3087.65
550.161	3070.41
550.366	3025.46
550.57	2982.25
550.774	3002.6
550.978	2999.5
551.182	2979.15
551.386	2992.72
551.59	2982.06
551.794	2981.87
551.998	3014.22
552.202	3011.12
552.406	2969.66
552.61	3026.43
552.814	3024.1
553.018	3101.99
553.222	2967.72
553.426	2972.18
553.63	3066.53
553.833	3017.9
554.037	2941.37
554.241	2981.29
554.445	3033.21
554.649	3017.13
554.853	2963.27
555.056	3026.43
555.26	3058.98
555.464	3021.39
555.668	3022.17
555.871	2982.45
556.075	3048.13
556.279	2985.35
556.483	2948.35
556.686	2969.85
556.89	2955.71
557.094	2973.54
557.297	2873.95
557.501	2992.52
557.704	2841.79
557.908	2950.48
558.112	2920.45
558.315	2986.71
558.519	2908.82
558.722	2878.02
558.926	2864.65
559.129	2806.91
559.333	2818.15
559.536	2811.95
559.74	2757.51
559.943	2759.06
560.147	2768.74
560.35	2784.83
560.553	2802.46
560.757	2758.67
560.96	2876.08
561.164	2809.04
561.367	2959.2
561.57	2798.97
561.774	2834.04
561.977	2823.77
562.18	2791.99
562.384	2906.89
562.587	2800.52
562.79	2783.86
562.993	2789.09
563.197	2809.24
563.4	2879.57
563.603	2848.18
563.806	2888.29
564.009	2794.71
564.212	2834.81
564.416	2744.91
564.619	2788.7
564.822	2737.16
565.025	2823.38
565.228	2735.81
565.431	2773.2
565.634	2642.42
565.837	2710.81
566.04	2659.47
566.243	2684.85
566.446	2594.57
566.649	2712.95
566.852	2607.55
567.055	2619.17
567.258	2655.6
567.461	2748.6
567.664	2725.54
567.867	2640.48
568.07	2692.21
568.273	2717.98
568.475	2728.06
568.678	2627.12
568.881	2604.83
569.084	2614.72
569.287	2505.25
569.489	2546.13
569.692	2606.58
569.895	2633.51
570.098	2552.52
570.3	2548.45
570.503	2471.73
570.706	2496.92
570.909	2493.62
571.111	2412.25
571.314	2447.71
571.516	2454.68
571.719	2494.4
571.922	2422.32
572.124	2475.99
572.327	2495.95
572.529	2415.16
572.732	2431.82
572.935	2490.52
573.137	2602.12
573.34	2483.55
573.542	2550.39
573.745	2514.35
573.947	2500.02
574.15	2450.22
574.352	2468.05
574.554	2548.45
574.757	2467.66
574.959	2418.64
575.162	2430.66
575.364	2382.61
575.566	2522.88
575.769	2395.59
575.971	2443.44
576.173	2275.46
576.376	2426.39
576.578	2439.76
576.78	2479.67
576.982	2345.79
577.185	2414.57
577.387	2350.64
577.589	2385.71
577.791	2412.44
577.993	2428.72
578.196	2367.88
578.398	2370.21
578.6	2416.71
578.802	2303.95
579.004	2280.89
579.206	2271.59
579.408	2353.16
579.61	2275.46
579.812	2356.26
580.014	2323.13
580.216	2305.88
580.418	2316.15
580.62	2326.81
580.822	2265.2
581.024	2377.57
581.226	2386.29
581.428	2320.8
581.63	2405.66
581.832	2314.6
582.034	2371.18
582.236	2334.94
582.438	2441.89
582.64	2401.79
582.841	2388.23
583.043	2459.14
583.245	2333.2
583.447	2354.32
583.649	2357.03
583.85	2399.46
584.052	2395.2
584.254	2329.13
584.456	2348.51
584.657	2320.99
584.859	2357.03
585.061	2307.43
585.262	2296.78
585.464	2294.26
585.666	2343.08
585.867	2275.66
586.069	2303.56
586.27	2284.76
586.472	2245.63
586.674	2276.82
586.875	2228
587.077	2243.3
587.278	2283.02
587.48	2265.58
587.681	2355.29
587.883	2302.78
588.084	2183.43
588.285	2190.6
588.487	2183.05
588.688	2240.98
588.89	2104.77
589.091	2087.34
589.292	2082.88
589.494	2020.49
589.695	2016.42
589.896	1925.56
590.098	1970.89
590.299	2019.14
590.5	1956.94
590.702	2000.92
590.903	2055.56
591.104	2164.25
591.305	2086.56
591.507	2146.43
591.708	2125.5
591.909	2063.12
592.11	2179.37
592.311	2124.34
592.512	2118.14
592.714	2044.91
592.915	2065.44
593.116	2052.07
593.317	2095.09
593.518	2091.4
593.719	2097.22
593.92	2115.62
594.121	2185.95
594.322	2113.49
594.523	2118.14
594.724	2037.16
594.925	2096.44
595.126	2105.55
595.327	2100.7
595.528	2085.98
595.729	2104.58
595.929	2091.21
596.13	2109.23
596.331	2112.91
596.532	2111.17
596.733	2190.6
596.934	2168.52
597.135	2152.63
597.335	2115.43
597.536	2112.52
597.737	2101.67
597.938	2088.3
598.138	2147.4
598.339	2094.5
598.54	2117.37
598.74	2091.02
598.941	2132.67
599.142	2116.59
599.342	2051.88
599.543	2051.69
599.744	2026.31
599.944	2099.54
600.145	2080.36
600.345	2071.06
600.546	2144.88
600.746	2127.25
600.947	2175.3
601.147	2052.66
601.348	2090.05
601.548	2020.88
601.749	2060.79
601.949	2021.07
602.15	1991.62
602.35	2038.71
602.551	2087.92
602.751	2039.29
602.951	2009.26
603.152	1984.65
603.352	2058.66
603.552	2035.61
603.753	2086.75
603.953	2083.27
604.153	2068.15
604.354	2053.43
604.554	2005.77
604.754	2069.51
604.954	2041.42
605.155	2067.77
605.355	2037.16
605.555	2059.63
605.755	2106.52
605.955	2065.64
606.155	2099.93
606.356	2071.25
606.556	2112.52
606.756	2100.7
606.956	1985.81
607.156	2082.88
607.356	2007.71
607.556	2021.46
607.756	2049.17
607.956	2075.9
608.156	2059.82
608.356	2049.36
608.556	2110.39
608.756	2010.03
608.956	1987.17
609.156	2008.67
609.356	1986.39
609.556	1968.96
609.755	1995.11
609.955	1981.74
610.155	1994.92
610.355	1995.5
610.555	1941.44
610.755	1948.42
610.954	1918.58
611.154	2003.83
611.354	1993.95
611.554	1930.01
611.753	1959.27
611.953	1948.81
612.153	1993.76
612.352	1979.42
612.552	1924.39
612.752	1854.45
612.951	1915.87
613.151	1928.85
613.351	1918.39
613.55	1918
