Data from gum_old_FLMT105791__152__15-47-39-250.txt Node

Date: Mon Mar 20 15:47:39 GMT 2023
User: antho
Spectrometer: FLMT10579
Trigger mode: 0
Integration Time (sec): 1.000000E-1
Scans to average: 10
Electric dark correction enabled: true
Nonlinearity correction enabled: false
Boxcar width: 0
XAxis mode: Wavelengths
Number of Pixels in Spectrum: 3648
>>>>>Begin Spectral Data<<<<<
345.248	-163.57
345.464	-163.57
345.681	-163.57
345.898	-163.38
346.114	-166.86
346.331	-32.4
346.548	16.61
346.764	-22.52
346.981	-14.58
347.197	8.48
347.414	3.83
347.631	-21.55
347.847	96.24
348.064	-10.51
348.28	29.98
348.497	-35.31
348.713	-18.26
348.93	33.08
349.146	48
349.363	17.97
349.579	21.65
349.796	7.7
350.012	-14.97
350.229	29.59
350.445	12.35
350.661	0.15
350.878	33.08
351.094	25.72
351.311	10.22
351.527	30.37
351.743	-14.39
351.96	65.44
352.176	61.95
352.392	44.9
352.609	50.52
352.825	4.6
353.041	23.2
353.257	7.9
353.474	14.68
353.69	54.2
353.906	15.06
354.122	-3.34
354.339	90.82
354.555	35.21
354.771	31.73
354.987	88.11
355.203	71.25
355.42	0.73
355.636	15.84
355.852	6.73
356.068	41.03
356.284	-15.55
356.5	105.16
356.716	41.99
356.932	22.62
357.148	44.13
357.364	35.79
357.58	90.24
357.796	93.73
358.012	68.15
358.228	55.36
358.444	-20.2
358.66	68.73
358.876	20.3
359.092	-9.54
359.308	38.7
359.524	45.48
359.74	5.76
359.956	15.06
360.172	49.55
360.388	37.73
360.604	34.63
360.819	106.9
361.035	38.7
361.251	54.98
361.467	-4.89
361.683	75.32
361.898	46.26
362.114	74.74
362.33	63.69
362.546	96.83
362.762	34.63
362.977	41.41
363.193	-17.87
363.409	75.71
363.624	7.12
363.84	16.03
364.056	8.67
364.271	59.24
364.487	34.24
364.703	13.13
364.918	42.38
365.134	19.13
365.35	7.9
365.565	156.5
365.781	54.39
365.996	84.62
366.212	99.73
366.427	62.14
366.643	23.39
366.858	54.01
367.074	-0.05
367.289	110.19
367.505	150.88
367.72	-18.45
367.936	23.2
368.151	97.99
368.367	91.21
368.582	52.84
368.798	40.64
369.013	122.21
369.228	66.21
369.444	51.68
369.659	112.91
369.874	70.09
370.09	95.08
370.305	-15.35
370.52	35.99
370.736	85.59
370.951	48.97
371.166	91.79
371.381	118.52
371.597	104.96
371.812	26.11
372.027	35.21
372.242	67.76
372.458	128.02
372.673	56.33
372.888	50.91
373.103	80.16
373.318	145.84
373.533	63.5
373.749	83.26
373.964	-21.55
374.179	90.82
374.394	18.94
374.609	103.41
374.824	26.69
375.039	123.56
375.254	24.75
375.469	121.04
375.684	67.38
375.899	122.79
376.114	75.51
376.329	70.28
376.544	92.37
376.759	76.29
376.974	34.05
377.189	56.14
377.404	55.56
377.619	105.93
377.834	-0.63
378.049	61.56
378.264	45.09
378.478	73.96
378.693	36.38
378.908	85.39
379.123	66.99
379.338	109.42
379.553	69.12
379.767	92.18
379.982	90.24
380.197	85.01
380.412	65.44
380.626	92.56
380.841	156.69
381.056	76.09
381.271	188.08
381.485	51.49
381.7	45.09
381.915	72.22
382.129	47.42
382.344	59.04
382.559	57.88
382.773	106.32
382.988	5.38
383.202	64.08
383.417	28.24
383.632	167.74
383.846	51.49
384.061	85.01
384.275	56.91
384.49	81.71
384.704	104.38
384.919	82.1
385.133	95.66
385.348	101.48
385.562	48.39
385.777	118.33
385.991	89.66
386.206	62.92
386.42	54.59
386.634	134.02
386.849	133.44
387.063	96.05
387.277	45.29
387.492	63.5
387.706	59.43
387.92	65.44
388.135	129.18
388.349	104.58
388.563	120.66
388.778	104.77
388.992	91.4
389.206	87.14
389.42	180.91
389.635	100.7
389.849	158.05
390.063	146.23
390.277	128.6
390.491	191.18
390.706	127.63
390.92	138.48
391.134	105.54
391.348	160.18
391.562	44.9
391.776	131.31
391.99	104.96
392.205	140.42
392.419	122.98
392.633	132.47
392.847	150.49
393.061	79.58
393.275	141.58
393.489	111.94
393.703	103.8
393.917	121.43
394.131	66.79
394.345	103.03
394.559	130.92
394.773	74.54
394.986	146.04
395.2	121.82
395.414	151.46
395.628	89.66
395.842	153.79
396.056	135.96
396.27	88.11
396.484	134.99
396.697	141.58
396.911	165.22
397.125	144.29
397.339	144.49
397.553	117.75
397.766	182.46
397.98	158.24
398.194	181.11
398.408	115.62
398.621	211.14
398.835	221.02
399.049	178.2
399.262	230.32
399.476	206.49
399.69	204.16
399.903	274.88
400.117	188.08
400.331	238.84
400.544	187.69
400.758	311.88
400.971	221.99
401.185	265.97
401.398	150.49
401.612	274.69
401.826	239.42
402.039	248.53
402.253	212.1
402.466	248.53
402.68	218.69
402.893	244.27
403.106	236.13
403.32	189.63
403.533	236.32
403.747	212.49
403.96	226.44
404.174	253.57
404.387	188.66
404.6	225.86
404.814	270.23
405.027	198.15
405.24	205.71
405.454	178.39
405.667	238.84
405.88	170.06
406.094	237.29
406.307	259.96
406.52	244.27
406.733	196.8
406.947	166.38
407.16	289.22
407.373	289.8
407.586	211.14
407.799	223.15
408.012	260.35
408.226	268.29
408.439	282.82
408.652	213.46
408.865	283.02
409.078	293.48
409.291	281.08
409.504	230.9
409.717	283.02
409.93	276.62
410.143	256.86
410.357	178.97
410.57	215.4
410.783	247.56
410.996	255.5
411.209	247.37
411.421	323.7
411.634	293.87
411.847	259.19
412.06	288.63
412.273	288.44
412.486	292.32
412.699	364.97
412.912	294.25
413.125	321.18
413.338	319.63
413.55	346.37
413.763	275.27
413.976	310.53
414.189	269.07
414.402	280.11
414.615	356.64
414.827	270.42
415.04	346.57
415.253	313.05
415.466	345.6
415.678	396.94
415.891	311.69
416.104	279.53
416.316	283.21
416.529	288.44
416.742	358.97
416.954	375.05
417.167	325.64
417.38	314.21
417.592	344.82
417.805	284.95
418.017	253.37
418.23	337.27
418.442	301.23
418.655	298.52
418.868	326.8
419.08	351.22
419.293	344.05
419.505	321.77
419.718	343.85
419.93	365.94
420.142	303.75
420.355	414.18
420.567	407.79
420.78	343.47
420.992	317.12
421.205	423.1
421.417	313.43
421.629	342.11
421.842	306.85
422.054	319.05
422.266	370.78
422.479	403.33
422.691	330.87
422.903	368.27
423.115	301.03
423.328	307.43
423.54	361.1
423.752	345.6
423.964	335.33
424.177	335.13
424.389	355.28
424.601	484.9
424.813	370.98
425.025	386.86
425.238	407.98
425.45	353.15
425.662	350.05
425.874	706.94
426.086	363.23
426.298	381.05
426.51	394.81
426.722	369.82
426.934	337.46
427.146	411.08
427.358	366.72
427.57	432.2
427.782	359.55
427.994	367.88
428.206	324.48
428.418	333.97
428.63	388.61
428.842	420
429.054	357.22
429.266	402.95
429.478	334.55
429.69	384.93
429.902	329.9
430.114	403.33
430.325	363.42
430.537	301.23
430.749	313.82
430.961	259.96
431.173	291.93
431.384	320.8
431.596	272.17
431.808	349.08
432.02	383.18
432.231	406.24
432.443	492.07
432.655	440.53
432.867	406.05
433.078	443.63
433.29	486.84
433.502	450.8
433.713	490.13
433.925	431.62
434.136	478.31
434.348	378.34
434.56	338.43
434.771	517.84
434.983	365.94
435.194	403.33
435.406	425.03
435.617	494.01
435.829	539.73
436.04	509.12
436.252	483.74
436.463	538.76
436.675	534.69
436.886	544.77
437.098	515.71
437.309	562.98
437.521	483.74
437.732	525.78
437.943	491.49
438.155	497.3
438.366	444.8
438.578	562.4
438.789	462.62
439	500.01
439.211	475.21
439.423	495.94
439.634	513.77
439.845	517.06
440.057	527.14
440.268	533.73
440.479	491.29
440.69	515.71
440.902	484.9
441.113	506.99
441.324	483.16
441.535	539.15
441.746	600.37
441.957	509.89
442.168	570.92
442.38	558.72
442.591	580.22
442.802	531.59
443.013	562.59
443.224	581.19
443.435	557.75
443.646	548.84
443.857	578.09
444.068	541.67
444.279	531.01
444.49	681.55
444.701	577.51
444.912	702.29
445.123	637.19
445.334	614.71
445.545	602.51
445.756	568.99
445.967	536.63
446.178	595.92
446.388	628.47
446.599	575.38
446.81	597.86
447.021	583.32
447.232	648.04
447.443	664.7
447.653	575.77
447.864	651.52
448.075	606.96
448.286	680.59
448.496	635.05
448.707	680.2
448.918	610.64
449.129	695.5
449.339	615.49
449.55	635.05
449.761	647.65
449.971	693.57
450.182	629.44
450.393	689.3
450.603	610.06
450.814	708.68
451.024	684.07
451.235	754.79
451.446	736.19
451.656	756.92
451.867	658.89
452.077	680.59
452.288	754.98
452.498	725.73
452.709	656.37
452.919	657.72
453.13	618.2
453.34	701.7
453.55	629.82
453.761	674.97
453.971	667.99
454.182	691.63
454.392	646.87
454.602	708.49
454.813	678.26
455.023	721.27
455.233	639.12
455.444	704.22
455.654	607.74
455.864	677.87
456.075	657.53
456.285	650.94
456.495	662.37
456.705	699.96
456.916	744.33
457.126	773.97
457.336	718.56
457.546	629.24
457.756	683.3
457.967	765.64
458.177	701.32
458.387	720.88
458.597	666.83
458.807	700.74
459.017	673.61
459.227	660.44
459.437	694.15
459.647	756.73
459.857	748.98
460.068	705.97
460.278	752.85
460.488	719.14
460.698	792.96
460.908	721.27
461.117	696.67
461.327	686.4
461.537	751.69
461.747	764.09
461.957	762.54
462.167	851.66
462.377	772.23
462.587	759.25
462.797	822.6
463.007	769.9
463.216	772.62
463.426	830.55
463.636	788.12
463.846	708.87
464.056	742.39
464.265	799.55
464.475	708.1
464.685	746.46
464.895	816.4
465.104	733.48
465.314	789.08
465.524	744.91
465.733	729.6
465.943	859.41
466.153	853.02
466.362	798.97
466.572	802.26
466.782	746.65
466.991	817.18
467.201	844.88
467.41	716.82
467.62	830.74
467.829	779.4
468.039	840.23
468.249	812.14
468.458	834.03
468.668	838.68
468.877	828.61
469.086	886.93
469.296	852.63
469.505	816.6
469.715	903.39
469.924	841.59
470.134	896.81
470.343	880.34
470.552	872.01
470.762	843.91
470.971	815.24
471.18	846.43
471.39	855.35
471.599	812.91
471.808	905.14
472.018	818.73
472.227	917.93
472.436	950.09
472.645	903.78
472.855	885.38
473.064	988.06
473.273	945.83
473.482	954.93
473.691	971.21
473.901	926.84
474.11	901.26
474.319	1034.76
474.528	939.04
474.737	1027.2
474.946	964.62
475.155	980.12
475.364	1049.87
475.573	989.22
475.783	1003.17
475.992	1017.32
476.201	1043.09
476.41	1005.69
476.619	1004.14
476.828	1026.81
477.037	981.48
477.245	975.08
477.454	1046.19
477.663	1013.25
477.872	1064.98
478.081	1131.63
478.29	1035.14
478.499	1164.37
478.708	1124.65
478.917	1169.8
479.125	1074.67
479.334	1105.86
479.543	1091.91
479.752	1101.6
479.961	1135.5
480.169	1166.5
480.378	1121.94
480.587	1277.91
480.796	1188.4
481.004	1162.24
481.213	1221.72
481.422	1193.82
481.63	1192.85
481.839	1213.97
482.048	1267.06
482.256	1231.41
482.465	1266.28
482.674	1270.74
482.882	1250.98
483.091	1347.85
483.299	1263.96
483.508	1271.9
483.716	1254.08
483.925	1304.45
484.134	1241.1
484.342	1246.33
484.551	1297.48
484.759	1304.45
484.967	1322.66
485.176	1371.1
485.384	1311.81
485.593	1326.73
485.801	1288.76
486.01	1263.18
486.218	1208.55
486.426	1108.19
486.635	1110.9
486.843	1101.79
487.051	1184.52
487.26	1163.4
487.468	1208.35
487.676	1241.68
487.885	1284.3
488.093	1291.86
488.301	1326.35
488.509	1320.73
488.717	1373.04
488.926	1356.18
489.134	1348.82
489.342	1335.06
489.55	1306.97
489.758	1343.39
489.967	1335.26
490.175	1473.4
490.383	1439.3
490.591	1511.37
490.799	1431.74
491.007	1487.16
491.215	1454.99
491.423	1447.05
491.631	1460.81
491.839	1408.3
492.047	1479.41
492.255	1392.41
492.463	1360.44
492.671	1364.13
492.879	1478.05
493.087	1419.73
493.295	1469.91
493.503	1455.38
493.711	1507.5
493.919	1546.44
494.127	1506.92
494.334	1521.25
494.542	1462.55
494.75	1514.47
494.958	1491.61
495.166	1595.85
495.374	1526.1
495.581	1538.89
495.789	1576.47
495.997	1615.22
496.205	1527.84
496.412	1578.8
496.62	1546.25
496.828	1532.69
497.035	1554.77
497.243	1585.39
497.451	1570.08
497.658	1587.9
497.866	1573.57
498.074	1676.45
498.281	1576.09
498.489	1649.71
498.696	1582.48
498.904	1574.15
499.112	1526.87
499.319	1636.53
499.527	1578.8
499.734	1665.4
499.942	1588.68
500.149	1558.07
500.357	1627.04
500.564	1585.19
500.771	1618.32
500.979	1546.05
501.186	1553.42
501.394	1597.01
501.601	1558.84
501.808	1593.33
502.016	1536.56
502.223	1587.32
502.43	1586.16
502.638	1572.21
502.845	1576.47
503.052	1669.47
503.26	1618.71
503.467	1685.16
503.674	1626.65
503.881	1690.4
504.089	1716.16
504.296	1688.46
504.503	1579.57
504.71	1638.08
504.917	1602.63
505.125	1669.67
505.332	1676.83
505.539	1667.73
505.746	1744.06
505.953	1715.78
506.16	1725.85
506.367	1797.54
506.574	1816.53
506.781	1793.86
506.988	1741.93
507.195	1742.51
507.402	1713.84
507.609	1793.28
507.816	1734.76
508.023	1724.5
508.23	1711.71
508.437	1674.7
508.644	1722.75
508.851	1786.88
509.058	1815.36
509.265	1753.95
509.472	1794.63
509.679	1876.39
509.885	1811.88
510.092	1796.38
510.299	1793.28
510.506	1766.73
510.713	1759.95
510.92	1823.11
511.126	1818.08
511.333	1852.37
511.54	1849.27
511.746	1866.9
511.953	1940.33
512.16	1904.29
512.367	1875.81
512.573	1843.84
512.78	1876.78
512.987	1823.89
513.193	1822.53
513.4	1810.71
513.606	1829.7
513.813	1876.39
514.02	1830.48
514.226	1878.72
514.433	1882.98
514.639	1802.38
514.846	1857.79
515.052	1793.86
515.259	1865.74
515.465	1878.14
515.672	1869.42
515.878	1965.52
516.085	1937.23
516.291	1927.74
516.497	1888.99
516.704	1889.37
516.91	1815.75
517.117	1778.94
517.323	1668.12
517.529	1727.79
517.736	1709.19
517.942	1698.15
518.148	1742.9
518.354	1809.16
518.561	1795.99
518.767	1793.86
518.973	1818.85
519.179	1863.99
519.386	1847.53
519.592	1840.94
519.798	1859.34
520.004	1984.5
520.21	1939.75
520.417	2029.84
520.623	2029.84
520.829	2020.93
521.035	2039.14
521.241	2002.72
521.447	2078.47
521.653	2192.4
521.859	2032.75
522.065	2075.76
522.271	2178.83
522.477	2161.2
522.683	2186.97
522.889	2145.9
523.095	2122.06
523.301	2104.63
523.507	2055.22
523.713	2137.95
523.919	2103.47
524.125	2201.7
524.331	2179.61
524.537	2286.36
524.742	2278.03
524.948	2289.27
525.154	2248.97
525.36	2378.97
525.566	2280.74
525.772	2320.66
525.977	2223.59
526.183	2282.49
526.389	2331.7
526.595	2213.71
526.8	2218.74
527.006	2125.16
527.212	2086.22
527.417	2049.8
527.623	2031.59
527.829	2179.41
528.034	2242.77
528.24	2229.98
528.446	2212.16
528.651	2354.76
528.857	2330.92
529.062	2377.23
529.268	2354.76
529.473	2391.18
529.679	2435.94
529.884	2477.4
530.09	2453.57
530.295	2421.02
530.501	2464.03
530.706	2427.41
530.912	2408.04
531.117	2440.2
531.323	2439.42
531.528	2503.17
531.733	2507.82
531.939	2477.59
532.144	2518.47
532.35	2502.58
532.555	2488.05
532.76	2489.6
532.966	2481.66
533.171	2407.07
533.376	2401.84
533.581	2364.44
533.787	2418.69
533.992	2465
534.197	2502.97
534.402	2475.07
534.607	2520.99
534.813	2612.25
535.018	2486.31
535.223	2521.18
535.428	2520.41
535.633	2583.18
535.838	2600.04
536.043	2626.2
536.249	2721.13
536.454	2573.88
536.659	2630.85
536.864	2567.3
537.069	2552.38
537.274	2611.47
537.479	2607.79
537.684	2579.89
537.889	2461.12
538.094	2670.37
538.299	2576.01
538.504	2560.13
538.708	2573.5
538.913	2669.21
539.118	2582.02
539.323	2618.25
539.528	2588.41
539.733	2592.87
539.938	2614.38
540.142	2618.64
540.347	2529.32
540.552	2498.52
540.757	2553.93
540.962	2559.16
541.166	2458.99
541.371	2481.85
541.576	2558.77
541.781	2442.33
541.985	2595.2
542.19	2560.9
542.395	2666.3
542.599	2718.42
542.804	2641.89
543.008	2698.66
543.213	2607.01
543.418	2565.75
543.622	2643.25
543.827	2535.91
544.031	2649.06
544.236	2704.28
544.44	2701.56
544.645	2758.14
544.849	2689.94
545.054	2708.54
545.258	2798.05
545.463	2727.53
545.667	2653.9
545.872	2712.41
546.076	2709.31
546.281	2707.38
546.485	2632.78
546.689	2678.89
546.894	2720.55
547.098	2662.04
547.302	2685.29
547.507	2709.12
547.711	2762.21
547.915	2795.14
548.119	2651.19
548.324	2626.97
548.528	2725.2
548.732	2649.44
548.936	2756.78
549.141	2745.16
549.345	2693.43
549.549	2701.56
549.753	2743.8
549.957	2819.36
550.161	2773.64
550.366	2800.37
550.57	2643.44
550.774	2724.81
550.978	2742.83
551.182	2752.52
551.386	2689.16
551.59	2692.84
551.794	2686.26
551.998	2750.58
552.202	2714.93
552.406	2693.62
552.61	2750.58
552.814	2738.76
553.018	2774.99
553.222	2672.69
553.426	2703.89
553.63	2799.02
553.833	2737.79
554.037	2632.4
554.241	2707.57
554.445	2762.4
554.649	2697.3
554.853	2701.95
555.056	2793.4
555.26	2785.65
555.464	2756.39
555.668	2715.71
555.871	2755.81
556.075	2782.16
556.279	2734.11
556.483	2692.46
556.686	2683.35
556.89	2700.4
557.094	2710.48
557.297	2621.93
557.501	2744.96
557.704	2558.58
557.908	2710.48
558.112	2570.2
558.315	2715.13
558.519	2667.27
558.722	2626.78
558.926	2652.54
559.129	2554.12
559.333	2517.7
559.536	2524.87
559.74	2548.5
559.943	2491.73
560.147	2488.25
560.35	2476.04
560.553	2534.36
560.757	2482.05
560.96	2578.53
561.164	2558.58
561.367	2644.99
561.57	2599.85
561.774	2578.92
561.977	2547.73
562.18	2522.54
562.384	2597.52
562.587	2500.07
562.79	2520.22
562.993	2481.66
563.197	2530.68
563.4	2601.4
563.603	2621.74
563.806	2652.93
564.009	2508.4
564.212	2543.27
564.416	2446.98
564.619	2528.93
564.822	2455.89
565.025	2527.58
565.228	2487.28
565.431	2517.7
565.634	2392.54
565.837	2411.91
566.04	2411.33
566.243	2406.1
566.446	2290.82
566.649	2409.2
566.852	2390.02
567.055	2346.62
567.258	2429.93
567.461	2450.08
567.664	2471.78
567.867	2328.99
568.07	2382.46
568.273	2421.21
568.475	2473.72
568.678	2338.67
568.881	2324.34
569.084	2355.92
569.287	2242.96
569.489	2281.52
569.692	2350.3
569.895	2335.96
570.098	2259.63
570.3	2265.05
570.503	2175.93
570.706	2223.39
570.909	2191.81
571.111	2180.96
571.314	2186
571.516	2186.58
571.719	2201.11
571.922	2165.27
572.124	2185.42
572.327	2234.83
572.529	2177.09
572.732	2186.78
572.935	2245.68
573.137	2322.98
573.34	2198.98
573.542	2285.39
573.745	2231.53
573.947	2243.74
574.15	2222.81
574.352	2179.22
574.554	2251.49
574.757	2179.61
574.959	2099.4
575.162	2153.45
575.364	2112.96
575.566	2265.24
575.769	2141.05
575.971	2137.18
576.173	2007.95
576.376	2114.32
576.578	2128.46
576.78	2207.51
576.982	2046.12
577.185	2080.6
577.387	2065.3
577.589	2059.29
577.791	2104.24
577.993	2130.2
578.196	2085.83
578.398	2103.47
578.6	2097.27
578.802	2006.4
579.004	2008.72
579.206	2015.5
579.408	2080.41
579.61	2025
579.812	2076.53
580.014	1983.15
580.216	2023.06
580.418	1994.58
580.62	2018.02
580.822	2002.91
581.024	2055.8
581.226	2072.66
581.428	2011.44
581.63	2116.25
581.832	2004.85
582.034	2083.51
582.236	2041.27
582.438	2075.57
582.64	2114.7
582.841	2076.53
583.043	2150.16
583.245	2068.01
583.447	2059.29
583.649	2051.73
583.85	2057.93
584.052	2085.83
584.254	1988.38
584.456	2064.52
584.657	1940.52
584.859	2030.62
585.061	2008.72
585.262	2003.3
585.464	1920.37
585.666	2020.35
585.867	1970.75
586.069	2005.62
586.27	1971.14
586.472	1942.85
586.674	1949.63
586.875	1922.89
587.077	1938.78
587.278	1961.45
587.48	1918.63
587.681	2022.87
587.883	1965.13
588.084	1909.52
588.285	1916.11
588.487	1894.22
588.688	1973.65
588.89	1829.7
589.091	1807.61
589.292	1810.71
589.494	1747.55
589.695	1689.04
589.896	1674.9
590.098	1654.17
590.299	1706.48
590.5	1670.44
590.702	1760.73
590.903	1732.05
591.104	1845.78
591.305	1788.82
591.507	1861.67
591.708	1820.21
591.909	1846.36
592.11	1880.85
592.311	1824.08
592.512	1783.01
592.714	1761.31
592.915	1777.78
593.116	1800.06
593.317	1827.76
593.518	1777.19
593.719	1802.38
593.92	1847.91
594.121	1876.59
594.322	1799.28
594.523	1821.56
594.724	1757.63
594.925	1753.95
595.126	1805.68
595.327	1801.8
595.528	1833.38
595.729	1776.42
595.929	1760.15
596.13	1783.2
596.331	1845.78
596.532	1815.17
596.733	1868.84
596.934	1864.38
597.135	1856.63
597.335	1847.72
597.536	1751.04
597.737	1791.14
597.938	1772.93
598.138	1811.49
598.339	1783.2
598.54	1790.76
598.74	1785.91
598.941	1800.64
599.142	1833.58
599.342	1812.65
599.543	1733.6
599.744	1801.8
599.944	1779.33
600.145	1767.12
600.345	1797.73
600.546	1846.17
600.746	1843.65
600.947	1856.05
601.147	1801.8
601.348	1837.45
601.548	1747.94
601.749	1772.54
601.949	1705.51
602.15	1704.54
602.35	1753.75
602.551	1787.46
602.751	1742.32
602.951	1725.46
603.152	1675.09
603.352	1759.18
603.552	1757.82
603.753	1770.03
603.953	1770.03
604.153	1785.91
604.354	1750.65
604.554	1721.78
604.754	1788.04
604.954	1691.17
605.155	1770.22
605.355	1707.83
605.555	1786.49
605.755	1797.54
605.955	1723.53
606.155	1785.72
606.356	1744.65
606.556	1771.19
606.756	1765.18
606.956	1667.92
607.156	1803.93
607.356	1687.49
607.556	1751.81
607.756	1740.77
607.956	1765.57
608.156	1702.99
608.356	1692.91
608.556	1762.86
608.756	1718.88
608.956	1655.91
609.156	1689.62
609.356	1622.97
609.556	1657.65
609.755	1674.7
609.955	1628.59
610.155	1669.08
610.355	1682.26
610.555	1626.27
610.755	1666.37
610.954	1560.78
611.154	1654.94
611.354	1709.19
611.554	1607.86
611.753	1629.17
611.953	1579.57
612.153	1654.17
612.352	1651.65
612.552	1568.14
612.752	1564.07
612.951	1585.58
613.151	1631.3
613.351	1557.87
613.55	1596.43
613.75	1626.85
613.949	1604.37
614.149	1589.65
614.348	1567.17
614.548	1554.77
