Data from gum_old_FLMT105791__145__15-46-34-252.txt Node

Date: Mon Mar 20 15:46:34 GMT 2023
User: antho
Spectrometer: FLMT10579
Trigger mode: 0
Integration Time (sec): 1.000000E-1
Scans to average: 10
Electric dark correction enabled: true
Nonlinearity correction enabled: false
Boxcar width: 0
XAxis mode: Wavelengths
Number of Pixels in Spectrum: 3648
>>>>>Begin Spectral Data<<<<<
345.248	-168.69
345.464	-168.69
345.681	-168.69
345.898	-167.14
346.114	-182.64
346.331	-30.93
346.548	47.92
346.764	-16.79
346.981	-14.66
347.197	-23.77
347.414	16.92
347.631	-31.9
347.847	70.39
348.064	-2.45
348.28	31.45
348.497	-51.28
348.713	5.1
348.93	11.69
349.146	29.71
349.363	11.88
349.579	0.26
349.796	2.78
350.012	19.63
350.229	51.41
350.445	5.49
350.661	-16.79
350.878	27.96
351.094	18.86
351.311	16.34
351.527	45.79
351.743	16.73
351.96	62.06
352.176	80.66
352.392	43.27
352.609	59.35
352.825	20.99
353.041	42.11
353.257	2
353.474	38.23
353.69	40.75
353.906	24.48
354.122	-11.37
354.339	85.89
354.555	14.21
354.771	2
354.987	94.23
355.203	63.23
355.42	-6.91
355.636	4.91
355.852	-21.05
356.068	25.06
356.284	-9.62
356.5	69.62
356.716	31.45
356.932	17.11
357.148	50.25
357.364	17.89
357.58	51.21
357.796	81.44
358.012	68.65
358.228	61.87
358.444	-46.24
358.66	66.71
358.876	54.31
359.092	-12.14
359.308	45.21
359.524	42.5
359.74	13.82
359.956	30.48
360.172	33.78
360.388	71.17
360.604	15.37
360.819	94.42
361.035	20.41
361.251	57.8
361.467	-6.72
361.683	73.3
361.898	28.35
362.114	72.14
362.33	27.96
362.546	49.08
362.762	26.41
362.977	35.91
363.193	-1.68
363.409	67.49
363.624	-0.52
363.84	11.69
364.056	14.98
364.271	52.57
364.487	48.89
364.703	26.41
364.918	-0.13
365.134	51.21
365.35	41.14
365.565	129.68
365.781	52.38
365.996	30.1
366.212	116.31
366.427	40.17
366.643	8.2
366.858	5.68
367.074	17.11
367.289	107.21
367.505	160.87
367.72	-2.45
367.936	13.24
368.151	71.36
368.367	46.18
368.582	60.32
368.798	6.07
369.013	91.9
369.228	28.74
369.444	52.57
369.659	86.86
369.874	45.01
370.09	91.13
370.305	-14.27
370.52	21.38
370.736	97.13
370.951	48.7
371.166	112.63
371.381	108.37
371.597	82.41
371.812	13.43
372.027	-6.33
372.242	35.52
372.458	128.52
372.673	46.76
372.888	30.68
373.103	73.11
373.318	99.07
373.533	60.32
373.749	77.56
373.964	-24.93
374.179	53.54
374.394	9.75
374.609	82.6
374.824	-3.23
375.039	98.1
375.254	33
375.469	113.02
375.684	58.77
375.899	91.32
376.114	32.23
376.329	76.79
376.544	110.5
376.759	79.5
376.974	5.88
377.189	34.16
377.404	25.25
377.619	93.64
377.834	2.39
378.049	15.95
378.264	19.63
378.478	88.61
378.693	35.71
378.908	81.24
379.123	70.2
379.338	107.21
379.553	66.13
379.767	81.05
379.982	88.41
380.197	75.63
380.412	24.28
380.626	58
380.841	118.83
381.056	88.99
381.271	156.03
381.485	37.26
381.7	25.25
381.915	41.53
382.129	26.8
382.344	94.03
382.559	87.64
382.773	102.36
382.988	-20.09
383.202	54.51
383.417	22.15
383.632	153.12
383.846	54.12
384.061	50.63
384.275	34.94
384.49	59.74
384.704	57.22
384.919	88.99
385.133	65.74
385.348	76.98
385.562	42.5
385.777	114.38
385.991	62.84
386.206	30.48
386.42	65.36
386.634	90.93
386.849	90.74
387.063	107.59
387.277	55.48
387.492	37.26
387.706	42.88
387.92	25.45
388.135	94.61
388.349	95
388.563	65.55
388.778	81.24
388.992	87.64
389.206	86.28
389.42	168.24
389.635	72.33
389.849	127.74
390.063	113.21
390.277	103.53
390.491	152.16
390.706	100.62
390.92	153.9
391.134	109.92
391.348	130.07
391.562	39.78
391.776	97.33
391.99	73.88
392.205	129.1
392.419	56.64
392.633	110.31
392.847	152.35
393.061	46.37
393.275	159.52
393.489	80.47
393.703	79.11
393.917	102.17
394.131	58
394.345	70.01
394.559	113.21
394.773	70.59
394.986	124.64
395.2	79.89
395.414	156.81
395.628	71.36
395.842	131.04
396.056	113.21
396.27	37.85
396.484	120.38
396.697	114.76
396.911	157.97
397.125	101.59
397.339	127.16
397.553	131.43
397.766	160.29
397.98	104.69
398.194	144.41
398.408	110.31
398.621	163.2
398.835	165.14
399.049	137.43
399.262	190.52
399.476	166.88
399.69	167.46
399.903	220.16
400.117	137.43
400.331	138.98
400.544	122.9
400.758	267.24
400.971	176.96
401.185	174.24
401.398	118.64
401.612	221.32
401.826	191.29
402.039	191.1
402.253	154.87
402.466	213.77
402.68	160.87
402.893	181.22
403.106	169.79
403.32	186.06
403.533	194.01
403.747	187.22
403.96	180.83
404.174	202.92
404.387	140.53
404.6	175.02
404.814	243.8
405.027	173.08
405.24	188.77
405.454	178.7
405.667	222.49
405.88	130.84
406.094	191.29
406.307	220.74
406.52	208.92
406.733	158.55
406.947	154.87
407.16	239.54
407.373	235.66
407.586	167.46
407.799	129.68
408.012	232.56
408.226	216.67
408.439	264.34
408.652	148.67
408.865	210.09
409.078	252.13
409.291	238.37
409.504	182.38
409.717	224.81
409.93	214.93
410.143	218.61
410.357	147.51
410.57	142.08
410.783	185.48
410.996	194.39
411.209	189.74
411.421	264.14
411.634	224.81
411.847	175.21
412.06	255.81
412.273	212.22
412.486	217.26
412.699	303.86
412.912	221.71
413.125	256
413.338	237.79
413.55	248.84
413.763	225.01
413.976	239.73
414.189	224.62
414.402	233.92
414.615	310.64
414.827	188.19
415.04	251.35
415.253	238.76
415.466	278.09
415.678	323.23
415.891	224.42
416.104	210.47
416.316	203.69
416.529	221.13
416.742	276.54
416.954	285.84
417.167	231.98
417.38	229.46
417.592	285.84
417.805	206.21
418.017	196.72
418.23	278.67
418.442	193.04
418.655	221.32
418.868	261.43
419.08	277.51
419.293	282.94
419.505	250
419.718	275.57
419.93	306.38
420.142	222.1
420.355	273.44
420.567	290.3
420.78	259.49
420.992	247.09
421.205	311.8
421.417	205.63
421.629	244.57
421.842	215.51
422.054	225.78
422.266	286.42
422.479	294.75
422.691	219.19
422.903	306.38
423.115	212.02
423.328	238.18
423.54	257.55
423.752	259.69
423.964	227.14
424.177	268.4
424.389	285.26
424.601	395.12
424.813	295.72
425.025	306.77
425.238	283.52
425.45	262.98
425.662	256.97
425.874	602.04
426.086	275.96
426.298	299.79
426.51	297.85
426.722	291.46
426.934	271.7
427.146	290.49
427.358	247.29
427.57	285.84
427.782	277.32
427.994	261.62
428.206	229.07
428.418	206.21
428.63	301.73
428.842	304.25
429.054	274.8
429.266	287.78
429.478	247.48
429.69	288.17
429.902	203.11
430.114	301.73
430.325	280.42
430.537	251.55
430.749	245.54
430.961	137.82
431.173	220.16
431.384	244.57
431.596	167.66
431.808	241.09
432.02	264.34
432.231	327.3
432.443	338.35
432.655	297.27
432.867	292.43
433.078	343.97
433.29	357.53
433.502	315.49
433.713	362.37
433.925	340.67
434.136	371.87
434.348	257.17
434.56	242.83
434.771	404.22
434.983	247.29
435.194	293.01
435.406	315.87
435.617	350.36
435.829	380.97
436.04	361.02
436.252	372.45
436.463	368.96
436.675	369.35
436.886	358.88
437.098	380.58
437.309	425.92
437.521	361.98
437.732	363.73
437.943	389.69
438.155	366.05
438.366	297.08
438.578	391.24
438.789	318
439	359.08
439.211	336.22
439.423	352.49
439.634	366.05
439.845	361.02
440.057	389.5
440.268	382.52
440.479	348.81
440.69	373.03
440.902	356.56
441.113	356.17
441.324	342.8
441.535	347.65
441.746	440.65
441.957	334.08
442.168	368.96
442.38	417.98
442.591	431.15
442.802	379.23
443.013	391.43
443.224	404.22
443.435	384.85
443.646	390.66
443.857	393.76
444.068	375.16
444.279	365.86
444.49	470.87
444.701	411.39
444.912	503.61
445.123	456.34
445.334	411.39
445.545	429.8
445.756	410.81
445.967	397.25
446.178	430.18
446.388	441.81
446.599	421.85
446.81	415.85
447.021	365.67
447.232	430.38
447.443	434.25
447.653	358.69
447.864	503.61
448.075	424.56
448.286	469.71
448.496	457.7
448.707	468.93
448.918	415.85
449.129	491.02
449.339	427.28
449.55	485.01
449.761	418.36
449.971	484.82
450.182	413.71
450.393	505.16
450.603	418.36
450.814	503.42
451.024	488.31
451.235	484.63
451.446	511.94
451.656	539.65
451.867	442.97
452.077	459.05
452.288	519.69
452.498	510.78
452.709	464.28
452.919	488.5
453.13	454.79
453.34	494.31
453.55	434.83
453.761	477.85
453.971	467.19
454.182	503.23
454.392	483.08
454.602	529.96
454.813	488.7
455.023	526.28
455.233	422.63
455.444	491.99
455.654	410.23
455.864	472.03
456.075	468.55
456.285	441.23
456.495	480.36
456.705	467.19
456.916	535
457.126	532.87
457.336	489.66
457.546	416.43
457.756	479.98
457.967	537.71
458.177	475.33
458.387	503.23
458.597	421.27
458.807	465.25
459.017	470.29
459.227	484.43
459.437	488.11
459.647	517.18
459.857	522.02
460.068	486.18
460.278	545.08
460.488	510.59
460.698	565.23
460.908	500.71
461.117	423.4
461.327	462.93
461.537	505.36
461.747	479.2
461.957	517.76
462.167	630.13
462.377	547.01
462.587	548.37
462.797	544.11
463.007	511.17
463.216	551.28
463.426	576.66
463.636	576.27
463.846	455.37
464.056	504.97
464.265	580.14
464.475	479.01
464.685	535.97
464.895	558.44
465.104	504.39
465.314	541.01
465.524	517.18
465.733	476.68
465.943	595.26
466.153	610.76
466.362	563.87
466.572	561.35
466.782	541.78
466.991	561.16
467.201	601.46
467.41	462.73
467.62	540.43
467.829	511.36
468.039	568.91
468.249	538.68
468.458	557.09
468.668	607.66
468.877	574.33
469.086	616.57
469.296	594.09
469.505	530.16
469.715	636.52
469.924	588.67
470.134	635.36
470.343	621.41
470.552	567.36
470.762	578.01
470.971	554.96
471.18	568.71
471.39	549.92
471.599	527.44
471.808	609.01
472.018	559.61
472.227	635.75
472.436	628.39
472.645	616.96
472.855	574.91
473.064	665.01
473.273	637.88
473.482	635.94
473.691	680.31
473.901	683.6
474.11	627.81
474.319	725.65
474.528	623.54
474.737	671.79
474.946	668.88
475.155	646.79
475.364	730.1
475.573	685.35
475.783	687.29
475.992	679.54
476.201	725.84
476.41	682.83
476.619	639.04
476.828	681.86
477.037	662.29
477.245	672.75
477.454	710.73
477.663	683.41
477.872	685.93
478.081	760.13
478.29	674.89
478.499	807.6
478.708	783.58
478.917	808.77
479.125	740.18
479.334	738.05
479.543	762.85
479.752	764.98
479.961	767.5
480.169	780.67
480.378	747.35
480.587	909.71
480.796	795.4
481.004	755.1
481.213	821.36
481.422	805.86
481.63	786.29
481.839	829.3
482.048	882.2
482.256	815.16
482.465	842.48
482.674	867.47
482.882	870.76
483.091	916.49
483.299	870.96
483.508	850.03
483.716	861.85
483.925	853.91
484.134	825.62
484.342	832.02
484.551	897.5
484.759	873.09
484.967	910.87
485.176	911.45
485.384	923.85
485.593	904.09
485.801	903.31
486.01	866.89
486.218	840.73
486.426	755.49
486.635	764.98
486.843	752.39
487.051	798.3
487.26	776.6
487.468	846.93
487.676	849.06
487.885	810.32
488.093	853.52
488.301	887.81
488.509	870.76
488.717	926.18
488.926	885.49
489.134	865.15
489.342	910.48
489.55	859.33
489.758	899.05
489.967	895.56
490.175	1022.86
490.383	906.03
490.591	988.56
490.799	934.89
491.007	1011.62
491.215	980.43
491.423	969.19
491.631	994.96
491.839	954.08
492.047	1000.96
492.255	902.15
492.463	898.66
492.671	952.53
492.879	1016.46
493.087	962.21
493.295	971.71
493.503	996.31
493.711	1009.29
493.919	1035.26
494.127	1035.26
494.334	1036.03
494.542	987.98
494.75	1014.91
494.958	999.03
495.166	1050.95
495.374	1062.19
495.581	1052.31
495.789	1080.4
495.997	1070.13
496.205	1032.74
496.412	1035.84
496.62	1043.2
496.828	1048.04
497.035	1059.86
497.243	1065.67
497.451	1045.91
497.658	1082.72
497.866	1063.93
498.074	1142.01
498.281	1042.62
498.489	1138.91
498.696	1069.74
498.904	1034.29
499.112	1020.72
499.319	1129.8
499.527	1070.13
499.734	1091.06
499.942	1012.2
500.149	1041.84
500.357	1074.2
500.564	1015.88
500.771	1094.54
500.979	1049.4
501.186	996.12
501.394	1057.73
501.601	1050.17
501.808	1050.95
502.016	1054.24
502.223	1045.14
502.43	1067.42
502.638	1059.47
502.845	1032.54
503.052	1134.84
503.26	1068.58
503.467	1151.89
503.674	1126.9
503.881	1072.65
504.089	1197.62
504.296	1096.48
504.503	1053.86
504.71	1068
504.917	1045.72
505.125	1098.03
505.332	1068
505.539	1112.95
505.746	1207.5
505.953	1163.71
506.16	1156.74
506.367	1182.89
506.574	1231.13
506.781	1200.91
506.988	1131.35
507.195	1142.59
507.402	1176.69
507.609	1182.31
507.816	1124.38
508.023	1145.5
508.23	1124.38
508.437	1080.21
508.644	1154.02
508.851	1213.89
509.058	1184.83
509.265	1159.64
509.472	1172.24
509.679	1275.7
509.885	1163.32
510.092	1219.32
510.299	1193.35
510.506	1184.64
510.713	1185.02
510.92	1194.9
511.126	1193.55
511.333	1224.93
511.54	1247.8
511.746	1276.28
511.953	1280.54
512.16	1280.93
512.367	1223
512.573	1210.4
512.78	1275.12
512.987	1223.38
513.193	1244.31
513.4	1145.11
513.606	1208.66
513.813	1246.05
514.02	1223.19
514.226	1329.36
514.433	1275.89
514.639	1168.17
514.846	1244.5
515.052	1206.72
515.259	1233.65
515.465	1222.61
515.672	1226.87
515.878	1334.6
516.085	1241.4
516.291	1305.34
516.497	1211.95
516.704	1282.09
516.91	1194.9
517.117	1180.76
517.323	1121.09
517.529	1161.39
517.736	1124.38
517.942	1149.95
518.148	1163.32
518.354	1209.63
518.561	1219.32
518.767	1196.45
518.973	1241.98
519.179	1264.46
519.386	1211.37
519.592	1235.98
519.798	1229.58
520.004	1322
520.21	1269.11
520.417	1358.81
520.623	1380.13
520.829	1414.61
521.035	1370.44
521.241	1364.05
521.447	1407.44
521.653	1514.59
521.859	1336.34
522.065	1416.94
522.271	1509.94
522.477	1479.32
522.683	1485.72
522.889	1430.69
523.095	1476.42
523.301	1437.48
523.507	1378.58
523.713	1452.2
523.919	1389.81
524.125	1492.89
524.331	1457.43
524.537	1551.79
524.742	1535.12
524.948	1561.47
525.154	1559.73
525.36	1660.67
525.566	1577.55
525.772	1632.77
525.977	1519.24
526.183	1594.99
526.389	1610.3
526.595	1575.81
526.8	1526.79
527.006	1490.37
527.212	1417.33
527.417	1408.41
527.623	1403.76
527.829	1506.45
528.034	1530.09
528.24	1558.37
528.446	1561.67
528.651	1627.15
528.857	1609.91
529.062	1703.49
529.268	1622.5
529.473	1689.73
529.679	1689.35
529.884	1760.45
530.09	1726.16
530.295	1738.17
530.501	1712.02
530.706	1694.97
530.912	1656.99
531.117	1677.14
531.323	1686.44
531.528	1751.35
531.733	1772.08
531.939	1718.8
532.144	1781.57
532.35	1751.54
532.555	1758.13
532.76	1764.33
532.966	1757.16
533.171	1712.6
533.376	1670.94
533.581	1661.25
533.787	1700.78
533.992	1727.9
534.197	1736.62
534.402	1727.9
534.607	1741.08
534.813	1855.39
535.018	1731
535.223	1781.57
535.428	1763.75
535.633	1806.18
535.838	1820.13
536.043	1831.17
536.249	1935.99
536.454	1810.24
536.659	1848.41
536.864	1804.24
537.069	1822.64
537.274	1864.11
537.479	1805.98
537.684	1812.57
537.889	1775.18
538.094	1898.98
538.299	1804.43
538.504	1856.94
538.708	1873.41
538.913	1864.69
539.118	1823.61
539.323	1871.86
539.528	1833.69
539.733	1822.64
539.938	1862.56
540.142	1863.53
540.347	1838.53
540.552	1776.34
540.757	1803.85
540.962	1776.92
541.166	1725
541.371	1750.76
541.576	1808.5
541.781	1742.43
541.985	1835.04
542.19	1836.4
542.395	1901.31
542.599	1914.29
542.804	1887.16
543.008	1934.82
543.213	1853.84
543.418	1826.52
543.622	1851.9
543.827	1830.2
544.031	1919.71
544.236	1903.63
544.44	1883.29
544.645	1955.36
544.849	1931.34
545.054	1909.06
545.258	2013.49
545.463	1952.26
545.667	1873.02
545.872	1884.84
546.076	1943.93
546.281	1906.15
546.485	1888.13
546.689	1915.84
546.894	1944.12
547.098	1899.37
547.302	1855.78
547.507	1896.27
547.711	1921.65
547.915	2000.5
548.119	1922.04
548.324	1873.99
548.528	1945.48
548.732	1907.12
548.936	1937.54
549.141	1951.1
549.345	1915.26
549.549	1894.72
549.753	1930.56
549.957	1997.21
550.161	1994.11
550.366	1908.86
550.57	1924.94
550.774	1962.92
550.978	1935.02
551.182	1960.59
551.386	1948.77
551.59	1918.16
551.794	1932.89
551.998	1954.01
552.202	1899.37
552.406	1907.12
552.61	2004.38
552.814	1946.06
553.018	1995.27
553.222	1895.88
553.426	1918.16
553.63	2043.13
553.833	1939.86
554.037	1865.66
554.241	1999.54
554.445	1906.73
554.649	1888.13
554.853	1901.11
555.056	1961.37
555.26	1971.83
555.464	1951.68
555.668	1965.44
555.871	1979.58
556.075	1976.09
556.279	1913.71
556.483	1899.76
556.686	1903.24
556.89	1893.17
557.094	1916.22
557.297	1867.59
557.501	1940.83
557.704	1844.54
557.908	1938.31
558.112	1842.79
558.315	1998.18
558.519	1885.03
558.722	1891.23
558.926	1872.63
559.129	1806.56
559.333	1805.4
559.536	1813.15
559.74	1787.19
559.943	1773.43
560.147	1779.63
560.35	1789.51
560.553	1805.01
560.757	1753.28
560.96	1836.79
561.164	1808.89
561.367	1913.51
561.57	1835.04
561.774	1837.18
561.977	1778.66
562.18	1780.6
562.384	1884.26
562.587	1780.21
562.79	1783.12
562.993	1755.22
563.197	1798.81
563.4	1851.51
563.603	1845.51
563.806	1895.11
564.009	1784.28
564.212	1805.01
564.416	1734.68
564.619	1762.58
564.822	1724.41
565.025	1814.51
565.228	1748.44
565.431	1746.5
565.634	1668.62
565.837	1741.27
566.04	1682.76
566.243	1682.18
566.446	1584.92
566.649	1715.7
566.852	1604.1
567.055	1658.54
567.258	1685.47
567.461	1767.04
567.664	1737.59
567.867	1653.31
568.07	1693.8
568.273	1684.31
568.475	1738.17
568.678	1681.21
568.881	1630.25
569.084	1672.1
569.287	1562.83
569.489	1621.73
569.692	1627.35
569.895	1646.53
570.098	1568.06
570.3	1587.44
570.503	1532.41
570.706	1546.94
570.909	1553.34
571.111	1516.33
571.314	1513.04
571.516	1488.82
571.719	1524.08
571.922	1504.12
572.124	1514.01
572.327	1519.04
572.529	1462.08
572.732	1507.22
572.935	1557.02
573.137	1604.49
573.34	1481.65
573.542	1567.29
573.745	1595.57
573.947	1541.91
574.15	1513.42
574.352	1494.63
574.554	1598.67
574.757	1452.01
574.959	1483.2
575.162	1459.17
575.364	1461.69
575.566	1570.39
575.769	1428.18
575.971	1436.7
576.173	1352.42
576.376	1437.28
576.578	1490.37
576.78	1520.98
576.982	1347.58
577.185	1406.86
577.387	1426.82
577.589	1387.1
577.791	1464.79
577.993	1444.06
578.196	1421.01
578.398	1457.24
578.6	1464.02
578.802	1368.5
579.004	1356.88
579.206	1380.9
579.408	1410.35
579.61	1370.24
579.812	1415.97
580.014	1381.87
580.216	1350.87
580.418	1369.28
580.62	1369.66
580.822	1287.51
581.024	1404.93
581.226	1418.29
581.428	1368.11
581.63	1478.94
581.832	1329.17
582.034	1416.74
582.236	1367.73
582.438	1369.28
582.64	1419.26
582.841	1453.36
583.043	1466.54
583.245	1380.51
583.447	1418.68
583.649	1350.29
583.85	1378.38
584.052	1424.3
584.254	1346.03
584.456	1392.14
584.657	1295.07
584.859	1388.26
585.061	1334.01
585.262	1337.5
585.464	1292.75
585.666	1370.05
585.867	1307.47
586.069	1385.74
586.27	1334.98
586.472	1324.71
586.674	1327.62
586.875	1300.3
587.077	1275.89
587.278	1323.75
587.48	1270.27
587.681	1405.12
587.883	1366.18
588.084	1252.83
588.285	1295.65
588.487	1302.24
588.688	1324.52
588.89	1228.23
589.091	1207.3
589.292	1228.03
589.494	1216.8
589.695	1156.54
589.896	1105.01
590.098	1081.56
590.299	1201.1
590.5	1123.8
590.702	1145.3
590.903	1195.68
591.104	1245.08
591.305	1247.22
591.507	1293.52
591.708	1247.02
591.909	1210.02
592.11	1261.55
592.311	1260
592.512	1235.01
592.714	1158.09
592.915	1194.32
593.116	1175.34
593.317	1213.31
593.518	1189.29
593.719	1215.63
593.92	1209.24
594.121	1242.37
594.322	1210.79
594.523	1213.7
594.724	1155.57
594.925	1174.75
595.126	1212.73
595.327	1215.63
595.528	1165.65
595.729	1219.51
595.929	1179.4
596.13	1207.5
596.331	1176.11
596.532	1185.22
596.733	1248.38
596.934	1253.42
597.135	1229.97
597.335	1225.13
597.536	1189.29
597.737	1208.85
597.938	1176.5
598.138	1212.92
598.339	1187.93
598.54	1192.39
598.74	1149.18
598.941	1207.69
599.142	1241.21
599.342	1178.82
599.543	1170.88
599.744	1150.54
599.944	1165.84
600.145	1142.98
600.345	1182.5
600.546	1232.3
600.746	1250.51
600.947	1281.51
601.147	1179.79
601.348	1234.43
601.548	1129.03
601.749	1175.34
601.949	1130.19
602.15	1161.19
602.35	1150.73
602.551	1219.12
602.751	1123.02
602.951	1129.22
603.152	1094.93
603.352	1214.86
603.552	1177.66
603.753	1192.58
603.953	1183.86
604.153	1178.05
604.354	1149.57
604.554	1149.76
604.754	1155.77
604.954	1105.01
605.155	1175.14
605.355	1154.99
605.555	1192.19
605.755	1194.9
605.955	1124.77
606.155	1160.8
606.356	1153.64
606.556	1155.96
606.756	1175.92
606.956	1100.74
607.156	1174.37
607.356	1117.02
607.556	1146.08
607.756	1147.44
607.956	1185.8
608.156	1167.59
608.356	1135.42
608.556	1157.9
608.756	1139.69
608.956	1078.46
609.156	1174.37
609.356	1088.15
609.556	1067.81
609.755	1128.45
609.955	1103.65
610.155	1095.51
610.355	1138.52
610.555	1065.67
610.755	1074.39
610.954	1049.98
611.154	1084.27
611.354	1115.08
611.554	1051.92
611.753	1051.72
611.953	1031.57
612.153	1105.01
612.352	1099.19
612.552	1048.82
612.752	984.69
612.951	1081.17
613.151	1077.3
613.351	1031.57
613.55	1039.91
613.75	1064.9
613.949	1067.03
614.149	1053.47
614.348	1043.59
614.548	1036.42
614.747	960.28
614.947	1019.95
615.146	960.47
615.346	1061.99
615.545	1034.67
615.745	1049.79
615.944	1064.51
616.144	1007.94
