Data from gum_old_FLMT105791__47__15-43-09-258.txt Node

Date: Mon Mar 20 15:43:09 GMT 2023
User: antho
Spectrometer: FLMT10579
Trigger mode: 0
Integration Time (sec): 1.000000E-1
Scans to average: 10
Electric dark correction enabled: true
Nonlinearity correction enabled: false
Boxcar width: 0
XAxis mode: Wavelengths
Number of Pixels in Spectrum: 3648
>>>>>Begin Spectral Data<<<<<
345.248	-179.85
345.464	-179.85
345.681	-179.85
345.898	-168.8
346.114	-148.65
346.331	-22.14
346.548	4.6
346.764	-1.6
346.981	32.11
347.197	-31.24
347.414	6.54
347.631	-20.39
347.847	60.59
348.064	-0.05
348.28	19.33
348.497	-60.69
348.713	12.93
348.93	20.88
349.146	65.24
349.363	10.22
349.579	62.34
349.796	24.94
350.012	15.45
350.229	47.03
350.445	43.93
350.661	-14.39
350.878	25.33
351.094	54.98
351.311	51.29
351.527	54.78
351.743	1.11
351.96	61.37
352.176	85.59
352.392	30.76
352.609	68.93
352.825	16.61
353.041	40.06
353.257	38.7
353.474	18.75
353.69	37.54
353.906	36.38
354.122	27.08
354.339	63.11
354.555	70.86
354.771	34.63
354.987	122.59
355.203	85.59
355.42	44.9
355.636	54.98
355.852	7.9
356.068	23.78
356.284	-5.47
356.5	80.16
356.716	57.69
356.932	31.14
357.148	79.58
357.364	38.12
357.58	74.35
357.796	92.18
358.012	89.46
358.228	38.89
358.444	-15.74
358.66	78.23
358.876	42.77
359.092	28.63
359.308	59.24
359.524	44.71
359.74	71.44
359.956	44.51
360.172	45.09
360.388	70.67
360.604	55.56
360.819	148.56
361.035	54.59
361.251	72.61
361.467	36.57
361.683	100.89
361.898	77.64
362.114	118.72
362.33	52.46
362.546	95.08
362.762	54.78
362.977	73.77
363.193	50.91
363.409	86.36
363.624	30.56
363.84	42.77
364.056	64.66
364.271	119.69
364.487	94.31
364.703	71.25
364.918	42.58
365.134	85.2
365.35	66.02
365.565	166.96
365.781	97.79
365.996	128.99
366.212	176.26
366.427	98.18
366.643	68.15
366.858	73.58
367.074	56.91
367.289	123.95
367.505	204.94
367.72	56.53
367.936	89.46
368.151	119.88
368.367	87.33
368.582	102.25
368.798	64.28
369.013	131.7
369.228	93.34
369.444	92.95
369.659	138.67
369.874	102.06
370.09	129.96
370.305	46.06
370.52	88.49
370.736	157.86
370.951	103.03
371.166	151.85
371.381	153.79
371.597	120.85
371.812	88.88
372.027	79.39
372.242	123.17
372.458	197.57
372.673	77.06
372.888	113.29
373.103	109.81
373.318	183.62
373.533	137.71
373.749	107.09
373.964	52.26
374.179	124.34
374.394	52.26
374.609	126.86
374.824	74.54
375.039	137.9
375.254	62.73
375.469	141.77
375.684	116.59
375.899	132.67
376.114	103.61
376.329	144.1
376.544	134.22
376.759	137.12
376.974	69.7
377.189	110.58
377.404	112.71
377.619	140.42
377.834	96.63
378.049	83.65
378.264	96.44
378.478	151.46
378.693	103.41
378.908	166.38
379.123	163.67
379.338	151.66
379.553	138.87
379.767	136.35
379.982	147.01
380.197	140.03
380.412	117.75
380.626	133.06
380.841	213.65
381.056	169.29
381.271	219.66
381.485	142.74
381.7	84.81
381.915	169.29
382.129	117.75
382.344	117.56
382.559	123.56
382.773	154.17
382.988	59.43
383.202	93.53
383.417	93.34
383.632	191.96
383.846	86.56
384.061	124.92
384.275	122.4
384.49	147.78
384.704	142.55
384.919	141
385.133	142.94
385.348	175.1
385.562	95.28
385.777	177.42
385.991	146.23
386.206	134.8
386.42	115.04
386.634	190.6
386.849	176.46
387.063	177.62
387.277	129.76
387.492	123.56
387.706	125.5
387.92	125.31
388.135	184.4
388.349	168.12
388.563	190.21
388.778	164.44
388.992	195.83
389.206	192.15
389.42	252.79
389.635	173.94
389.849	228.38
390.063	263.06
390.277	212.3
390.491	280.11
390.706	237.68
390.92	260.35
391.134	220.44
391.348	240.78
391.562	155.53
391.776	238.45
391.99	200.67
392.205	291.54
392.419	196.99
392.633	207.84
392.847	245.24
393.061	185.95
393.275	242.33
393.489	165.22
393.703	146.62
393.917	170.45
394.131	123.17
394.345	166.38
394.559	189.24
394.773	181.11
394.986	228.96
395.2	232.25
395.414	267.52
395.628	227.8
395.842	280.89
396.056	304.13
396.27	215.59
396.484	252.02
396.697	274.1
396.911	244.46
397.125	223.92
397.339	221.02
397.553	176.84
397.766	241.55
397.98	249.89
398.194	312.08
398.408	295.42
398.621	321.77
398.835	361.29
399.049	337.07
399.262	419.41
399.476	391.9
399.69	376.4
399.903	459.52
400.117	389
400.331	409.92
400.544	360.52
400.758	498.46
400.971	389.58
401.185	465.91
401.398	367.88
401.612	439.18
401.826	443.83
402.039	456.81
402.253	401.59
402.466	468.63
402.68	433.75
402.893	463.78
403.106	456.81
403.32	417.09
403.533	471.53
403.747	403.14
403.96	443.63
404.174	468.04
404.387	408.95
404.6	441.11
404.814	495.36
405.027	467.46
405.24	436.46
405.454	417.09
405.667	489.16
405.88	412.25
406.094	457.97
406.307	470.37
406.52	463.39
406.733	401.98
406.947	420.38
407.16	517.64
407.373	511.64
407.586	442.66
407.799	434.91
408.012	500.21
408.226	473.08
408.439	552.71
408.652	449.25
408.865	503.31
409.078	578.48
409.291	548.45
409.504	494.2
409.717	565.69
409.93	534.69
410.143	526.17
410.357	441.7
410.57	431.81
410.783	444.99
410.996	483.74
411.209	500.98
411.421	554.65
411.634	517.64
411.847	549.81
412.06	557.17
412.273	563.17
412.486	568.99
412.699	636.02
412.912	559.3
413.125	566.08
413.338	554.65
413.55	606.77
413.763	550
413.976	572.28
414.189	526.36
414.402	568.02
414.615	644.55
414.827	537.99
415.04	603.28
415.253	599.6
415.466	621.69
415.678	651.91
415.891	608.9
416.104	594.76
416.316	591.07
416.529	604.83
416.742	629.82
416.954	642.61
417.167	614.71
417.38	620.91
417.592	643.19
417.805	551.94
418.017	584.29
418.23	590.69
418.442	582.55
418.655	583.71
418.868	612.39
419.08	657.72
419.293	641.06
419.505	624.21
419.718	652.88
419.93	673.8
420.142	612.58
420.355	650.36
420.567	618.39
420.78	598.82
420.992	619.17
421.205	696.86
421.417	650.75
421.629	659.85
421.842	633.31
422.054	615.68
422.266	720.5
422.479	693.57
422.691	606.57
422.903	664.7
423.115	631.18
423.328	635.64
423.54	608.32
423.752	599.79
423.964	638.93
424.177	662.76
424.389	641.06
424.601	783.66
424.813	685.43
425.025	698.02
425.238	709.07
425.45	685.62
425.662	629.82
425.874	971.59
426.086	669.93
426.298	674.97
426.51	705.19
426.722	683.3
426.934	628.27
427.146	705
427.358	648.42
427.57	691.24
427.782	664.89
427.994	643.58
428.206	630.99
428.418	602.89
428.63	716.62
428.842	734.45
429.054	714.3
429.266	690.27
429.478	646.87
429.69	676.9
429.902	612.77
430.114	663.54
430.325	616.84
430.537	598.44
430.749	565.89
430.961	506.99
431.173	543.8
431.384	564.34
431.596	505.05
431.808	620.14
432.02	674.58
432.231	762.73
432.443	810.78
432.655	761.57
432.867	730.57
433.078	804.78
433.29	829.38
433.502	790.05
433.713	827.06
433.925	835.78
434.136	847.79
434.348	734.45
434.56	693.18
434.771	842.36
434.983	669.54
435.194	756.34
435.406	806.33
435.617	870.85
435.829	931.49
436.04	883.05
436.252	876.85
436.463	949.31
436.675	930.52
436.886	933.43
437.098	905.91
437.309	968.49
437.521	933.04
437.732	890.61
437.943	904.36
438.155	900.68
438.366	846.43
438.578	939.04
438.789	840.04
439	860.58
439.211	831.51
439.423	833.45
439.634	900.68
439.845	918.31
440.057	895.84
440.268	995.62
440.479	877.63
440.69	952.41
440.902	885.18
441.113	905.91
441.324	934.39
441.535	981.86
441.746	1038.05
441.957	965.2
442.168	1002.79
442.38	1011.12
442.591	1047.93
442.802	985.16
443.013	1012.86
443.224	1074.28
443.435	1020.81
443.646	1019.64
443.857	1026.62
444.068	991.55
444.279	1009.57
444.49	1100.05
444.701	1028.75
444.912	1155.85
445.123	1125.24
445.334	1093.46
445.545	1068.27
445.756	1074.09
445.967	971.98
446.178	996.39
446.388	1038.05
446.599	1061.11
446.81	1079.9
447.021	1045.61
447.232	1074.28
447.443	1122.33
447.653	1045.99
447.864	1143.84
448.075	1124.85
448.286	1127.37
448.496	1139.57
448.707	1180.84
448.918	1086.49
449.129	1171.15
449.339	1067.5
449.55	1141.32
449.761	1124.85
449.971	1183.75
450.182	1162.43
450.393	1187.62
450.603	1142.48
450.814	1214.17
451.024	1203.9
451.235	1247.68
451.446	1289.34
451.656	1280.43
451.867	1210.48
452.077	1205.25
452.288	1238.77
452.498	1232.77
452.709	1190.92
452.919	1185.68
453.13	1162.82
453.34	1178.13
453.55	1090.55
453.761	1188.2
453.971	1153.33
454.182	1188.2
454.392	1192.85
454.602	1281.4
454.813	1227.34
455.023	1243.81
455.233	1162.24
455.444	1200.6
455.654	1084.16
455.864	1199.83
456.075	1186.46
456.285	1188.59
456.495	1206.61
456.705	1225.21
456.916	1270.35
457.126	1314.91
457.336	1234.9
457.546	1160.11
457.756	1196.73
457.967	1310.46
458.177	1210.68
458.387	1215.72
458.597	1173.28
458.807	1225.21
459.017	1208.16
459.227	1205.64
459.437	1194.6
459.647	1263.38
459.857	1275.39
460.068	1224.82
460.278	1289.53
460.488	1267.06
460.698	1311.43
460.908	1232.38
461.117	1221.92
461.327	1265.9
461.537	1310.85
461.747	1299.03
461.957	1274.81
462.167	1409.46
462.377	1358.51
462.587	1313.17
462.797	1389.7
463.007	1337.58
463.216	1382.53
463.426	1400.55
463.636	1357.93
463.846	1291.66
464.056	1280.62
464.265	1347.85
464.475	1281.4
464.685	1351.53
464.895	1324.21
465.104	1305.23
465.314	1350.56
465.524	1305.23
465.733	1289.73
465.943	1407.14
466.153	1423.02
466.362	1415.08
466.572	1398.03
466.782	1384.28
466.991	1404.04
467.201	1428.64
467.41	1299.61
467.62	1394.16
467.829	1427.09
468.039	1425.54
468.249	1405.59
468.458	1436.59
468.668	1456.74
468.877	1455.77
469.086	1509.44
469.296	1527.07
469.505	1491.42
469.715	1565.24
469.924	1483.09
470.134	1547.22
470.343	1534.82
470.552	1498.39
470.762	1447.24
470.971	1492.77
471.18	1480.76
471.39	1520.09
471.599	1434.65
471.808	1505.76
472.018	1537.72
472.227	1580.35
472.436	1623.17
472.645	1638.28
472.855	1586.55
473.064	1715.2
473.273	1683.81
473.482	1651.65
473.691	1646.42
473.901	1621.42
474.11	1601.85
474.319	1747.55
474.528	1627.62
474.737	1785.53
474.946	1740
475.155	1762.86
475.364	1840.55
475.573	1764.8
475.783	1819.82
475.992	1803.35
476.201	1824.66
476.41	1803.93
476.619	1751.62
476.828	1783.59
477.037	1774.68
477.245	1778.74
477.454	1827.76
477.663	1803.54
477.872	1855.47
478.081	1966.49
478.29	1851.21
478.499	2000.97
478.708	1989.15
478.917	2027.71
479.125	1945.95
479.334	1935.87
479.543	1933.74
479.752	2016.09
479.961	2000.2
480.169	2040.88
480.378	2032.36
480.587	2179.61
480.796	2124
481.004	2059.48
481.213	2086.8
481.422	2107.53
481.63	2127.88
481.839	2152.87
482.048	2192.01
482.256	2149.19
482.465	2224.17
482.674	2212.93
482.882	2223.78
483.091	2263.11
483.299	2185.61
483.508	2284.43
483.716	2244.71
483.925	2275.13
484.134	2217.39
484.342	2231.14
484.551	2231.92
484.759	2234.44
484.967	2282.29
485.176	2287.33
485.384	2343.32
485.593	2292.76
485.801	2290.63
486.01	2210.41
486.218	2105.02
486.426	2002.72
486.635	1993.22
486.843	1944.01
487.051	1984.7
487.26	2032.75
487.468	2106.57
487.676	2204.99
487.885	2184.45
488.093	2272.8
488.301	2367.35
488.509	2396.6
488.717	2438.45
488.926	2401.25
489.134	2368.9
489.342	2390.4
489.55	2350.49
489.758	2398.54
489.967	2415.98
490.175	2541.53
490.383	2568.46
490.591	2713.96
490.799	2514.21
491.007	2581.83
491.215	2571.17
491.423	2554.9
491.631	2567.3
491.839	2560.51
492.047	2613.8
492.255	2451.82
492.463	2449.89
492.671	2403.97
492.879	2533.39
493.087	2541.33
493.295	2573.5
493.503	2592.48
493.711	2690.91
493.919	2691.49
494.127	2680.25
494.334	2675.02
494.542	2589.96
494.75	2662.81
494.958	2652.93
495.166	2750.39
495.374	2743.99
495.581	2795.53
495.789	2750.19
495.997	2823.62
496.205	2665.33
496.412	2683.93
496.62	2751.16
496.828	2769.76
497.035	2725.78
497.243	2780.42
497.451	2773.83
497.658	2770.54
497.866	2764.92
498.074	2814.13
498.281	2704.66
498.489	2793.98
498.696	2792.82
498.904	2714.74
499.112	2683.35
499.319	2822.07
499.527	2784.87
499.734	2874.39
499.942	2726.94
500.149	2789.91
500.357	2758.33
500.564	2724.23
500.771	2751.94
500.979	2655.84
501.186	2636.08
501.394	2743.61
501.601	2641.89
501.808	2693.23
502.016	2672.69
502.223	2685.87
502.43	2729.08
502.638	2690.71
502.845	2715.13
503.052	2822.07
503.26	2755.42
503.467	2877.1
503.674	2831.57
503.881	2795.92
504.089	2899.57
504.296	2848.04
504.503	2738.96
504.71	2750.77
504.917	2707.57
505.125	2769.76
505.332	2817.04
505.539	2843.19
505.746	2942
505.953	2929.6
506.16	2938.71
506.367	3011.36
506.574	3039.46
506.781	3026.09
506.988	2944.33
507.195	2933.48
507.402	2938.9
507.609	2985.6
507.816	2880.59
508.023	2889.11
508.23	2869.15
508.437	2785.07
508.644	2868.57
508.851	2933.48
509.058	2957.7
509.265	2942.2
509.472	2952.08
509.679	3053.6
509.885	3001.1
510.092	2992.18
510.299	2989.28
510.506	2942
510.713	2987.73
510.92	2929.8
511.126	2986.18
511.333	3057.09
511.54	3014.27
511.746	3040.43
511.953	3047.6
512.16	3104.36
512.367	3033.84
512.573	3020.28
512.78	3035
512.987	2974.55
513.193	2954.21
513.4	2906.16
513.606	2970.29
513.813	3011.95
514.02	2953.43
514.226	3019.5
514.433	3025.9
514.639	2928.05
514.846	2936.77
515.052	2905.58
515.259	2967.19
515.465	3004.78
515.672	3003.03
515.878	3052.25
516.085	3015.05
516.291	3068.52
516.497	3014.46
516.704	2953.63
516.91	2857.72
517.117	2794.76
517.323	2638.79
517.529	2670.95
517.736	2682.38
517.942	2686.64
518.148	2719
518.354	2802.31
518.561	2813.16
518.767	2762.79
518.973	2819.75
519.179	2831.95
519.386	2838.93
519.592	2849.39
519.798	2892.99
520.004	3000.9
520.21	2966.8
520.417	3035
520.623	3137.3
520.829	3109.21
521.035	3119.09
521.241	3101.65
521.447	3123.16
521.653	3236.31
521.859	3150.86
522.065	3179.34
522.271	3269.24
522.477	3202.79
522.683	3266.14
522.889	3220.61
523.095	3204.72
523.301	3175.47
523.507	3161.91
523.713	3142.34
523.919	3144.66
524.125	3224.87
524.331	3241.92
524.537	3375.03
524.742	3344.03
524.948	3389.17
525.154	3368.05
525.36	3431.41
525.566	3346.74
525.772	3417.65
525.977	3306.83
526.183	3408.93
526.389	3368.05
526.595	3255.29
526.8	3252.58
527.006	3134.39
527.212	3047.21
527.417	3007.88
527.623	3038.3
527.829	3119.28
528.034	3178.76
528.24	3211.51
528.446	3245.8
528.651	3414.75
528.857	3364.57
529.062	3458.15
529.268	3450.01
529.473	3472.29
529.679	3497.09
529.884	3560.83
530.09	3535.26
530.295	3521.5
530.501	3549.59
530.706	3488.37
530.912	3499.41
531.117	3527.31
531.323	3573.23
531.528	3642.01
531.733	3651.7
531.939	3577.88
532.144	3603.26
532.35	3540.88
532.555	3611.4
532.76	3543.98
532.966	3556.18
533.171	3453.3
533.376	3418.43
533.581	3367.67
533.787	3473.84
533.992	3508.71
534.197	3524.02
534.402	3521.11
534.607	3594.93
534.813	3675.72
535.018	3522.28
535.223	3549.79
535.428	3530.03
535.633	3637.17
535.838	3695.87
536.043	3680.76
536.249	3791.2
536.454	3710.6
536.659	3768.72
536.864	3660.22
537.069	3646.08
537.274	3594.35
537.479	3643.76
537.684	3612.56
537.889	3542.81
538.094	3739.47
538.299	3595.13
538.504	3685.02
538.708	3677.47
538.913	3745.09
539.118	3678.24
539.323	3661.58
539.528	3603.26
539.733	3623.61
539.938	3646.27
540.142	3611.59
540.347	3599
540.552	3537.39
540.757	3526.73
540.962	3578.08
541.166	3470.35
541.371	3477.33
541.576	3561.22
541.781	3400.22
541.985	3590.28
542.19	3560.83
542.395	3685.8
542.599	3684.64
542.804	3678.82
543.008	3720.29
543.213	3610.24
543.418	3621.47
543.622	3648.79
543.827	3532.35
544.031	3702.85
544.236	3683.09
544.44	3742.57
544.645	3744.5
544.849	3688.71
545.054	3715.64
545.258	3793.91
545.463	3779.96
545.667	3654.8
545.872	3719.32
546.076	3701.1
546.281	3714.47
546.485	3664.68
546.689	3702.46
546.894	3722.22
547.098	3701.49
547.302	3655.77
547.507	3656.35
547.711	3713.31
547.915	3713.31
548.119	3626.71
548.324	3640.85
548.528	3762.91
548.732	3628.26
548.936	3748.38
549.141	3763.1
549.345	3672.04
549.549	3720.87
549.753	3770.08
549.957	3804.57
550.161	3809.8
550.366	3764.65
550.57	3731.33
550.774	3685.8
550.978	3750.12
551.182	3771.63
551.386	3693.55
551.59	3706.72
551.794	3695.29
551.998	3732.3
552.202	3742.95
552.406	3714.28
552.61	3773.57
552.814	3770.27
553.018	3789.65
553.222	3688.9
553.426	3681.34
553.63	3838.67
553.833	3726.87
554.037	3648.99
554.241	3654.8
554.445	3707.89
554.649	3723.97
554.853	3657.51
555.056	3783.06
555.26	3817.93
555.464	3723.19
555.668	3801.27
555.871	3765.24
556.075	3781.12
556.279	3719.9
556.483	3689.29
556.686	3690.26
556.89	3676.89
557.094	3681.34
557.297	3615.08
557.501	3675.53
557.704	3537.19
557.908	3675.92
558.112	3616.24
558.315	3694.71
558.519	3644.14
558.722	3597.64
558.926	3570.33
559.129	3476.75
559.333	3495.54
559.536	3527.7
559.74	3486.82
559.943	3473.26
560.147	3481.98
560.35	3465.31
560.553	3494.18
560.757	3491.28
560.96	3567.61
561.164	3524.41
561.367	3654.41
561.57	3550.37
561.774	3567.61
561.977	3508.52
562.18	3493.21
562.384	3574.59
562.587	3457.95
562.79	3513.56
562.993	3524.99
563.197	3489.73
563.4	3555.21
563.603	3548.24
563.806	3567.03
564.009	3485.08
564.212	3500.19
564.416	3392.27
564.619	3478.49
564.822	3431.8
565.025	3487.79
565.228	3454.46
565.431	3502.51
565.634	3333.95
565.837	3397.89
566.04	3361.27
566.243	3294.62
566.446	3242.7
566.649	3332.99
566.852	3235.53
567.055	3291.52
567.258	3350.03
567.461	3371.93
567.664	3349.45
567.867	3255.87
568.07	3323.49
568.273	3363.98
568.475	3426.18
568.678	3251.42
568.881	3334.73
569.084	3242.51
569.287	3168.69
569.489	3229.91
569.692	3271.95
569.895	3281.84
570.098	3166.56
570.3	3198.33
570.503	3144.66
570.706	3129.94
570.909	3140.01
571.111	3063.87
571.314	3071.04
571.516	3119.28
571.719	3087.51
571.922	3039.46
572.124	3097
572.327	3157.26
572.529	3067.75
572.732	3117.93
572.935	3121.41
573.137	3215.77
573.34	3134.98
573.542	3187.09
573.745	3168.3
573.947	3167.91
574.15	3180.89
574.352	3134.78
574.554	3166.36
574.757	3113.47
574.959	3075.88
575.162	3069.1
575.364	3066
575.566	3193.1
575.769	3053.41
575.971	3063.29
576.173	2884.85
576.376	3036.16
576.578	3069.88
576.78	3087.51
576.982	2957.7
577.185	3039.46
577.387	2966.03
577.589	3017.37
577.791	3003.03
577.993	3027.64
578.196	2996.25
578.398	2980.95
578.6	2963.12
578.802	2884.65
579.004	2913.52
579.206	2874.39
579.408	3002.65
579.61	2880.2
579.812	2993.54
580.014	2943.94
580.216	2904.42
580.418	2959.25
580.62	2945.49
580.822	2912.94
581.024	2977.07
581.226	2964.28
581.428	2906.74
581.63	3040.04
581.832	2933.09
582.034	2980.95
582.236	2948.01
582.438	3018.92
582.64	3034.61
582.841	3096.03
583.043	3057.48
583.245	2962.35
583.447	2982.11
583.649	2985.98
583.85	2981.14
584.052	3006.13
584.254	2935.03
584.456	2965.64
584.657	2911.39
584.859	2982.3
585.061	2944.13
585.262	2952.66
585.464	2877.87
585.666	2969.9
585.867	2885.62
586.069	2975.33
586.27	2924.18
586.472	2881.94
586.674	2854.04
586.875	2855.98
587.077	2834.28
587.278	2932.51
587.48	2872.64
587.681	3008.26
587.883	2885.62
588.084	2802.89
588.285	2852.49
588.487	2837.19
588.688	2819.17
588.89	2722.1
589.091	2704.86
589.292	2682.58
589.494	2587.06
589.695	2518.86
589.896	2451.44
590.098	2471.58
590.299	2527.97
590.5	2547.15
590.702	2568.65
590.903	2640.53
591.104	2719.39
591.305	2683.74
591.507	2752.71
591.708	2726.17
591.909	2727.91
592.11	2799.6
592.311	2724.43
592.512	2705.05
592.714	2661.26
592.915	2688.78
593.116	2665.91
593.317	2739.34
593.518	2707.18
593.719	2712.99
593.92	2705.24
594.121	2762.4
594.322	2730.04
594.523	2727.14
594.724	2680.06
594.925	2683.35
595.126	2666.49
595.327	2645.18
595.528	2705.63
595.729	2700.79
595.929	2654.09
596.13	2644.02
596.331	2727.14
596.532	2702.73
596.733	2716.87
596.934	2748.84
597.135	2746.51
597.335	2723.26
597.536	2669.01
597.737	2673.47
597.938	2636.27
598.138	2718.81
598.339	2694.98
598.54	2727.72
598.74	2625.61
598.941	2680.06
599.142	2729.66
599.342	2652.54
599.543	2629.68
599.744	2668.24
599.944	2659.91
600.145	2627.75
600.345	2671.34
600.546	2698.08
600.746	2686.84
600.947	2725.78
601.147	2629.49
601.348	2683.74
601.548	2605.08
601.749	2634.33
601.949	2568.65
602.15	2584.73
602.35	2583.96
602.551	2618.06
602.751	2566.91
602.951	2587.25
603.152	2530.87
603.352	2649.83
603.552	2602.75
603.753	2678.51
603.953	2706.99
604.153	2693.23
604.354	2647.31
604.554	2638.01
604.754	2690.33
604.954	2633.95
605.155	2649.83
605.355	2635.11
605.555	2679.09
605.755	2687.23
605.955	2641.7
606.155	2684.71
606.356	2634.14
606.556	2680.44
606.756	2644.6
606.956	2598.3
607.156	2680.64
607.356	2607.98
607.556	2671.34
607.756	2660.88
607.956	2677.93
608.156	2597.33
608.356	2578.53
608.556	2662.23
608.756	2557.61
608.956	2562.84
609.156	2602.95
609.356	2560.32
609.556	2509.56
609.755	2540.17
609.955	2522.35
610.155	2547.15
610.355	2540.37
610.555	2482.05
610.755	2468.68
610.954	2452.02
611.154	2535.91
611.354	2535.13
611.554	2490.18
611.753	2492.51
