Data from gum_old_FLMT105791__180__15-48-07-249.txt Node

Date: Mon Mar 20 15:48:07 GMT 2023
User: antho
Spectrometer: FLMT10579
Trigger mode: 0
Integration Time (sec): 1.000000E-1
Scans to average: 10
Electric dark correction enabled: true
Nonlinearity correction enabled: false
Boxcar width: 0
XAxis mode: Wavelengths
Number of Pixels in Spectrum: 3648
>>>>>Begin Spectral Data<<<<<
345.248	-185.72
345.464	-185.72
345.681	-185.72
345.898	-205.29
346.114	-193.86
346.331	-34.41
346.548	19.26
346.764	-7.28
346.981	-7.48
347.197	-28.59
347.414	10.35
347.631	-28.98
347.847	70.6
348.064	5.89
348.28	29.34
348.497	-26.66
348.713	-2.05
348.93	33.99
349.146	39.22
349.363	0.86
349.579	39.99
349.796	21.97
350.012	-2.24
350.229	56.85
350.445	-9.99
350.661	-24.14
350.878	2.02
351.094	26.43
351.311	45.81
351.527	36.12
351.743	-8.44
351.96	40.77
352.176	58.98
352.392	22.94
352.609	71.57
352.825	-9.99
353.041	18.68
353.257	6.86
353.474	19.46
353.69	28.17
353.906	26.24
354.122	-15.81
354.339	66.34
354.555	41.54
354.771	14.22
354.987	97.73
355.203	93.85
355.42	7.83
355.636	34.18
355.852	2.6
356.068	21.78
356.284	-22.98
356.5	66.92
356.716	46.39
356.932	23.91
357.148	55.3
357.364	17.52
357.58	63.05
357.796	85.91
358.012	75.84
358.228	39.41
358.444	-61.92
358.66	87.85
358.876	47.55
359.092	4.34
359.308	18.29
359.524	51.62
359.74	32.82
359.956	20.42
360.172	36.89
360.388	52.59
360.604	-15.42
360.819	105.29
361.035	47.74
361.251	64.6
361.467	2.02
361.683	87.46
361.898	48.71
362.114	71.38
362.33	35.15
362.546	85.91
362.762	37.28
362.977	55.3
363.193	5.89
363.409	81.65
363.624	16.16
363.84	11.9
364.056	20.23
364.271	61.3
364.487	33.41
364.703	24.88
364.918	2.99
365.134	26.62
365.35	33.41
365.565	146.55
365.781	51.62
365.996	56.27
366.212	113.23
366.427	57.43
366.643	49.87
366.858	25.46
367.074	44.84
367.289	102.19
367.505	151.01
367.72	2.6
367.936	43.09
368.151	81.07
368.367	76.61
368.582	49.29
368.798	36.89
369.013	79.52
369.228	55.49
369.444	65.37
369.659	90.75
369.874	70.22
370.09	127.37
370.305	-16.58
370.52	35.34
370.736	116.14
370.951	48.71
371.166	102.19
371.381	120.59
371.597	115.17
371.812	39.22
372.027	36.7
372.242	49.1
372.458	138.61
372.673	31.08
372.888	49.68
373.103	123.11
373.318	111.49
373.533	78.94
373.749	63.24
373.964	28.17
374.179	131.83
374.394	15.39
374.609	104.51
374.824	4.15
375.039	85.52
375.254	40.19
375.469	113.42
375.684	67.89
375.899	117.1
376.114	72.15
376.329	60.92
376.544	102.77
376.759	100.83
376.974	36.12
377.189	66.34
377.404	66.73
377.619	113.62
377.834	15.77
378.049	7.83
378.264	41.93
378.478	95.4
378.693	52.59
378.908	94.63
379.123	78.74
379.338	128.54
379.553	72.15
379.767	66.15
379.982	102.96
380.197	87.07
380.412	64.02
380.626	102.77
380.841	173.68
381.056	87.46
381.271	138.61
381.485	58.79
381.7	53.75
381.915	91.72
382.129	44.45
382.344	85.52
382.559	78.74
382.773	104.9
382.988	16.94
383.202	70.6
383.417	28.37
383.632	157.6
383.846	70.02
384.061	54.14
384.275	62.27
384.49	82.23
384.704	120.79
384.919	79.13
385.133	85.72
385.348	137.25
385.562	49.68
385.777	121.37
385.991	64.4
386.206	60.14
386.42	50.65
386.634	135.9
386.849	97.92
387.063	93.27
387.277	65.18
387.492	75.06
387.706	40.96
387.92	54.91
388.135	150.04
388.349	116.52
388.563	121.75
388.778	107.42
388.992	120.79
389.206	106.25
389.42	183.17
389.635	103.54
389.849	126.6
390.063	155.85
390.277	115.36
390.491	160.7
390.706	152.56
390.92	162.25
391.134	115.17
391.348	155.08
391.562	63.63
391.776	119.62
391.99	94.63
392.205	185.5
392.419	90.56
392.633	106.25
392.847	163.6
393.061	98.7
393.275	154.3
393.489	90.17
393.703	93.27
393.917	127.37
394.131	44.64
394.345	102.38
394.559	120.98
394.773	96.18
394.986	124.85
395.2	132.8
395.414	196.15
395.628	108.77
395.842	154.3
396.056	150.43
396.27	102.38
396.484	152.37
396.697	161.86
396.911	141.52
397.125	155.27
397.339	115.75
397.553	134.54
397.766	198.67
397.98	127.37
398.194	215.53
398.408	162.63
398.621	190.73
398.835	212.82
399.049	181.04
399.262	238.78
399.476	208.75
399.69	213.4
399.903	282.56
400.117	226.18
400.331	241.1
400.544	172.9
400.758	335.84
400.971	227.54
401.185	240.52
401.398	186.47
401.612	285.47
401.826	256.99
402.039	251.76
402.253	200.61
402.466	247.88
402.68	227.35
402.893	259.51
403.106	266.1
403.32	229.86
403.533	281.98
403.747	219.79
403.96	261.45
404.174	255.83
404.387	191.12
404.6	252.92
404.814	281.6
405.027	257.38
405.24	246.33
405.454	242.46
405.667	304.85
405.88	187.63
406.094	262.03
406.307	292.25
406.52	271.33
406.733	213.59
406.947	192.08
407.16	316.66
407.373	336.23
407.586	199.45
407.799	224.25
408.012	272.49
408.226	259.9
408.439	344.95
408.652	238.39
408.865	282.18
409.078	343.98
409.291	280.43
409.504	238
409.717	313.76
409.93	343.21
410.143	288.18
410.357	219.79
410.57	203.52
410.783	242.65
410.996	282.56
411.209	279.27
411.421	334.29
411.634	288.38
411.847	280.43
412.06	302.33
412.273	314.53
412.486	296.51
412.699	391.06
412.912	304.85
413.125	317.05
413.338	321.89
413.55	347.66
413.763	339.14
413.976	346.5
414.189	299.81
414.402	308.72
414.615	388.16
414.827	299.23
415.04	380.21
415.253	333.71
415.466	368.59
415.678	383.89
415.891	334.49
416.104	333.33
416.316	342.43
416.529	310.27
416.742	362.78
416.954	380.21
417.167	343.01
417.38	341.27
417.592	381.96
417.805	300.97
418.017	300
418.23	355.41
418.442	287.8
418.655	333.71
418.868	336.04
419.08	384.86
419.293	382.15
419.505	350.38
419.718	372.85
419.93	384.09
420.142	349.41
420.355	383.7
420.567	404.04
420.78	355.61
420.992	346.31
421.205	419.74
421.417	339.72
421.629	340.3
421.842	329.84
422.054	347.28
422.266	390.68
422.479	429.81
422.691	342.63
422.903	409.27
423.115	326.16
423.328	340.49
423.54	352.12
423.752	379.44
423.964	375.37
424.177	399.39
424.389	382.73
424.601	497.43
424.813	406.56
425.025	425.36
425.238	429.81
425.45	385.06
425.662	380.6
425.874	723.15
426.086	375.76
426.298	419.74
426.51	386.22
426.722	392.23
426.934	396.29
427.146	438.14
427.358	354.44
427.57	441.24
427.782	400.75
427.994	408.11
428.206	387.96
428.418	341.08
428.63	423.42
428.842	440.86
429.054	434.85
429.266	443.57
429.478	384.48
429.69	373.43
429.902	339.14
430.114	411.21
430.325	391.45
430.537	327.32
430.749	326.93
430.961	260.67
431.173	311.24
431.384	353.86
431.596	270.94
431.808	354.83
432.02	440.27
432.231	472.63
432.443	511.96
432.655	447.64
432.867	427.49
433.078	438.92
433.29	496.46
433.502	481.74
433.713	513.7
433.925	483.09
434.136	535.21
434.348	389.51
434.56	386.8
434.771	544.7
434.983	382.54
435.194	437.17
435.406	478.25
435.617	537.15
435.829	551.1
436.04	508.86
436.252	544.51
436.463	554.97
436.675	571.44
436.886	500.34
437.098	558.85
437.309	597.79
437.521	543.74
437.732	543.35
437.943	543.15
438.155	519.52
438.366	457.13
438.578	568.15
438.789	521.84
439	528.62
439.211	492.2
439.423	511.19
439.634	536.95
439.845	556.33
440.057	553.04
440.268	585.39
440.479	530.75
440.69	588.1
440.902	542.38
441.113	552.07
441.324	539.47
441.535	590.43
441.746	633.44
441.957	549.35
442.168	578.42
442.38	596.63
442.591	612.52
442.802	554.59
443.013	611.93
443.224	655.33
443.435	573.77
443.646	572.02
443.857	592.37
444.068	593.72
444.279	561.56
444.49	678.2
444.701	607.09
444.912	729.93
445.123	648.17
445.334	665.02
445.545	645.45
445.756	606.7
445.967	594.5
446.178	648.55
446.388	639.64
446.599	634.02
446.81	643.9
447.021	589.65
447.232	680.71
447.443	710.36
447.653	620.46
447.864	702.22
448.075	643.71
448.286	692.34
448.496	677.42
448.707	702.22
448.918	630.73
449.129	755.69
449.339	660.76
449.55	673.55
449.761	683.62
449.971	737.48
450.182	671.41
450.393	722.95
450.603	669.86
450.814	750.46
451.024	699.7
451.235	778.75
451.446	807.81
451.656	807.43
451.867	681.3
452.077	731.28
452.288	818.86
452.498	787.86
452.709	723.34
452.919	707.26
453.13	691.18
453.34	712.88
453.55	644.29
453.761	694.28
453.971	718.3
454.182	730.9
454.392	727.21
454.602	791.93
454.813	731.28
455.023	748.33
455.233	688.66
455.444	710.16
455.654	628.4
455.864	726.05
456.075	715.59
456.285	721.01
456.495	741.75
456.705	722.76
456.916	791.34
457.126	826.8
457.336	752.21
457.546	672.19
457.756	735.93
457.967	764.03
458.177	731.67
458.387	738.84
458.597	740.78
458.807	728.57
459.017	705.9
459.227	731.48
459.437	711.33
459.647	794.44
459.857	787.47
460.068	727.41
460.278	812.27
460.488	768.09
460.698	862.06
460.908	733.8
461.117	740.2
461.327	747.95
461.537	796.38
461.747	809.17
461.957	800.84
462.167	891.71
462.377	855.67
462.587	771.97
462.797	843.27
463.007	819.63
463.216	836.88
463.426	887.25
463.636	850.82
463.846	766.74
464.056	788.63
464.265	852.57
464.475	765.77
464.685	822.34
464.895	839.2
465.104	785.34
465.314	852.18
465.524	816.53
465.733	762.48
465.943	901.78
466.153	916.89
466.362	901.2
466.572	865.36
466.782	810.91
466.991	876.01
467.201	879.69
467.41	797.35
467.62	832.61
467.829	863.03
468.039	845.21
468.249	833.97
468.458	880.27
468.668	883.96
468.877	919.99
469.086	914.96
469.296	921.35
469.505	858.77
469.715	966.49
469.924	929.87
470.134	926.97
470.343	969.01
470.552	910.5
470.762	895
470.971	834.55
471.18	890.35
471.39	914.96
471.599	853.92
471.808	898.87
472.018	901.59
472.227	992.26
472.436	978.31
472.645	955.25
472.855	964.55
473.064	1049.8
473.273	1006.99
473.482	1005.44
473.691	1041.67
473.901	1040.89
474.11	965.91
474.319	1073.25
474.528	1019.38
474.737	1108.12
474.946	1046.7
475.155	1079.45
475.364	1109.86
475.573	1055.81
475.783	1070.53
475.992	1097.85
476.201	1112
476.41	1078.67
476.619	1066.85
476.828	1090.68
477.037	1055.81
477.245	1072.28
477.454	1132.73
477.663	1101.34
477.872	1118.39
478.081	1203.25
478.29	1111.61
478.499	1205.19
478.708	1188.33
478.917	1242.39
479.125	1148.23
479.334	1150.75
479.543	1182.33
479.752	1216.23
479.961	1206.35
480.169	1243.55
480.378	1220.88
480.587	1383.63
480.796	1282.49
481.004	1244.52
481.213	1262.34
481.422	1261.57
481.63	1257.69
481.839	1280.17
482.048	1351.66
482.256	1299.74
482.465	1323.18
482.674	1375.88
482.882	1344.69
483.091	1428.58
483.299	1328.02
483.508	1363.67
483.716	1363.09
483.925	1361.16
484.134	1330.54
484.342	1346.62
484.551	1380.34
484.759	1368.13
484.967	1401.45
485.176	1400.1
485.384	1414.82
485.593	1395.25
485.801	1403.78
486.01	1345.66
486.218	1290.24
486.426	1212.36
486.635	1201.7
486.843	1185.04
487.051	1258.47
487.26	1247.43
487.468	1301.09
487.676	1328.99
487.885	1321.82
488.093	1403.39
488.301	1423.54
488.509	1396.22
488.717	1465.58
488.926	1447.37
489.134	1408.24
489.342	1432.45
489.55	1410.56
489.758	1448.73
489.967	1420.64
490.175	1560.71
490.383	1505.5
490.591	1610.9
490.799	1482.44
491.007	1594.43
491.215	1546.18
491.423	1542.31
491.631	1523.52
491.839	1545.6
492.047	1543.86
492.255	1477.79
492.463	1461.52
492.671	1463.07
492.879	1586.29
493.087	1544.83
493.295	1517.12
493.503	1566.33
493.711	1644.41
493.919	1632.21
494.127	1635.89
494.334	1642.67
494.542	1563.62
494.75	1612.45
494.958	1608.57
495.166	1705.25
495.374	1657.98
495.581	1661.27
495.789	1677.74
495.997	1706.22
496.205	1642.48
496.412	1658.17
496.62	1628.91
496.828	1663.79
497.035	1705.25
497.243	1712.81
497.451	1705.25
497.658	1731.6
497.866	1711.26
498.074	1768.99
498.281	1644.8
498.489	1780.04
498.696	1701.18
498.904	1634.14
499.112	1620.78
499.319	1759.69
499.527	1669.21
499.734	1743.42
499.942	1650.42
500.149	1688.59
500.357	1734.7
500.564	1634.14
500.771	1689.94
500.979	1653.91
501.186	1650.81
501.394	1688.98
501.601	1659.72
501.808	1708.54
502.016	1673.48
502.223	1662.24
502.43	1700.6
502.638	1647.71
502.845	1664.18
503.052	1793.41
503.26	1708.74
503.467	1813.55
503.674	1753.3
503.881	1745.16
504.089	1857.34
504.296	1755.04
504.503	1693.24
504.71	1707.96
504.917	1714.74
505.125	1748.65
505.332	1746.13
505.539	1813.55
505.746	1843.97
505.953	1827.12
506.16	1846.3
506.367	1881.95
506.574	1905.97
506.781	1887.95
506.988	1851.53
507.195	1851.14
507.402	1882.34
507.609	1875.94
507.816	1848.82
508.023	1786.04
508.23	1792.63
508.437	1769.57
508.644	1846.69
508.851	1918.95
509.058	1881.56
509.265	1845.33
509.472	1914.11
509.679	1987.73
509.885	1892.22
510.092	1915.27
510.299	1901.71
510.506	1917.98
510.713	1924.77
510.92	1878.07
511.126	1957.7
511.333	1966.62
511.54	1942.59
511.746	1988.7
511.953	2010.4
512.16	2031.13
512.367	1983.08
512.573	1955.77
512.78	1973.78
512.987	1955.38
513.193	1956.93
513.4	1869.94
513.606	1938.52
513.813	1961.97
514.02	1948.79
514.226	2010.21
514.433	1987.73
514.639	1887.37
514.846	1934.26
515.052	1886.4
515.259	1949.95
515.465	1988.9
515.672	1996.06
515.878	2086.54
516.085	2024.74
516.291	2059.81
516.497	2033.46
516.704	1979.4
516.91	1915.47
517.117	1856.37
517.323	1746.71
517.529	1781.78
517.736	1790.89
517.942	1812.59
518.148	1856.57
518.354	1880.01
518.561	1901.13
518.767	1931.93
518.973	1953.83
519.179	1956.54
519.386	1928.45
519.592	1920.89
519.798	1956.15
520.004	2062.91
520.21	2029.58
520.417	2099.91
520.623	2103.01
520.829	2153.77
521.035	2146.22
521.241	2112.12
521.447	2159.2
521.653	2282.62
521.859	2147.19
522.065	2169.08
522.271	2268.67
522.477	2239.22
522.683	2283
522.889	2220.23
523.095	2235.92
523.301	2239.8
523.507	2160.75
523.713	2214.03
523.919	2165.21
524.125	2267.89
524.331	2267.5
524.537	2385.69
524.742	2364.18
524.948	2412.04
525.154	2386.66
525.36	2443.23
525.566	2346.36
525.772	2417.66
525.977	2334.54
526.183	2359.34
526.389	2413.78
526.595	2326.6
526.8	2297.34
527.006	2202.99
527.212	2120.26
527.417	2119.87
527.623	2127.81
527.829	2249.87
528.034	2266.54
528.24	2287.07
528.446	2315.75
528.651	2423.08
528.857	2415.91
529.062	2498.45
529.268	2434.32
529.473	2486.44
529.679	2485.08
529.884	2626.32
530.09	2533.52
530.295	2543.4
530.501	2547.86
530.706	2510.27
530.912	2494.96
531.117	2539.72
531.323	2507.36
531.528	2607.34
531.733	2616.06
531.939	2598.81
532.144	2610.05
532.35	2556.77
532.555	2600.94
532.76	2558.9
532.966	2527.13
533.171	2520.93
533.376	2473.46
533.581	2423.08
533.787	2512.79
533.992	2559.29
534.197	2557.93
534.402	2546.31
534.607	2606.37
534.813	2700.53
535.018	2578.08
535.223	2586.8
535.428	2566.26
535.633	2660.81
535.838	2651.71
536.043	2673.21
536.249	2803.8
536.454	2685.22
536.659	2705.37
536.864	2657.71
537.069	2672.63
537.274	2673.6
537.479	2681.54
537.684	2650.16
537.889	2569.17
538.094	2723
538.299	2651.51
538.504	2672.63
538.708	2707.7
538.913	2735.4
539.118	2655.58
539.323	2698.79
539.528	2647.25
539.733	2671.86
539.938	2683.48
540.142	2689.68
540.347	2623.42
540.552	2620.12
540.757	2590.29
540.962	2626.52
541.166	2527.9
541.371	2576.34
541.576	2609.86
541.781	2473.26
541.985	2609.47
542.19	2630.2
542.395	2743.54
542.599	2749.55
542.804	2688.52
543.008	2753.81
543.213	2674.95
543.418	2657.52
543.622	2713.12
543.827	2658.87
544.031	2749.35
544.236	2785.2
544.44	2716.42
544.645	2836.15
544.849	2738.31
545.054	2805.93
545.258	2843.13
545.463	2856.88
545.667	2734.82
545.872	2806.51
546.076	2784.03
546.281	2772.02
546.485	2736.18
546.689	2765.63
546.894	2785.78
547.098	2788.49
547.302	2714.87
547.507	2767.95
547.711	2792.75
547.915	2825.5
548.119	2710.41
548.324	2735.79
548.528	2819.68
548.732	2784.42
548.936	2788.49
549.141	2796.05
549.345	2759.24
549.549	2760.4
549.753	2754.97
549.957	2895.25
550.161	2897.38
550.366	2781.52
550.57	2739.86
550.774	2802.63
550.978	2795.08
551.182	2780.74
551.386	2772.99
551.59	2722.42
551.794	2768.15
551.998	2796.43
552.202	2777.45
552.406	2738.12
552.61	2838.87
552.814	2836.35
553.018	2842.16
553.222	2766.98
553.426	2786.75
553.63	2872
553.833	2784.03
554.037	2679.99
554.241	2751.49
554.445	2795.27
554.649	2803.99
554.853	2754
555.056	2845.65
555.26	2832.28
555.464	2793.72
555.668	2773.77
555.871	2810.97
556.075	2844.29
556.279	2729.2
556.483	2721.45
556.686	2765.05
556.89	2768.34
557.094	2751.29
557.297	2661.97
557.501	2787.72
557.704	2637.76
557.908	2781.32
558.112	2673.99
558.315	2756.52
558.519	2709.05
558.722	2657.32
558.926	2641.44
559.129	2582.93
559.333	2576.53
559.536	2606.95
559.74	2553.86
559.943	2548.63
560.147	2589.71
560.35	2580.99
560.553	2602.11
560.757	2538.36
560.96	2651.9
561.164	2581.57
561.367	2683.29
561.57	2631.36
561.774	2637.56
561.977	2617.41
562.18	2554.64
562.384	2655.39
562.587	2589.71
562.79	2554.44
562.993	2583.51
563.197	2605.4
563.4	2660.04
563.603	2655.19
563.806	2679.22
564.009	2554.64
564.212	2601.14
564.416	2532.16
564.619	2574.21
564.822	2478.3
565.025	2616.25
565.228	2542.04
565.431	2561.23
565.634	2413.98
565.837	2481.4
566.04	2472.88
566.243	2482.37
566.446	2405.45
566.649	2545.73
566.852	2424.83
567.055	2468.03
567.258	2473.46
567.461	2574.21
567.664	2540.88
567.867	2436.26
568.07	2460.09
568.273	2476.17
568.475	2541.08
568.678	2416.5
568.881	2412.62
569.084	2412.62
569.287	2329.5
569.489	2367.87
569.692	2408.55
569.895	2407
570.098	2328.34
570.3	2292.11
570.503	2286.1
570.706	2294.05
570.909	2294.63
571.111	2233.79
571.314	2214.22
571.516	2270.8
571.719	2297.54
571.922	2262.66
572.124	2263.24
572.327	2282.23
572.529	2242.51
572.732	2238.83
572.935	2285.91
573.137	2339
573.34	2270.6
573.542	2294.05
573.745	2325.05
573.947	2349.07
574.15	2276.61
574.352	2284.17
574.554	2317.88
574.757	2198.72
574.959	2209.77
575.162	2224.69
575.364	2153
575.566	2293.08
575.769	2160.56
575.971	2240.96
576.173	2081.31
576.376	2182.26
576.578	2209.96
576.78	2235.15
576.982	2092.36
577.185	2179.93
577.387	2148.35
577.589	2113.28
577.791	2193.88
577.993	2179.16
578.196	2145.06
578.398	2195.24
578.6	2140.02
578.802	2052.64
579.004	2039.08
579.206	2093.52
579.408	2153.19
579.61	2080.54
579.812	2179.16
580.014	2061.36
580.216	2063.88
580.418	2122.97
580.62	2109.99
580.822	2052.06
581.024	2107.08
581.226	2140.02
581.428	2080.34
581.63	2200.66
581.832	2088.48
582.034	2126.07
582.236	2116.38
582.438	2133.63
582.64	2184.97
582.841	2192.52
583.043	2224.11
583.245	2133.24
583.447	2131.11
583.649	2083.44
583.85	2135.18
584.052	2155.13
584.254	2070.66
584.456	2152.81
584.657	2033.46
584.859	2110.18
585.061	2080.93
585.262	2075.89
585.464	2031.52
585.666	2063.49
585.867	2007.11
586.069	2103.79
586.27	2011.76
586.472	2050.9
586.674	2018.93
586.875	1976.3
587.077	2005.95
587.278	2026.29
587.48	2004.59
587.681	2130.53
587.883	2062.33
588.084	1943.56
588.285	2000.91
588.487	1977.66
588.688	2022.61
588.89	1908.49
589.091	1872.65
589.292	1865.67
589.494	1815.49
589.695	1781.39
589.896	1728.5
590.098	1686.26
590.299	1778.29
590.5	1741.48
590.702	1796.89
590.903	1810.26
591.104	1889.7
591.305	1881.75
591.507	1945.11
591.708	1884.66
591.909	1878.85
592.11	1963.52
592.311	1897.06
592.512	1843
592.714	1767.44
592.915	1847.65
593.116	1812.2
593.317	1871.68
593.518	1876.52
593.719	1882.34
593.92	1900.16
594.121	1942.2
594.322	1886.98
594.523	1875.17
594.724	1808.32
594.925	1865.09
595.126	1877.1
595.327	1880.98
595.528	1903.07
595.729	1870.32
595.929	1880.79
596.13	1893.96
596.331	1852.69
596.532	1865.48
596.733	1944.33
596.934	1890.67
597.135	1896.67
597.335	1890.67
597.536	1851.92
597.737	1863.35
597.938	1807.74
598.138	1878.07
598.339	1829.83
598.54	1892.6
598.74	1858.31
598.941	1848.43
599.142	1918.18
599.342	1853.85
599.543	1823.44
599.744	1872.07
599.944	1863.35
600.145	1811.23
600.345	1859.28
600.546	1936
600.746	1883.69
600.947	1935.62
601.147	1849.4
601.348	1880.01
601.548	1804.25
601.749	1860.44
601.949	1801.74
602.15	1819.95
602.35	1821.11
602.551	1879.43
602.751	1763.57
602.951	1810.26
603.152	1770.35
603.352	1873.04
603.552	1806.39
603.753	1868.19
603.953	1837.97
604.153	1848.24
604.354	1822.47
604.554	1791.47
604.754	1832.74
604.954	1794.18
605.155	1813.75
605.355	1796.7
605.555	1870.52
605.755	1892.6
605.955	1789.34
606.155	1852.3
606.356	1788.17
606.556	1835.25
606.756	1841.45
606.956	1765.51
607.156	1901.9
607.356	1765.31
607.556	1802.32
607.756	1781.01
607.956	1889.31
608.156	1815.1
608.356	1756.21
608.556	1826.92
608.756	1779.65
608.956	1758.72
609.156	1787.79
609.356	1699.83
609.556	1744.19
609.755	1756.4
609.955	1689.36
610.155	1740.32
610.355	1762.21
610.555	1718.04
610.755	1731.02
610.954	1607.8
611.154	1722.3
611.354	1773.64
611.554	1665.73
611.753	1731.41
611.953	1650.23
612.153	1744.77
612.352	1715.32
612.552	1707.58
612.752	1633.18
612.951	1696.34
613.151	1672.51
613.351	1643.06
613.55	1644.41
613.75	1666.89
613.949	1685.68
614.149	1663.4
614.348	1644.8
614.548	1612.25
