Data from gum_old_FLMT105791__72__15-44-00-257.txt Node

Date: Mon Mar 20 15:44:00 GMT 2023
User: antho
Spectrometer: FLMT10579
Trigger mode: 0
Integration Time (sec): 1.000000E-1
Scans to average: 10
Electric dark correction enabled: true
Nonlinearity correction enabled: false
Boxcar width: 0
XAxis mode: Wavelengths
Number of Pixels in Spectrum: 3648
>>>>>Begin Spectral Data<<<<<
345.248	-182.28
345.464	-182.28
345.681	-182.28
345.898	-166.4
346.114	-179.57
346.331	-55.38
346.548	21.73
346.764	-13.34
346.981	-17.99
347.197	-9.27
347.414	26.58
347.631	-14.89
347.847	52.93
348.064	30.84
348.28	27.35
348.497	-54.8
348.713	6.23
348.93	7.39
349.146	-5.01
349.363	11.46
349.579	27.16
349.796	-0.74
350.012	21.34
350.229	66.68
350.445	39.75
350.661	-22.05
350.878	8.94
351.094	46.53
351.311	25.22
351.527	35.88
351.743	5.46
351.96	33.55
352.176	26.58
352.392	56.03
352.609	29.48
352.825	6.43
353.041	22.31
353.257	12.63
353.474	23.67
353.69	16.69
353.906	27.54
354.122	4.68
354.339	78.89
354.555	8.36
354.771	11.66
354.987	79.66
355.203	69.78
355.42	18.05
355.636	-4.04
355.852	12.82
356.068	37.04
356.284	-22.44
356.5	88.19
356.716	54.28
356.932	13.4
357.148	58.54
357.364	38.78
357.58	54.48
357.796	91.67
358.012	62.81
358.228	44.59
358.444	-22.44
358.66	82.18
358.876	54.48
359.092	10.49
359.308	29.48
359.524	49.83
359.74	16.11
359.956	10.11
360.172	27.93
360.388	40.14
360.604	13.79
360.819	122.29
361.035	40.72
361.251	54.67
361.467	20.57
361.683	65.52
361.898	68.23
362.114	83.15
362.33	63.39
362.546	54.67
362.762	48.66
362.977	63.19
363.193	-4.62
363.409	76.95
363.624	-6.56
363.84	19.6
364.056	18.44
364.271	61.84
364.487	76.76
364.703	27.74
364.918	11.27
365.134	16.89
365.35	38.01
365.565	153.09
365.781	52.73
365.996	93.81
366.212	117.06
366.427	64.94
366.643	41.3
366.858	52.73
367.074	19.02
367.289	104.85
367.505	169.17
367.72	-0.36
367.936	65.33
368.151	100.2
368.367	83.54
368.582	63.19
368.798	32.78
369.013	103.88
369.228	57.77
369.444	58.35
369.659	108.92
369.874	69.39
370.09	112.79
370.305	4.49
370.52	51.96
370.736	121.12
370.951	52.54
371.166	119.77
371.381	125.58
371.597	85.47
371.812	26.38
372.027	26.58
372.242	55.06
372.458	126.94
372.673	56.8
372.888	80.82
373.103	81.02
373.318	177.89
373.533	82.76
373.749	87.22
373.964	8.36
374.179	103.3
374.394	37.81
374.609	117.25
374.824	19.79
375.039	107.76
375.254	14.95
375.469	123.26
375.684	61.84
375.899	77.34
376.114	74.82
376.329	52.54
376.544	109.89
376.759	110.08
376.974	41.11
377.189	53.51
377.404	36.65
377.619	121.71
377.834	31.42
378.049	49.63
378.264	66.49
378.478	92.45
378.693	55.06
378.908	104.07
379.123	28.32
379.338	140.5
379.553	81.41
379.767	90.32
379.982	88.19
380.197	78.5
380.412	63.58
380.626	119.57
380.841	174.21
381.056	104.07
381.271	170.34
381.485	49.83
381.7	40.72
381.915	127.91
382.129	71.33
382.344	84.31
382.559	73.85
382.773	137.59
382.988	31.03
383.202	81.41
383.417	78.11
383.632	151.74
383.846	50.41
384.061	69.39
384.275	65.52
384.49	109.11
384.704	119.96
384.919	105.43
385.133	91.67
385.348	138.56
385.562	40.14
385.777	146.51
385.991	124.22
386.206	90.51
386.42	92.26
386.634	134.11
386.849	103.49
387.063	105.04
387.277	72.49
387.492	81.6
387.706	47.69
387.92	70.56
388.135	124.81
388.349	134.88
388.563	97.1
388.778	120.16
388.992	134.49
389.206	135.66
389.42	187.97
389.635	98.26
389.849	138.17
390.063	153.29
390.277	138.37
390.491	182.54
390.706	122.29
390.92	162.97
391.134	110.66
391.348	164.33
391.562	105.82
391.776	141.66
391.99	136.24
392.205	203.08
392.419	142.82
392.633	123.06
392.847	172.08
393.061	113.37
393.275	178.28
393.489	104.07
393.703	90.12
393.917	103.49
394.131	68.04
394.345	94.97
394.559	102.72
394.773	102.72
394.986	168.98
395.2	132.56
395.414	174.21
395.628	110.86
395.842	167.43
396.056	167.82
396.27	105.43
396.484	172.27
396.697	155.42
396.911	184.29
397.125	94.39
397.339	149.8
397.553	126.16
397.766	193.59
397.98	151.54
398.194	165.49
398.408	188.94
398.621	189.71
398.835	212.19
399.049	222.84
399.262	257.52
399.476	246.87
399.69	234.27
399.903	305.57
400.117	215.09
400.331	263.72
400.544	204.44
400.758	342.96
400.971	249
401.185	279.8
401.398	186.61
401.612	301.5
401.826	273.8
402.039	272.44
402.253	248.22
402.466	269.53
402.68	249.19
402.893	271.28
403.106	274.57
403.32	253.07
403.533	305.77
403.747	265.47
403.96	259.85
404.174	295.69
404.387	217.42
404.6	247.06
404.814	305.96
405.027	247.06
405.24	242.02
405.454	259.07
405.667	334.25
405.88	203.08
406.094	293.75
406.307	319.72
406.52	268.57
406.733	245.7
406.947	213.54
407.16	330.76
407.373	335.41
407.586	258.88
407.799	232.34
408.012	317.58
408.226	289.3
408.439	368.54
408.652	253.07
408.865	309.45
409.078	371.45
409.291	316.81
409.504	292.98
409.717	320.88
409.93	343.16
410.143	307.51
410.357	257.52
410.57	248.8
410.783	275.54
410.996	277.48
411.209	315.26
411.421	367.96
411.634	323.4
411.847	312.74
412.06	342.19
412.273	343.93
412.486	330.37
412.699	418.33
412.912	329.02
413.125	373.58
413.338	322.04
413.55	372.61
413.763	301.5
413.976	360.01
414.189	326.3
414.402	320.1
414.615	406.32
414.827	316.23
415.04	389.85
415.253	381.33
415.466	365.83
415.678	424.73
415.891	351.49
416.104	330.18
416.316	378.61
416.529	320.88
416.742	408.06
416.954	422.98
417.167	357.3
417.38	359.24
417.592	378.23
417.805	330.95
418.017	321.27
418.23	391.4
418.442	320.3
418.655	330.37
418.868	361.18
419.08	405.16
419.293	370.86
419.505	382.68
419.718	394.7
419.93	403.41
420.142	362.15
420.355	404.38
420.567	433.83
420.78	369.51
420.992	378.03
421.205	422.98
421.417	355.17
421.629	375.51
421.842	345.48
422.054	335.41
422.266	427.83
422.479	474.13
422.691	357.5
422.903	430.73
423.115	352.65
423.328	372.41
423.54	393.92
423.752	379.97
423.964	363.5
424.177	399.93
424.389	375.32
424.601	517.14
424.813	425.69
425.025	432.67
425.238	451.85
425.45	401.67
425.662	389.27
425.874	724.07
426.086	431.89
426.298	409.61
426.51	436.93
426.722	386.56
426.934	420.66
427.146	413.3
427.358	393.92
427.57	430.54
427.782	390.24
427.994	368.54
428.206	373.38
428.418	377.06
428.63	452.43
428.842	482.08
429.054	394.7
429.266	429.76
429.478	407.68
429.69	396.63
429.902	363.11
430.114	414.46
430.325	388.11
430.537	348.39
430.749	352.07
430.961	275.54
431.173	347.03
431.384	369.51
431.596	268.95
431.808	336.57
432.02	404
432.231	451.85
432.443	505.71
432.655	474.71
432.867	460.38
433.078	490.41
433.29	516.95
433.502	494.09
433.713	518.89
433.925	532.45
434.136	515.98
434.348	400.12
434.56	409.81
434.771	537.1
434.983	383.46
435.194	457.86
435.406	484.59
435.617	506.49
435.829	562.29
436.04	535.36
436.252	516.76
436.463	572.17
436.675	578.76
436.886	568.68
437.098	563.84
437.309	602.2
437.521	568.68
437.732	579.34
437.943	533.81
438.155	545.43
438.366	485.56
438.578	592.32
438.789	550.66
439	540.2
439.211	509.97
439.423	495.25
439.634	531.48
439.845	550.08
440.057	535.16
440.268	584.76
440.479	555.31
440.69	560.93
440.902	547.95
441.113	555.7
441.324	542.33
441.535	595.81
441.746	646.37
441.957	538.26
442.168	569.07
442.38	581.47
442.591	627.39
442.802	558.61
443.013	615.95
443.224	641.53
443.435	603.75
443.646	583.79
443.857	608.01
444.068	597.35
444.279	600.26
444.49	699.07
444.701	626.42
444.912	729.3
445.123	655.67
445.334	648.31
445.545	658.97
445.756	630.68
445.967	606.65
446.178	627
446.388	607.04
446.599	630.1
446.81	636.88
447.021	596.39
447.232	677.57
447.443	688.42
447.653	631.84
447.864	697.52
448.075	665.36
448.286	689.97
448.496	690.16
448.707	693.26
448.918	618.09
449.129	731.43
449.339	649.28
449.55	653.93
449.761	663.62
449.971	697.91
450.182	668.46
450.393	704.88
450.603	649.86
450.814	732.4
451.024	710.5
451.235	742.08
451.446	780.06
451.656	788.97
451.867	680.09
452.077	746.15
452.288	787.42
452.498	771.53
452.709	687.83
452.919	722.52
453.13	692.68
453.34	713.6
453.55	649.47
453.761	699.85
453.971	693.26
454.182	699.46
454.392	688.42
454.602	755.65
454.813	745.57
455.023	709.92
455.233	681.05
455.444	710.5
455.654	635.52
455.864	734.92
456.075	690.74
456.285	701.01
456.495	723.68
456.705	747.51
456.916	758.17
457.126	797.3
457.336	739.76
457.546	680.09
457.756	718.83
457.967	815.32
458.177	713.8
458.387	744.41
458.597	689
458.807	726.78
459.017	682.8
459.227	702.37
459.437	717.09
459.647	762.23
459.857	757.58
460.068	729.3
460.278	794.59
460.488	744.99
460.698	806.6
460.908	759.72
461.117	713.99
461.327	734.72
461.537	753.32
461.747	771.73
461.957	776.76
462.167	918.39
462.377	837.02
462.587	791.49
462.797	827.91
463.007	811.64
463.216	823.65
463.426	825.01
463.636	861.24
463.846	750.22
464.056	778.31
464.265	831.4
464.475	780.83
464.685	780.45
464.895	833.92
465.104	770.76
465.314	847.1
465.524	781.41
465.733	768.24
465.943	864.14
466.153	869.57
466.362	840.7
466.572	831.6
466.782	820.55
466.991	828.5
467.201	906.19
467.41	763.01
467.62	820.36
467.829	800.01
468.039	829.27
468.249	824.81
468.458	827.33
468.668	886.23
468.877	849.23
469.086	933.31
469.296	933.12
469.505	859.11
469.715	959.66
469.924	883.33
470.134	932.73
470.343	925.37
470.552	860.46
470.762	869.57
470.971	856.2
471.18	882.55
471.39	892.82
471.599	845.16
471.808	912.58
472.018	892.43
472.227	975.94
472.436	996.47
472.645	962.76
472.855	911.03
473.064	1009.84
473.273	957.72
473.482	1001.9
473.691	1000.54
473.901	1016.62
474.11	967.22
474.319	1051.11
474.528	988.14
474.737	1043.75
474.946	1012.94
475.155	1015.85
475.364	1086.76
475.573	1022.24
475.783	1063.51
475.992	1067.39
476.201	1090.05
476.41	1030.38
476.619	996.09
476.828	1037.74
477.037	1059.44
477.245	1044.33
477.454	1074.94
477.663	1064.09
477.872	1066.61
478.081	1153.22
478.29	1034.06
478.499	1227.03
478.708	1164.07
478.917	1186.54
479.125	1103.23
479.334	1145.08
479.543	1128.42
479.752	1181.89
479.961	1174.33
480.169	1209.6
480.378	1210.76
480.587	1306.08
480.796	1219.28
481.004	1203.59
481.213	1281.67
481.422	1254.16
481.63	1256.87
481.839	1236.91
482.048	1326.23
482.256	1250.28
482.465	1343.48
482.674	1310.73
482.882	1325.26
483.091	1377.38
483.299	1302.59
483.508	1348.13
483.716	1339.6
483.925	1351.81
484.134	1266.95
484.342	1320.03
484.551	1371.38
484.759	1339.6
484.967	1356.26
485.176	1387.46
485.384	1377.77
485.593	1402.37
485.801	1367.69
486.01	1323.52
486.218	1258.61
486.426	1166.39
486.635	1155.35
486.843	1158.06
487.051	1198.75
487.26	1187.9
487.468	1279.15
487.676	1303.95
487.885	1279.35
488.093	1345.99
488.301	1406.25
488.509	1382.42
488.717	1467.09
488.926	1400.44
489.134	1384.55
489.342	1391.14
489.55	1365.18
489.758	1440.74
489.967	1398.89
490.175	1536.25
490.383	1463.79
490.591	1588.57
490.799	1480.07
491.007	1544.59
491.215	1531.6
491.423	1512.81
491.631	1529.09
491.839	1493.24
492.047	1524.05
492.255	1458.95
492.463	1440.54
492.671	1449.65
492.879	1516.49
493.087	1489.37
493.295	1493.82
493.503	1546.72
493.711	1584.11
493.919	1583.14
494.127	1569.58
494.334	1609.49
494.542	1540.52
494.75	1563.96
494.958	1565.12
495.166	1672.46
495.374	1633.13
495.581	1655.8
495.789	1653.66
495.997	1681.76
496.205	1575.39
496.412	1585.47
496.62	1605.62
496.828	1619.18
497.035	1623.44
497.243	1643.98
497.451	1620.15
497.658	1621.89
497.866	1645.91
498.074	1705.59
498.281	1620.15
498.489	1703.46
498.696	1626.93
498.904	1620.92
499.112	1573.45
499.319	1712.76
499.527	1646.88
499.734	1668.97
499.942	1626.73
500.149	1614.14
500.357	1652.7
500.564	1603.48
500.771	1593.8
500.979	1584.69
501.186	1581.01
501.394	1612.98
501.601	1588.18
501.808	1636.62
502.016	1604.65
502.223	1602.52
502.43	1588.57
502.638	1575.2
502.845	1621.31
503.052	1702.68
503.26	1628.87
503.467	1703.65
503.674	1680.6
503.881	1669.36
504.089	1738.53
504.296	1710.43
504.503	1603.29
504.71	1639.52
504.917	1614.53
505.125	1682.73
505.332	1683.31
505.539	1697.65
505.746	1767.98
505.953	1767.78
506.16	1726.51
506.367	1813.89
506.574	1796.46
506.781	1770.3
506.988	1742.01
507.195	1759.45
507.402	1748.41
507.609	1775.14
507.816	1725.55
508.023	1725.16
508.23	1702.1
508.437	1679.82
508.644	1745.5
508.851	1795.1
509.058	1756.16
509.265	1754.99
509.472	1779.41
509.679	1890.42
509.885	1807.11
510.092	1803.04
510.299	1812.93
510.506	1793.94
510.713	1785.22
510.92	1763.52
511.126	1813.7
511.333	1813.7
511.54	1844.12
511.746	1878.99
511.953	1876.28
512.16	1890.23
512.367	1830.17
512.573	1821.45
512.78	1866.59
512.987	1833.85
513.193	1796.07
513.4	1745.5
513.606	1778.44
513.813	1837.92
514.02	1772.04
514.226	1868.53
514.433	1874.73
514.639	1743.95
514.846	1800.53
515.052	1785.41
515.259	1812.93
515.465	1817.38
515.672	1852.84
515.878	1904.96
516.085	1864.85
516.291	1916.58
516.497	1863.49
516.704	1860.2
516.91	1776.11
517.117	1736.39
517.323	1656.76
517.529	1670.91
517.736	1710.05
517.942	1674.78
518.148	1682.73
518.354	1758.29
518.561	1699.2
518.767	1734.46
518.973	1814.86
519.179	1795.29
519.386	1766.62
519.592	1772.04
519.798	1771.85
520.004	1914.64
520.21	1872.21
520.417	1926.65
520.623	1942.93
520.829	1960.75
521.035	1992.34
521.241	1950.87
521.447	1987.88
521.653	2114.4
521.859	1948.55
522.065	1968.5
522.271	2115.95
522.477	2033.6
522.683	2104.13
522.889	2031.67
523.095	2029.15
523.301	2039.03
523.507	1983.42
523.713	2019.85
523.919	1952.42
524.125	2093.66
524.331	2063.44
524.537	2110.13
524.742	2137.45
524.948	2189.76
525.154	2158.57
525.36	2260.67
525.566	2125.83
525.772	2198.68
525.977	2103.55
526.183	2160.9
526.389	2210.49
526.595	2122.53
526.8	2128.35
527.006	2045.23
527.212	1969.86
527.417	1923.94
527.623	1954.55
527.829	2040
528.034	2063.44
528.24	2060.92
528.446	2061.89
528.651	2195.19
528.857	2136.29
529.062	2231.81
529.268	2193.06
529.473	2244.21
529.679	2225.22
529.884	2322.48
530.09	2294.58
530.295	2289.35
530.501	2279.66
530.706	2304.46
530.912	2249.83
531.117	2272.11
531.323	2300.78
531.528	2323.84
531.733	2313.96
531.939	2300.2
532.144	2326.74
532.35	2335.66
532.555	2340.31
532.76	2329.26
532.966	2290.9
533.171	2262.03
533.376	2198.29
533.581	2170.78
533.787	2250.21
533.992	2283.54
534.197	2311.24
534.402	2282.57
534.607	2287.99
534.813	2398.62
535.018	2316.47
535.223	2331.2
535.428	2327.91
535.633	2403.66
535.838	2403.66
536.043	2388.35
536.249	2510.03
536.454	2369.56
536.659	2445.9
536.864	2411.6
537.069	2377.31
537.274	2390.1
537.479	2362.97
537.684	2329.07
537.889	2313.96
538.094	2482.52
538.299	2379.64
538.504	2395.72
538.708	2400.95
538.913	2479.22
539.118	2407.54
539.323	2414.51
539.528	2373.05
539.733	2406.37
539.938	2395.91
540.142	2402.3
540.347	2415.09
540.552	2325.58
540.757	2327.71
540.962	2338.76
541.166	2298.65
541.371	2287.22
541.576	2331.78
541.781	2228.71
541.985	2378.09
542.19	2372.27
542.395	2464.5
542.599	2473.8
542.804	2429.62
543.008	2492.59
543.213	2385.06
543.418	2382.93
543.622	2444.73
543.827	2355.8
544.031	2462.75
544.236	2462.37
544.44	2446.48
544.645	2524.56
544.849	2438.15
545.054	2433.5
545.258	2527.66
545.463	2496.08
545.667	2437.37
545.872	2492.01
546.076	2466.24
546.281	2453.26
546.485	2445.9
546.689	2483.87
546.894	2458.68
547.098	2508.09
547.302	2424.78
547.507	2463.33
547.711	2469.73
547.915	2534.63
548.119	2446.28
548.324	2416.84
548.528	2496.47
548.732	2449.77
548.936	2492.2
549.141	2540.83
549.345	2484.65
549.549	2463.72
549.753	2503.05
549.957	2613.29
550.161	2563.5
550.366	2520.88
550.57	2477.48
550.774	2519.71
550.978	2468.95
551.182	2516.42
551.386	2462.75
551.59	2440.86
551.794	2517.2
551.998	2523.59
552.202	2464.69
552.406	2498.6
552.61	2524.75
552.814	2499.76
553.018	2550.13
553.222	2487.94
553.426	2471.86
553.63	2581.13
553.833	2478.64
554.037	2397.46
554.241	2481.93
554.445	2505.38
554.649	2505.57
554.853	2484.84
555.056	2541.61
555.26	2560.4
555.464	2522.81
555.668	2524.17
555.871	2511.97
556.075	2531.53
556.279	2479.03
556.483	2466.63
556.686	2456.75
556.89	2467.79
557.094	2460.04
557.297	2386.61
557.501	2463.53
557.704	2377.5
557.908	2442.99
558.112	2360.84
558.315	2486.39
558.519	2390.68
558.722	2434.08
558.926	2392.62
559.129	2311.24
559.333	2314.54
559.536	2354.45
559.74	2326.16
559.943	2293.42
560.147	2287.99
560.35	2294.97
560.553	2324.22
560.757	2247.89
560.96	2430.2
561.164	2339.14
561.367	2422.84
561.57	2380.99
561.774	2342.63
561.977	2355.42
562.18	2312.41
562.384	2414.51
562.587	2374.79
562.79	2325.58
562.993	2332.17
563.197	2373.63
563.4	2389.13
563.603	2334.88
563.806	2425.36
564.009	2319.96
564.212	2373.05
564.416	2286.64
564.619	2341.66
564.822	2261.45
565.025	2347.09
565.228	2286.25
565.431	2329.84
565.634	2199.45
565.837	2253.7
566.04	2263.58
566.243	2247.31
566.446	2131.06
566.649	2255.44
566.852	2164.96
567.055	2232.97
567.258	2225.22
567.461	2295.16
567.664	2312.41
567.867	2192.28
568.07	2256.99
568.273	2235.49
568.475	2309.89
568.678	2206.04
568.881	2198.48
569.084	2177.56
569.287	2104.32
569.489	2134.16
569.692	2195.38
569.895	2185.5
570.098	2123.31
570.3	2104.32
570.503	2081.46
570.706	2071.97
570.909	2066.93
571.111	2009.77
571.314	2011.9
571.516	2063.63
571.719	2042.32
571.922	2018.68
572.124	2027.98
572.327	2079.52
572.529	2010.35
572.732	2045.62
572.935	2091.73
573.137	2147.14
573.34	2072.74
573.542	2105.68
573.745	2105.68
573.947	2060.53
574.15	2020.62
574.352	2000.28
574.554	2152.76
574.757	2003.96
574.959	1971.6
575.162	1977.8
575.364	1989.04
575.566	2095.41
575.769	1956.3
575.971	2014.62
576.173	1917.55
576.376	1997.57
576.578	2013.65
576.78	2043.1
576.982	1890.23
577.185	1942.93
577.387	1932.08
577.589	1901.66
577.791	1978
577.993	1981.87
578.196	1959.79
578.398	1963.47
578.6	1959.98
578.802	1881.51
579.004	1864.85
579.206	1876.86
579.408	1933.44
579.61	1864.66
579.812	1942.93
580.014	1878.22
580.216	1904.96
580.418	1900.89
580.62	1887.71
580.822	1877.06
581.024	1921.23
581.226	1949.71
581.428	1909.8
581.63	1962.3
581.832	1919.29
582.034	1956.1
582.236	1923.17
582.438	1966.18
582.64	1955.91
582.841	1994.47
583.043	2018.1
583.245	1926.07
583.447	1973.54
583.649	1947.58
583.85	1959.4
584.052	1956.88
584.254	1901.47
584.456	1954.55
584.657	1885.39
584.859	1954.94
585.061	1873.96
585.262	1874.92
585.464	1839.08
585.666	1916
585.867	1861.17
586.069	1945.84
586.27	1891.78
586.472	1895.66
586.674	1835.01
586.875	1837.72
587.077	1824.36
587.278	1864.07
587.48	1851.29
587.681	1964.05
587.883	1864.85
588.084	1806.34
588.285	1828.42
588.487	1841.21
588.688	1847.02
588.89	1761.19
589.091	1726.71
589.292	1759.84
589.494	1694.35
589.695	1640.1
589.896	1588.95
590.098	1574.42
590.299	1663.55
590.5	1607.75
590.702	1677.5
590.903	1694.74
591.104	1751.31
591.305	1713.92
591.507	1769.14
591.708	1745.5
591.909	1748.21
592.11	1821.26
592.311	1738.91
592.512	1740.46
592.714	1677.3
592.915	1721.86
593.116	1713.34
593.317	1732.13
593.518	1762.36
593.719	1742.01
593.92	1746.86
594.121	1819.71
594.322	1713.73
594.523	1739.88
594.724	1723.22
594.925	1732.52
595.126	1740.46
595.327	1779.02
595.528	1732.13
595.729	1760.61
595.929	1723.8
596.13	1715.28
596.331	1756.54
596.532	1732.52
596.733	1814.48
596.934	1792.39
597.135	1772.82
597.335	1784.64
597.536	1723.8
597.737	1747.63
597.938	1692.22
598.138	1766.81
598.339	1717.6
598.54	1731.55
598.74	1703.26
598.941	1736.2
599.142	1778.44
599.342	1711.98
599.543	1663.16
599.744	1687.38
599.944	1717.6
600.145	1693.19
600.345	1713.92
600.546	1770.49
600.746	1746.47
600.947	1777.08
601.147	1704.43
601.348	1725.93
601.548	1683.89
601.749	1733.1
601.949	1630.42
602.15	1711.79
602.35	1688.35
602.551	1712.18
602.751	1629.83
602.951	1681.37
603.152	1620.34
603.352	1713.34
603.552	1668.39
603.753	1741.82
603.953	1711.6
604.153	1684.66
604.354	1677.88
604.554	1669.75
604.754	1727.87
604.954	1651.53
605.155	1713.92
605.355	1673.43
605.555	1698.81
605.755	1740.46
605.955	1675.56
606.155	1703.65
606.356	1683.31
606.556	1699
606.756	1683.31
606.956	1609.49
607.156	1746.08
607.356	1626.15
607.556	1679.63
607.756	1677.11
607.956	1697.65
608.156	1652.7
608.356	1623.25
608.556	1673.04
608.756	1665.68
608.956	1609.88
609.156	1638.75
609.356	1606.78
609.556	1584.69
609.755	1637.58
609.955	1598.25
610.155	1608.13
610.355	1653.08
610.555	1587.21
610.755	1608.91
610.954	1535.29
611.154	1620.15
611.354	1639.91
611.554	1566.28
611.753	1611.23
611.953	1536.64
612.153	1615.69
612.352	1569.77
612.552	1544.2
612.752	1530.05
612.951	1534.12
613.151	1558.53
613.351	1517.85
613.55	1556.21
613.75	1578.49
613.949	1543.23
614.149	1549.04
