Data from gum_old_FLMT105791__156__15-47-43-250.txt Node

Date: Mon Mar 20 15:47:43 GMT 2023
User: antho
Spectrometer: FLMT10579
Trigger mode: 0
Integration Time (sec): 1.000000E-1
Scans to average: 10
Electric dark correction enabled: true
Nonlinearity correction enabled: false
Boxcar width: 0
XAxis mode: Wavelengths
Number of Pixels in Spectrum: 3648
>>>>>Begin Spectral Data<<<<<
345.248	-187.19
345.464	-187.19
345.681	-187.19
345.898	-191.65
346.114	-196.1
346.331	-53.12
346.548	48.6
346.764	-14.18
346.981	-14.95
347.197	16.05
347.414	6.56
347.631	-30.06
347.847	83.28
348.064	19.15
348.28	16.24
348.497	-47.31
348.713	-30.26
348.93	40.07
349.146	31.16
349.363	-4.88
349.579	16.24
349.796	17.02
350.012	17.99
350.229	29.22
350.445	18.95
350.661	-9.53
350.878	24.96
351.094	45.11
351.311	43.17
351.527	36
351.743	8.49
351.96	69.52
352.176	53.05
352.392	48.99
352.609	53.44
352.825	-11.66
353.041	16.24
353.257	8.3
353.474	16.63
353.69	25.54
353.906	2.68
354.122	6.17
354.339	48.02
354.555	33.68
354.771	20.7
354.987	80.57
355.203	102.07
355.42	-11.46
355.636	11.4
355.852	-5.46
356.068	8.3
356.284	-17.86
356.5	87.93
356.716	45.89
356.932	20.7
357.148	54.22
357.364	25.54
357.58	69.14
357.796	79.79
358.012	77.47
358.228	43.17
358.444	-61.45
358.66	85.6
358.876	42.4
359.092	7.14
359.308	54.8
359.524	34.84
359.74	21.86
359.956	16.63
360.172	50.54
360.388	40.65
360.604	39.49
360.819	119.9
361.035	45.69
361.251	73.01
361.467	-6.04
361.683	62.35
361.898	48.21
362.114	65.45
362.33	58.29
362.546	47.44
362.762	33.87
362.977	26.51
363.193	24.38
363.409	81.15
363.624	12.17
363.84	0.55
364.056	17.02
364.271	61.58
364.487	76.89
364.703	31.35
364.918	22.05
365.134	32.9
365.35	34.65
365.565	139.27
365.781	84.64
365.996	56.93
366.212	95.87
366.427	72.24
366.643	23.8
366.858	32.52
367.074	25.15
367.289	112.53
367.505	137.14
367.72	30.39
367.936	32.9
368.151	93.94
368.367	92.77
368.582	59.64
368.798	59.64
369.013	94.52
369.228	68.75
369.444	51.31
369.659	116.8
369.874	67
370.09	119.32
370.305	-17.08
370.52	21.67
370.736	120.87
370.951	50.92
371.166	100.91
371.381	129.78
371.597	92.58
371.812	32.13
372.027	32.71
372.242	50.92
372.458	124.74
372.673	48.4
372.888	39.1
373.103	69.91
373.318	145.86
373.533	76.69
373.749	70.49
373.964	-29.09
374.179	103.43
374.394	15.85
374.609	133.27
374.824	4.62
375.039	102.27
375.254	36.97
375.469	102.46
375.684	68.55
375.899	103.43
376.114	92.77
376.329	63.13
376.544	75.92
376.759	110.02
376.974	23.6
377.189	63.32
377.404	27.87
377.619	100.72
377.834	10.82
378.049	24.77
378.264	41.24
378.478	81.34
378.693	56.15
378.908	102.07
379.123	75.72
379.338	119.12
379.553	101.69
379.767	64.87
379.982	98
380.197	79.02
380.412	50.92
380.626	77.85
380.841	162.13
381.056	105.95
381.271	147.41
381.485	47.63
381.7	48.6
381.915	85.99
382.129	46.27
382.344	68.36
382.559	84.05
382.773	98.97
382.988	33.29
383.202	63.32
383.417	44.72
383.632	164.85
383.846	63.13
384.061	85.99
384.275	77.66
384.49	72.62
384.704	80.95
384.919	82.5
385.133	93.16
385.348	70.69
385.562	40.65
385.777	117.18
385.991	64.29
386.206	62.74
386.42	69.52
386.634	135.59
386.849	85.99
387.063	85.41
387.277	77.27
387.492	29.22
387.706	53.44
387.92	78.24
388.135	115.63
388.349	92.58
388.563	92.58
388.778	82.12
388.992	96.65
389.206	133.65
389.42	174.92
389.635	94.13
389.849	133.85
390.063	136.37
390.277	114.86
390.491	156.71
390.706	141.02
390.92	153.61
391.134	107.88
391.348	116.41
391.562	87.74
391.776	130.75
391.99	108.08
392.205	153.8
392.419	99.55
392.633	110.79
392.847	148.57
393.061	82.7
393.275	158.65
393.489	67.78
393.703	70.88
393.917	146.25
394.131	56.15
394.345	109.24
394.559	129.78
394.773	75.92
394.986	121.64
395.2	108.66
395.414	177.63
395.628	93.94
395.842	168.33
396.056	106.92
396.27	73.01
396.484	145.47
396.697	139.47
396.911	177.44
397.125	115.05
397.339	136.95
397.553	91.03
397.766	165.43
397.98	173.95
398.194	173.18
398.408	116.99
398.621	175.7
398.835	206.7
399.049	162.13
399.262	224.33
399.476	218.71
399.69	236.15
399.903	264.24
400.117	191.78
400.331	221.23
400.544	167.56
400.758	320.04
400.971	189.26
401.185	214.06
401.398	175.7
401.612	244.86
401.826	257.26
402.039	257.26
402.253	225.68
402.466	269.47
402.68	191.78
402.893	222.97
403.106	232.27
403.32	221.61
403.533	217.74
403.747	210.38
403.96	240.6
404.174	244.67
404.387	184.22
404.6	240.02
404.814	253
405.027	239.83
405.24	220.06
405.454	230.72
405.667	254.16
405.88	172.6
406.094	247.58
406.307	280.51
406.52	236.34
406.733	199.14
406.947	176.28
407.16	326.24
407.373	273.73
407.586	207.47
407.799	216.77
408.012	279.54
408.226	251.84
408.439	308.8
408.652	212.12
408.865	259.98
409.078	335.54
409.291	294.08
409.504	215.8
409.717	306.48
409.93	312.68
410.143	268.89
410.357	175.31
410.57	205.73
410.783	247.58
410.996	290.39
411.209	267.34
411.421	288.07
411.634	295.43
411.847	271.41
412.06	284.39
412.273	311.51
412.486	280.9
412.699	372.93
412.912	295.63
413.125	325.85
413.338	293.49
413.55	317.91
413.763	290.01
413.976	315
414.189	286.13
414.402	306.28
414.615	373.32
414.827	284.19
415.04	357.63
415.253	331.08
415.466	342.32
415.678	390.37
415.891	312.48
416.104	299.5
416.316	276.45
416.529	306.09
416.742	333.21
416.954	346
417.167	300.66
417.38	323.14
417.592	367.51
417.805	293.49
418.017	250.1
418.23	334.76
418.442	292.91
418.655	313.06
418.868	323.33
419.08	358.59
419.293	364.99
419.505	330.69
419.718	355.3
419.93	355.11
420.142	303.18
420.355	397.15
420.567	384.94
420.78	386.3
420.992	320.62
421.205	407.22
421.417	332.24
421.629	312.68
421.842	312.87
422.054	301.24
422.266	387.85
422.479	418.07
422.691	321.98
422.903	373.9
423.115	314.61
423.328	320.04
423.54	331.66
423.752	330.5
423.964	333.41
424.177	348.91
424.389	365.76
424.601	457.99
424.813	386.11
425.025	412.07
425.238	376.03
425.45	352.98
425.662	343.68
425.874	697.07
426.086	350.65
426.298	385.14
426.51	369.64
426.722	380.68
426.934	362.86
427.146	402.19
427.358	334.76
427.57	406.26
427.782	342.71
427.994	369.44
428.206	347.74
428.418	348.52
428.63	387.07
428.842	439
429.054	398.51
429.266	394.44
429.478	367.89
429.69	355.3
429.902	311.13
430.114	396.76
430.325	368.09
430.537	304.93
430.749	306.28
430.961	238.86
431.173	308.61
431.384	335.15
431.596	262.69
431.808	313.26
432.02	399.09
432.231	436.09
432.443	476.59
432.655	456.05
432.867	426.02
433.078	429.12
433.29	504.49
433.502	481.24
433.713	514.37
433.925	483.75
434.136	496.74
434.348	408.77
434.56	344.64
434.771	537.81
434.983	385.72
435.194	414.01
435.406	474.26
435.617	503.71
435.829	543.23
436.04	516.5
436.252	501.77
436.463	541.88
436.675	553.89
436.886	523.86
437.098	540.52
437.309	572.88
437.521	508.55
437.732	545.56
437.943	510.49
438.155	502.94
438.366	470.97
438.578	532.77
438.789	521.34
439	506.81
439.211	480.65
439.423	509.33
439.634	502.55
439.845	508.94
440.057	532.97
440.268	575.78
440.479	519.21
440.69	545.75
440.902	522.12
441.113	517.27
441.324	498.67
441.535	581.02
441.746	609.88
441.957	534.13
442.168	573.85
442.38	600.39
442.591	593.42
442.802	535.49
443.013	544.01
443.224	606.01
443.435	598.65
443.646	571.52
443.857	603.3
444.068	575.2
444.279	558.54
444.49	688.74
444.701	600.78
444.912	712.76
445.123	642.82
445.334	619.77
445.545	637.78
445.756	594.19
445.967	571.91
446.178	613.57
446.388	629.84
446.599	596.71
446.81	617.63
447.021	567.26
447.232	655.03
447.443	663.55
447.653	623.06
447.864	658.71
448.075	629.84
448.286	679.83
448.496	659.29
448.707	684.28
448.918	623.83
449.129	744.73
449.339	614.73
449.55	691.84
449.761	672.27
449.971	701.91
450.182	655.61
450.393	695.91
450.603	682.73
450.814	719.54
451.024	699.98
451.235	718.19
451.446	767.21
451.656	792.01
451.867	674.6
452.077	743.57
452.288	803.05
452.498	768.76
452.709	675.18
452.919	722.64
453.13	643.21
453.34	704.82
453.55	673.43
453.761	694.75
453.971	701.72
454.182	721.09
454.392	708.89
454.602	783.29
454.813	731.94
455.023	748.03
455.233	671.11
455.444	689.9
455.654	630.42
455.864	700.56
456.075	676.34
456.285	713.35
456.495	681.18
456.705	748.41
456.916	743.96
457.126	801.89
457.336	724.58
457.546	663.75
457.756	720.13
457.967	787.74
458.177	717.8
458.387	742.6
458.597	675.18
458.807	705.4
459.017	707.53
459.227	733.88
459.437	711.21
459.647	768.56
459.857	763.33
460.068	730.01
460.278	785.42
460.488	779.03
460.698	816.61
460.908	739.5
461.117	725.16
461.327	718.58
461.537	781.35
461.747	800.14
461.957	802.86
462.167	894.89
462.377	847.22
462.587	770.11
462.797	807.51
463.007	794.91
463.216	826.49
463.426	864.66
463.636	819.91
463.846	745.12
464.056	794.53
464.265	835.79
464.475	769.34
464.685	805.18
464.895	851.68
465.104	778.06
465.314	819.13
465.524	770.69
465.733	763.91
465.943	885.59
466.153	887.91
466.362	871.44
466.572	850.91
466.782	815.06
466.991	833.86
467.201	889.27
467.41	765.27
467.62	842.57
467.829	787.74
468.039	856.33
468.249	846.26
468.458	839.09
468.668	879
468.877	908.06
469.086	939.25
469.296	885.78
469.505	899.92
469.715	918.33
469.924	897.21
470.134	937.9
470.343	924.53
470.552	876.48
470.762	871.06
470.971	858.27
471.18	874.54
471.39	892.17
471.599	871.64
471.808	935.96
472.018	884.23
472.227	975.68
472.436	994.86
472.645	935.57
472.855	931.89
473.064	1021.4
473.273	1008.62
473.482	979.94
473.691	1021.4
473.901	1015.2
474.11	993.7
474.319	1081.27
474.528	993.5
474.737	1067.71
474.946	1026.25
475.155	1034.97
475.364	1090.76
475.573	1038.26
475.783	1057.25
475.992	1069.06
476.201	1112.85
476.41	1048.53
476.619	996.22
476.828	1050.47
477.037	1021.6
477.245	1041.55
477.454	1102.58
477.663	1085.73
477.872	1097.35
478.081	1181.63
478.29	1098.71
478.499	1201.39
478.708	1175.24
478.917	1244.99
479.125	1107.62
479.334	1160.71
479.543	1141.33
479.752	1179.31
479.961	1194.61
480.169	1222.71
480.378	1193.45
480.587	1368.79
480.796	1260.1
481.004	1233.36
481.213	1240.14
481.422	1255.26
481.63	1244.99
481.839	1275.02
482.048	1325.97
482.256	1279.47
482.465	1316.87
482.674	1318.81
482.882	1320.16
483.091	1362.79
483.299	1283.35
483.508	1355.81
483.716	1323.84
483.925	1358.52
484.134	1292.26
484.342	1298.27
484.551	1343.8
484.759	1342.83
484.967	1391.07
485.176	1387.2
485.384	1394.56
485.593	1399.79
485.801	1349.42
486.01	1329.07
486.218	1266.11
486.426	1201.39
486.635	1178.34
486.843	1162.64
487.051	1195.58
487.26	1214.76
487.468	1263.01
487.676	1298.07
487.885	1283.35
488.093	1344.77
488.301	1413.16
488.509	1398.24
488.717	1443.97
488.926	1416.84
489.134	1402.89
489.342	1396.5
489.55	1389.52
489.758	1438.93
489.967	1420.52
490.175	1544.13
490.383	1512.36
490.591	1597.41
490.799	1460.24
491.007	1578.04
491.215	1527.28
491.423	1507.13
491.631	1499.38
491.839	1512.55
492.047	1518.75
492.255	1473.61
492.463	1420.72
492.671	1429.63
492.879	1520.69
493.087	1512.36
493.295	1573
493.503	1560.02
493.711	1615.24
493.919	1631.71
494.127	1602.26
494.334	1620.66
494.542	1517.59
494.75	1622.21
494.958	1610.39
495.166	1682.86
495.374	1632.48
495.581	1677.82
495.789	1638.88
495.997	1734.59
496.205	1624.15
496.412	1621.83
496.62	1648.56
496.828	1656.51
497.035	1645.08
497.243	1654.76
497.451	1669.68
497.658	1677.82
497.866	1695.06
498.074	1751.06
498.281	1661.93
498.489	1718.89
498.696	1652.05
498.904	1602.06
499.112	1611.94
499.319	1710.76
499.527	1670.46
499.734	1692.93
499.942	1676.27
500.149	1664.06
500.357	1698.74
500.564	1618.14
500.771	1685.57
500.979	1606.71
501.186	1641.98
501.394	1682.86
501.601	1617.56
501.808	1659.41
502.016	1661.74
502.223	1644.88
502.43	1645.46
502.638	1656.31
502.845	1624.15
503.052	1738.66
503.26	1656.51
503.467	1788.25
503.674	1675.3
503.881	1760.74
504.089	1805.3
504.296	1765.59
504.503	1690.02
504.71	1704.94
504.917	1620.28
505.125	1738.46
505.332	1734.39
505.539	1730.91
505.746	1883.58
505.953	1796.2
506.16	1852.38
506.367	1869.43
506.574	1908.77
506.781	1894.82
506.988	1800.46
507.195	1872.15
507.402	1840.57
507.609	1866.53
507.816	1772.75
508.023	1813.05
508.23	1784.38
508.437	1765.97
508.644	1797.36
508.851	1836.11
509.058	1882.03
509.265	1867.5
509.472	1874.08
509.679	1988.01
509.885	1880.67
510.092	1889.39
510.299	1920
510.506	1873.89
510.713	1891.33
510.92	1868.47
511.126	1925.82
511.333	1954.1
511.54	1939.96
511.746	1945.19
511.953	1994.98
512.16	2021.53
512.367	1949.45
512.573	1932.6
512.78	1910.9
512.987	1966.89
513.193	1956.81
513.4	1825.07
513.606	1923.1
513.813	1953.91
514.02	1901.6
514.226	1993.24
514.433	1953.52
514.639	1870.79
514.846	1903.34
515.052	1919.23
515.259	1928.72
515.465	1924.46
515.672	1939.57
515.878	2068.61
516.085	2000.21
516.291	2025.59
516.497	1949.06
516.704	1921.17
516.91	1888.81
517.117	1803.56
517.323	1737.49
517.529	1753.57
517.736	1794.84
517.942	1810.34
518.148	1824.87
518.354	1880.09
518.561	1917.29
518.767	1892.3
518.973	1941.51
519.179	1933.18
519.386	1891.91
519.592	1902.95
519.798	1946.74
520.004	2039.74
520.21	2020.36
520.417	2073.64
520.623	2121.11
520.829	2142.62
521.035	2098.64
521.241	2074.03
521.447	2139.13
521.653	2218.37
521.859	2101.93
522.065	2161.22
522.271	2297.81
522.477	2206.94
522.683	2305.37
522.889	2194.16
523.095	2210.82
523.301	2195.32
523.507	2129.25
523.713	2205.39
523.919	2139.52
524.125	2276.5
524.331	2272.43
524.537	2363.3
524.742	2324.74
524.948	2344.7
525.154	2341.4
525.36	2477.61
525.566	2345.08
525.772	2403.21
525.977	2310.4
526.183	2358.84
526.389	2366.98
526.595	2292.58
526.8	2271.65
527.006	2199.58
527.212	2128.28
527.417	2114.91
527.623	2107.74
527.829	2205.78
528.034	2235.81
528.24	2253.05
528.446	2263.52
528.651	2361.94
528.857	2389.84
529.062	2466.37
529.268	2474.12
529.473	2425.3
529.679	2484.19
529.884	2546.19
530.09	2520.43
530.295	2546.19
530.501	2524.11
530.706	2489.62
530.912	2450.87
531.117	2516.55
531.323	2484
531.528	2623.11
531.733	2599.86
531.939	2556.66
532.144	2597.54
532.35	2513.06
532.555	2567.7
532.76	2563.82
532.966	2534.76
533.171	2530.69
533.376	2471.6
533.581	2432.66
533.787	2487.29
533.992	2591.92
534.197	2559.56
534.402	2573.12
534.607	2581.84
534.813	2592.11
535.018	2521.59
535.223	2567.51
535.428	2566.54
535.633	2676
535.838	2659.34
536.043	2667.09
536.249	2768.42
536.454	2672.9
536.659	2666.12
536.864	2647.14
537.069	2628.34
537.274	2617.69
537.479	2625.82
537.684	2629.12
537.889	2586.69
538.094	2725.22
538.299	2629.31
538.504	2679.1
538.708	2676
538.913	2703.13
539.118	2672.71
539.323	2681.62
539.528	2659.15
539.733	2649.07
539.938	2696.35
540.142	2653.92
540.347	2665.74
540.552	2581.07
540.757	2598.89
540.962	2610.32
541.166	2554.33
541.371	2546.78
541.576	2566.15
541.781	2526.63
541.985	2625.44
542.19	2638.22
542.395	2762.22
542.599	2733.74
542.804	2666.7
543.008	2748.08
543.213	2689.76
543.418	2641.13
543.622	2730.64
543.827	2596.96
544.031	2749.24
544.236	2751.37
544.44	2736.65
544.645	2806.2
544.849	2722.7
545.054	2727.54
545.258	2800.2
545.463	2779.66
545.667	2697.12
545.872	2783.34
546.076	2777.33
546.281	2757.77
546.485	2731.22
546.689	2809.88
546.894	2802.13
547.098	2808.92
547.302	2698.48
547.507	2750.79
547.711	2782.95
547.915	2785.08
548.119	2690.15
548.324	2715.53
548.528	2773.85
548.732	2747.3
548.936	2790.7
549.141	2796.71
549.345	2785.08
549.549	2805.04
549.753	2795.74
549.957	2896.68
550.161	2871.3
550.366	2817.44
550.57	2765.32
550.774	2788.77
550.978	2787.22
551.182	2792.83
551.386	2758.54
551.59	2794.19
551.794	2772.49
551.998	2804.27
552.202	2729.67
552.406	2762.8
552.61	2825.19
552.814	2800.58
553.018	2837.4
553.222	2780.63
553.426	2781.6
553.63	2857.93
553.833	2765.13
554.037	2712.24
554.241	2758.93
554.445	2802.13
554.649	2773.07
554.853	2752.92
555.056	2864.52
555.26	2871.11
555.464	2784.7
555.668	2792.83
555.871	2826.55
556.075	2873.05
556.279	2769.78
556.483	2725.41
556.686	2771.33
556.89	2763.38
557.094	2789.35
557.297	2695.96
557.501	2748.08
557.704	2666.51
557.908	2794.77
558.112	2725.8
558.315	2795.93
558.519	2740.13
558.722	2696.54
558.926	2700.03
559.129	2594.82
559.333	2600.83
559.536	2594.44
559.74	2586.3
559.943	2584.75
560.147	2561.5
560.35	2635.9
560.553	2634.74
560.757	2558.59
560.96	2714.17
561.164	2639.19
561.367	2727.15
561.57	2689.76
561.774	2654.3
561.977	2626.41
562.18	2610.32
562.384	2721.15
562.587	2576.03
562.79	2632.8
562.993	2626.99
563.197	2660.12
563.4	2664.38
563.603	2682.4
563.806	2731.22
564.009	2618.66
564.212	2652.56
564.416	2577.58
564.619	2626.99
564.822	2551.42
565.025	2604.9
565.228	2593.86
565.431	2604.9
565.634	2499.31
565.837	2556.85
566.04	2533.21
566.243	2496.79
566.446	2413.48
566.649	2534.38
566.852	2447.38
567.055	2495.63
567.258	2516.16
567.461	2586.3
567.664	2587.07
567.867	2504.34
568.07	2521.2
568.273	2486.13
568.475	2582.81
568.678	2487.49
568.881	2443.12
569.084	2451.26
569.287	2338.3
569.489	2407.86
569.692	2481.87
569.895	2474.7
570.098	2380.35
570.3	2357.1
570.503	2281.73
570.706	2361.36
570.909	2344.89
571.111	2279.02
571.314	2303.23
571.516	2324.35
571.719	2304.2
571.922	2279.6
572.124	2293.35
572.327	2352.83
572.529	2257.32
572.732	2348.96
572.935	2328.81
573.137	2420.45
573.34	2288.32
573.542	2356.32
573.745	2357.29
573.947	2338.3
574.15	2354.19
574.352	2310.79
574.554	2368.92
574.757	2281.34
574.959	2260.8
575.162	2256.93
575.364	2236.59
575.566	2394.88
575.769	2240.27
575.971	2260.03
576.173	2146.49
576.376	2203.45
576.578	2298.78
576.78	2296.65
576.982	2168
577.185	2220.31
577.387	2176.33
577.589	2153.47
577.791	2245.5
577.993	2243.75
578.196	2165.09
578.398	2234.84
578.6	2276.5
578.802	2158.51
579.004	2143.39
579.206	2160.44
579.408	2194.54
579.61	2155.79
579.812	2199
580.014	2117.43
580.216	2168.19
580.418	2172.26
580.62	2163.16
580.822	2103.87
581.024	2146.11
581.226	2222.25
581.428	2162.96
581.63	2254.02
581.832	2155.6
582.034	2197.45
582.236	2158.51
582.438	2201.9
582.64	2216.24
582.841	2258.29
583.043	2281.92
583.245	2177.49
583.447	2180.98
583.649	2143.59
583.85	2210.43
584.052	2244.53
584.254	2132.74
584.456	2228.64
584.657	2121.31
584.859	2190.67
585.061	2165.87
585.262	2130.99
585.464	2081.2
585.666	2150.95
585.867	2127.7
586.069	2164.12
586.27	2122.08
586.472	2117.04
586.674	2090.11
586.875	2075
587.077	2073.45
587.278	2107.55
587.48	2097.86
587.681	2193.77
587.883	2133.9
588.084	2048.07
588.285	2084.88
588.487	2041.09
588.688	2046.13
588.89	1976
589.091	1941.9
589.292	1973.48
589.494	1895.01
589.695	1856.26
589.896	1778.95
590.098	1807.63
590.299	1804.53
590.5	1805.11
590.702	1852.58
590.903	1915.74
591.104	1972.51
591.305	1988.59
591.507	2035.09
591.708	1989.95
591.909	1969.8
592.11	2052.53
592.311	2006.61
592.512	1951.78
592.714	1904.7
592.915	1937.44
593.116	1941.9
593.317	1948.1
593.518	1940.73
593.719	1960.3
593.92	1985.68
594.121	2032.18
594.322	1974.45
594.523	1984.33
594.724	1896.37
594.925	1942.09
595.126	1914.38
595.327	1942.67
595.528	1953.52
595.729	1965.92
595.929	1933.76
596.13	1966.7
596.331	1999.83
596.532	2000.41
596.733	1982.97
596.934	2011.84
597.135	1978.9
597.335	1985.49
597.536	1951.39
597.737	1975.61
597.938	1931.24
598.138	1996.34
598.339	1947.32
598.54	1959.33
598.74	1946.35
598.941	1970.38
599.142	1974.25
599.342	1943.25
599.543	1882.03
599.744	1912.25
599.944	1906.05
600.145	1946.16
600.345	1939.96
600.546	2003.9
600.746	1983.55
600.947	1989.95
601.147	1910.51
601.348	1958.56
601.548	1891.33
601.749	1919.23
601.949	1855.87
602.15	1897.53
602.35	1927.95
602.551	1951.2
602.751	1852
602.951	1902.95
603.152	1842.7
603.352	1885.52
603.552	1885.13
603.753	1943.45
603.953	1962.82
604.153	1910.9
604.354	1917.1
604.554	1895.2
604.754	1911.48
604.954	1839.02
605.155	1940.93
605.355	1904.7
605.555	1941.9
605.755	1980.45
605.955	1925.43
606.155	1942.48
606.356	1922.52
606.556	1945.77
606.756	1910.32
606.956	1871.76
607.156	1981.61
607.356	1875.83
607.556	1915.16
607.756	1915.35
607.956	1934.92
608.156	1938.41
608.356	1842.5
608.556	1922.33
608.756	1892.68
608.956	1839.4
609.156	1860.72
609.356	1819.64
609.556	1817.9
609.755	1855.68
609.955	1793.29
610.155	1841.92
610.355	1835.14
610.555	1797.17
610.755	1845.22
610.954	1782.05
611.154	1840.76
611.354	1862.85
611.554	1782.83
611.753	1778.76
611.953	1715.21
612.153	1854.71
612.352	1812.67
612.552	1738.07
612.752	1681.11
612.951	1744.08
613.151	1776.44
613.351	1729.94
613.55	1776.82
613.75	1793.29
613.949	1742.53
614.149	1772.17
614.348	1776.05
614.548	1709.79
614.747	1672.59
614.947	1709.79
