Data from gum_old_FLMT105791__61__15-43-49-257.txt Node

Date: Mon Mar 20 15:43:49 GMT 2023
User: antho
Spectrometer: FLMT10579
Trigger mode: 0
Integration Time (sec): 1.000000E-1
Scans to average: 10
Electric dark correction enabled: true
Nonlinearity correction enabled: false
Boxcar width: 0
XAxis mode: Wavelengths
Number of Pixels in Spectrum: 3648
>>>>>Begin Spectral Data<<<<<
345.248	-173.19
345.464	-173.19
345.681	-173.19
345.898	-180.17
346.114	-160.41
346.331	-32.92
346.548	24.82
346.764	3.12
346.981	-29.43
347.197	-33.5
347.414	12.42
347.631	-12.96
347.847	74.42
348.064	2.73
348.28	39.54
348.497	-56.17
348.713	7.96
348.93	7.38
349.146	19.2
349.363	11.25
349.579	33.15
349.796	-23.81
350.012	-7.93
350.229	32.57
350.445	14.16
350.661	3.7
350.878	17.45
351.094	44.77
351.311	30.43
351.527	24.23
351.743	-16.45
351.96	47.29
352.176	46.71
352.392	41.87
352.609	51.94
352.825	-1.73
353.041	18.23
353.257	0.98
353.474	13.58
353.69	25.4
353.906	15.52
354.122	-20.52
354.339	64.34
354.555	-7.93
354.771	2.73
354.987	77.9
355.203	73.83
355.42	17.26
355.636	-5.6
355.852	28.5
356.068	32.37
356.284	-20.13
356.5	87.4
356.716	41.48
356.932	30.43
357.148	78.29
357.364	32.37
357.58	52.91
357.796	67.63
358.012	48.84
358.228	64.34
358.444	-64.31
358.66	69.77
358.876	25.01
359.092	-4.25
359.308	63.18
359.524	52.91
359.74	12.61
359.956	22.68
360.172	60.47
360.388	64.34
360.604	30.05
360.819	104.06
361.035	27.92
361.251	49.81
361.467	-24.78
361.683	43.42
361.898	65.89
362.114	90.69
362.33	48.26
362.546	55.43
362.762	31.79
362.977	41.48
363.193	-3.47
363.409	75.77
363.624	-3.08
363.84	34.7
364.056	30.05
364.271	49.81
364.487	45.74
364.703	10.48
364.918	9.32
365.134	51.94
365.35	32.37
365.565	135.25
365.781	60.27
365.996	84.3
366.212	118.2
366.427	72.28
366.643	20.17
366.858	50.97
367.074	2.34
367.289	76.55
367.505	161.02
367.72	13.97
367.936	25.01
368.151	84.88
368.367	57.56
368.582	52.33
368.798	38.57
369.013	102.7
369.228	44.58
369.444	73.64
369.659	106.96
369.874	78.48
370.09	99.99
370.305	-2.89
370.52	38.38
370.736	107.55
370.951	68.02
371.166	83.91
371.381	118.2
371.597	102.31
371.812	31.4
372.027	34.12
372.242	59.88
372.458	138.16
372.673	59.5
372.888	51.55
373.103	75.58
373.318	145.71
373.533	74.42
373.749	45.74
373.964	4.47
374.179	86.04
374.394	42.45
374.609	104.25
374.824	0.6
375.039	92.63
375.254	26.37
375.469	139.51
375.684	62.98
375.899	105.8
376.114	67.05
376.329	68.22
376.544	113.16
376.759	91.66
376.974	40.32
377.189	36.83
377.404	53.88
377.619	95.34
377.834	0.02
378.049	44.58
378.264	52.91
378.478	63.76
378.693	46.13
378.908	114.13
379.123	74.8
379.338	112.78
379.553	108.51
379.767	94.18
379.982	103.28
380.197	104.25
380.412	87.2
380.626	97.47
380.841	161.8
381.056	110.84
381.271	140.1
381.485	63.18
381.7	65.7
381.915	86.23
382.129	74.8
382.344	93.98
382.559	70.73
382.773	116.85
382.988	8.15
383.202	66.67
383.417	41.28
383.632	154.43
383.846	72.09
384.061	75
384.275	45.74
384.49	80.03
384.704	83.33
384.919	85.07
385.133	99.41
385.348	118.78
385.562	37.99
385.777	139.32
385.991	120.33
386.206	68.99
386.42	49.23
386.634	144.75
386.849	96.7
387.063	131.57
387.277	75.77
387.492	87.2
387.706	54.27
387.92	70.93
388.135	145.52
388.349	126.34
388.563	99.41
388.778	118.4
388.992	128.66
389.206	124.79
389.42	168.96
389.635	88.36
389.849	140.48
390.063	164.31
390.277	103.48
390.491	169.54
390.706	135.45
390.92	149.78
391.134	115.49
391.348	147.85
391.562	98.44
391.776	126.73
391.99	105.61
392.205	168.96
392.419	88.75
392.633	127.89
392.847	163.15
393.061	78.87
393.275	187.95
393.489	114.52
393.703	102.9
393.917	124.79
394.131	65.5
394.345	99.41
394.559	136.03
394.773	133.12
394.986	162.96
395.2	141.65
395.414	155.01
395.628	130.99
395.842	199.19
396.056	164.9
396.27	90.3
396.484	160.25
396.697	162.57
396.911	172.64
397.125	140.87
397.339	147.26
397.553	117.62
397.766	175.16
397.98	182.72
398.194	200.35
398.408	135.06
398.621	204.42
398.835	219.34
399.049	190.47
399.262	274.17
399.476	241.04
399.69	258.28
399.903	258.86
400.117	197.64
400.331	258.86
400.544	188.73
400.758	344.5
400.971	238.52
401.185	265.84
401.398	202.48
401.612	279.01
401.826	248.59
402.039	270.1
402.253	247.82
402.466	291.8
402.68	268.16
402.893	278.62
403.106	263.12
403.32	254.02
403.533	265.26
403.747	252.08
403.96	246.27
404.174	263.32
404.387	226.12
404.6	265.06
404.814	298.58
405.027	278.62
405.24	240.84
405.454	250.92
405.667	312.72
405.88	220.31
406.094	292.96
406.307	292.19
406.52	279.4
406.733	254.99
406.947	218.18
407.16	311.95
407.373	311.37
407.586	260.41
407.799	252.47
408.012	313.5
408.226	301.49
408.439	339.46
408.652	244.33
408.865	300.52
409.078	344.3
409.291	333.26
409.504	278.43
409.717	323.57
409.93	334.81
410.143	305.94
410.357	254.41
410.57	230.77
410.783	271.65
410.996	297.81
411.209	267.39
411.421	352.83
411.634	304.39
411.847	302.84
412.06	331.71
412.273	341.59
412.486	337.91
412.699	440.98
412.912	342.37
413.125	367.75
413.338	354.57
413.55	355.74
413.763	332.1
413.976	371.24
414.189	319.12
414.402	335.2
414.615	411.34
414.827	332.29
415.04	366.59
415.253	380.54
415.466	377.05
415.678	420.64
415.891	347.21
416.104	358.84
416.316	345.08
416.529	343.34
416.742	397.2
416.954	423.74
417.167	367.75
417.38	389.64
417.592	422.58
417.805	351.67
418.017	310.59
418.23	396.81
418.442	359.42
418.655	356.32
418.868	373.17
419.08	408.63
419.293	399.91
419.505	387.32
419.718	372.98
419.93	398.75
420.142	361.55
420.355	411.15
420.567	421.8
420.78	361.74
420.992	383.44
421.205	440.79
421.417	344.69
421.629	378.02
421.842	366
422.054	342.56
422.266	431.88
422.479	405.72
422.691	408.63
422.903	415.8
423.115	369.1
423.328	382.28
423.54	408.63
423.752	376.08
423.964	371.24
424.177	408.05
424.389	414.05
424.601	512.09
424.813	424.71
425.025	443.7
425.238	434.01
425.45	393.32
425.662	415.41
425.874	702.74
426.086	395.45
426.298	431.1
426.51	411.73
426.722	401.46
426.934	401.65
427.146	426.65
427.358	381.31
427.57	470.05
427.782	379.37
427.994	383.44
428.206	399.52
428.418	374.53
428.63	446.02
428.842	455.71
429.054	417.15
429.266	460.75
429.478	408.24
429.69	397.59
429.902	360.77
430.114	426.84
430.325	416.77
430.537	356.12
430.749	326.67
430.961	259.64
431.173	347.4
431.384	367.75
431.596	256.34
431.808	345.66
432.02	421.8
432.231	460.75
432.443	515.97
432.655	473.92
432.867	470.63
433.078	494.46
433.29	521.97
433.502	483.8
433.713	543.09
433.925	518.68
434.136	547.16
434.348	442.15
434.56	391.97
434.771	540.38
434.983	419.29
435.194	460.55
435.406	492.13
435.617	545.22
435.829	557.62
436.04	546.96
436.252	515.77
436.463	568.08
436.675	575.45
436.886	568.08
437.098	564.21
437.309	620.01
437.521	556.85
437.732	529.33
437.943	556.26
438.155	535.34
438.366	475.86
438.578	598.7
438.789	531.66
439	543.28
439.211	513.25
439.423	518.48
439.634	544.64
439.845	582.23
440.057	575.06
440.268	600.44
440.479	552.58
440.69	583.58
440.902	552
441.113	545.8
441.324	565.76
441.535	627.95
441.746	651.2
441.957	578.74
442.168	620.59
442.38	621.75
442.591	661.08
442.802	591.72
443.013	611.29
443.224	623.11
443.435	623.49
443.646	638.41
443.857	625.04
444.068	584.55
444.279	592.11
444.49	738.39
444.701	644.23
444.912	745.75
445.123	676.97
445.334	657.01
445.545	668.64
445.756	632.02
445.967	596.95
446.178	642.29
446.388	669.03
446.599	655.27
446.81	681.04
447.021	611.68
447.232	664.57
447.443	685.88
447.653	637.25
447.864	663.99
448.075	683.36
448.286	688.01
448.496	639.96
448.707	695.96
448.918	642.48
449.129	768.42
449.339	620.59
449.55	720.37
449.761	679.68
449.971	712.81
450.182	672.51
450.393	723.27
450.603	680.26
450.814	736.45
451.024	725.79
451.235	790.5
451.446	793.41
451.656	772.1
451.867	735.29
452.077	718.82
452.288	792.64
452.498	767.26
452.709	725.41
452.919	732.57
453.13	697.31
453.34	747.88
453.55	647.13
453.761	732.38
453.971	716.11
454.182	727.54
454.392	742.65
454.602	802.71
454.813	735.48
455.023	781.59
455.233	670.58
455.444	758.92
455.654	639.77
455.864	711.46
456.075	711.65
456.285	706.81
456.495	710.68
456.705	755.24
456.916	787.21
457.126	824.22
457.336	761.64
457.546	704.29
457.756	729.67
457.967	796.51
458.177	738.97
458.387	761.44
458.597	719.01
458.807	737.03
459.017	695.96
459.227	714.17
459.437	736.26
459.647	781.2
459.857	779.46
460.068	746.33
460.278	799.61
460.488	768.03
460.698	792.25
460.908	762.8
461.117	721.72
461.327	769.19
461.537	769.58
461.747	810.85
461.957	786.63
462.167	918.57
462.377	863.94
462.587	785.66
462.797	844.75
463.007	825.96
463.216	868.2
463.426	894.16
463.636	858.9
463.846	773.46
464.056	802.32
464.265	831
464.475	795.15
464.685	848.44
464.895	809.1
465.104	772.68
465.314	848.24
465.524	801.55
465.733	786.63
465.943	874.2
466.153	887.38
466.362	889.9
466.572	863.55
466.782	847.85
466.991	872.46
467.201	886.6
467.41	764.93
467.62	826.35
467.829	847.66
468.039	861.42
468.249	867.81
468.458	885.44
468.668	871.3
468.877	871.68
469.086	949.18
469.296	925.16
469.505	883.12
469.715	982.12
469.924	917.22
470.134	950.93
470.343	937.56
470.552	876.72
470.762	892.03
470.971	886.6
471.18	916.44
471.39	901.91
471.599	871.3
471.808	942.02
472.018	905.78
472.227	989.1
472.436	1045.09
472.645	955.38
472.855	910.05
473.064	1061.75
473.273	1015.25
473.482	991.81
473.691	1024.16
473.901	1012.73
474.11	975.73
474.319	1103.41
474.528	989.29
474.737	1069.31
474.946	1041.79
475.155	1036.95
475.364	1105.34
475.573	1069.5
475.783	1086.16
475.992	1071.05
476.201	1113.29
476.41	1066.98
476.619	1027.85
476.828	1068.92
477.037	1049.54
477.245	1080.16
477.454	1121.62
477.663	1097.59
477.872	1115.61
478.081	1221.98
478.29	1151.84
478.499	1238.84
478.708	1174.51
478.917	1247.36
479.125	1157.07
479.334	1182.26
479.543	1150.68
479.752	1215.39
479.961	1213.84
480.169	1264.41
480.378	1230.12
480.587	1365.55
480.796	1233.99
481.004	1247.36
481.213	1265.19
481.422	1257.44
481.63	1274.29
481.839	1303.35
482.048	1338.62
482.256	1281.65
482.465	1346.17
482.674	1337.45
482.882	1335.13
483.091	1379.69
483.299	1343.85
483.508	1372.52
483.716	1334.35
483.925	1374.27
484.134	1309.36
484.342	1360.9
484.551	1370.97
484.759	1351.98
484.967	1405.65
485.176	1425.22
485.384	1441.88
485.593	1382.98
485.801	1426.96
486.01	1331.83
486.218	1278.75
486.426	1209.39
486.635	1199.7
486.843	1173.93
487.051	1217.52
487.26	1224.3
487.468	1281.27
487.676	1339.2
487.885	1337.65
488.093	1375.62
488.301	1396.35
488.509	1438.4
488.717	1461.84
488.926	1438.01
489.134	1393.83
489.342	1417.66
489.55	1408.95
489.758	1459.51
489.967	1436.26
490.175	1545.73
490.383	1502.72
490.591	1603.66
490.799	1490.9
491.007	1599.21
491.215	1554.84
491.423	1515.51
491.631	1530.81
491.839	1495.36
492.047	1528.88
492.255	1479.66
492.463	1451.96
492.671	1464.75
492.879	1548.06
493.087	1505.24
493.295	1555.03
493.503	1591.07
493.711	1611.41
493.919	1633.11
494.127	1609.09
494.334	1602.31
494.542	1519.58
494.75	1593.59
494.958	1555.81
495.166	1660.62
495.374	1627.11
495.581	1655.2
495.789	1635.05
495.997	1683.29
496.205	1576.34
496.412	1601.53
496.62	1614.32
496.828	1628.85
497.035	1623.42
497.243	1684.07
497.451	1661.59
497.658	1706.54
497.866	1652.49
498.074	1746.26
498.281	1620.71
498.489	1724.75
498.696	1675.93
498.904	1594.56
499.112	1596.3
499.319	1732.31
499.527	1648.61
499.734	1739.67
499.942	1615.48
500.149	1673.22
500.357	1695.89
500.564	1619.55
500.771	1709.25
500.979	1657.33
501.186	1588.94
501.394	1661.98
501.601	1617.03
501.808	1664.89
502.016	1632.14
502.223	1639.89
502.43	1643.38
502.638	1631.37
502.845	1619.36
503.052	1733.67
503.26	1668.18
503.467	1760.02
503.674	1722.82
503.881	1722.82
504.089	1778.23
504.296	1748.58
504.503	1647.26
504.71	1677.87
504.917	1638.54
505.125	1704.99
505.332	1694.34
505.539	1742.58
505.746	1782.68
505.953	1789.66
506.16	1777.26
506.367	1850.88
506.574	1854.37
506.781	1843.52
506.988	1772.8
507.195	1793.15
507.402	1775.71
507.609	1822.98
507.816	1773.38
508.023	1776.1
508.23	1733.47
508.437	1711.77
508.644	1756.72
508.851	1860.76
509.058	1811.36
509.265	1815.23
509.472	1816.01
509.679	1880.72
509.885	1826.67
510.092	1820.47
510.299	1839.45
510.506	1825.7
510.713	1822.02
510.92	1792.76
511.126	1813.3
511.333	1848.56
511.54	1861.93
511.746	1891.57
511.953	1898.16
512.16	1922.38
512.367	1881.11
512.573	1835.77
512.78	1887.7
512.987	1847.78
513.193	1841.2
513.4	1743.35
513.606	1824.92
513.813	1832.67
514.02	1812.72
514.226	1929.54
514.433	1894.48
514.639	1754.2
514.846	1853.4
515.052	1794.5
515.259	1854.37
515.465	1873.55
515.672	1855.92
515.878	1923.15
516.085	1885.18
516.291	1894.28
516.497	1831.51
516.704	1848.56
516.91	1811.36
517.117	1736.96
517.323	1659.65
517.529	1660.62
517.736	1693.95
517.942	1661.59
518.148	1723.01
518.354	1743.16
518.561	1755.17
518.767	1766.41
518.973	1791.4
519.179	1810.2
519.386	1785.2
519.592	1781.52
519.798	1781.72
520.004	1898.55
520.21	1836.74
520.417	1946.01
520.623	1983.41
520.829	1951.24
521.035	1972.36
521.241	1919.28
521.447	1954.34
521.653	2070.98
521.859	1967.71
522.065	1997.74
522.271	2052.38
522.477	2045.79
522.683	2096.55
522.889	2024.87
523.095	2026.22
523.301	2026.03
523.507	1965
523.713	2022.54
523.919	1977.79
524.125	2065.75
524.331	2039.4
524.537	2158.75
524.742	2101.4
524.948	2142.28
525.154	2126.39
525.36	2235.47
525.566	2142.67
525.772	2214.93
525.977	2112.83
526.183	2186.65
526.389	2198.08
526.595	2097.33
526.8	2134.53
527.006	2028.55
527.212	1912.5
527.417	1939.23
527.623	1964.61
527.829	2016.73
528.034	2029.32
528.24	2078.54
528.446	2072.34
528.651	2192.65
528.857	2169.6
529.062	2260.08
529.268	2208.54
529.473	2262.6
529.679	2238.18
529.884	2322.08
530.09	2291.85
530.295	2321.88
530.501	2271.9
530.706	2279.65
530.912	2221.91
531.117	2259.69
531.323	2284.3
531.528	2318.4
531.733	2360.05
531.939	2306.58
532.144	2348.43
532.35	2318.59
532.555	2343.2
532.76	2313.94
532.966	2332.35
533.171	2275
533.376	2218.62
533.581	2190.52
533.787	2236.05
533.992	2325.95
534.197	2291.66
534.402	2331.76
534.607	2304.45
534.813	2415.85
535.018	2286.62
535.223	2331.96
535.428	2317.43
535.633	2397.06
535.838	2401.13
536.043	2429.03
536.249	2493.74
536.454	2420.69
536.659	2498.58
536.864	2411.98
537.069	2391.24
537.274	2389.11
537.479	2368.77
537.684	2364.31
537.889	2360.83
538.094	2464.67
538.299	2365.28
538.504	2400.35
538.708	2424.38
538.913	2458.86
539.118	2428.06
539.323	2424.96
539.528	2411.01
539.733	2356.56
539.938	2415.46
540.142	2382.53
540.347	2375.36
540.552	2377.88
540.757	2376.13
540.962	2355.59
541.166	2287.4
541.371	2260.47
541.576	2331.38
541.781	2277.32
541.985	2408.29
542.19	2343.58
542.395	2438.33
542.599	2495.09
542.804	2443.56
543.008	2494.12
543.213	2416.63
543.418	2394.73
543.622	2450.14
543.827	2390.47
544.031	2469.13
544.236	2476.88
544.44	2473.39
544.645	2498.19
544.849	2438.52
545.054	2483.66
545.258	2561.35
545.463	2555.35
545.667	2420.31
545.872	2496.26
546.076	2509.82
546.281	2482.11
546.485	2444.33
546.689	2484.24
546.894	2515.24
547.098	2522.02
547.302	2428.64
547.507	2498
547.711	2491.61
547.915	2515.82
548.119	2445.88
548.324	2442.01
548.528	2526.67
548.732	2456.54
548.936	2513.89
549.141	2516.99
549.345	2460.8
549.549	2483.86
549.753	2484.82
549.957	2540.82
550.161	2584.6
550.366	2499.16
550.57	2456.73
550.774	2487.73
550.978	2474.75
551.182	2491.02
551.386	2471.07
551.59	2479.98
551.794	2475.33
551.998	2510.98
552.202	2486.57
552.406	2450.34
552.61	2509.82
552.814	2503.81
553.018	2553.8
553.222	2477.66
553.426	2461.77
553.63	2582.47
553.833	2452.66
554.037	2407.91
554.241	2472.04
554.445	2487.73
554.649	2482.89
554.853	2449.56
555.056	2527.84
555.26	2536.36
555.464	2550.31
555.668	2519.12
555.871	2550.7
556.075	2551.28
556.279	2453.63
556.483	2459.25
556.686	2451.89
556.89	2468.74
557.094	2464.29
557.297	2369.16
557.501	2457.31
557.704	2346.88
557.908	2443.17
558.112	2383.69
558.315	2447.04
558.519	2422.44
558.722	2418.95
558.926	2393.96
559.129	2320.72
559.333	2337.96
559.536	2301.35
559.74	2306.96
559.943	2299.6
560.147	2302.51
560.35	2297.66
560.553	2337.77
560.757	2267.05
560.96	2354.24
561.164	2310.26
561.367	2422.83
561.57	2344.55
561.774	2347.85
561.977	2344.75
562.18	2297.66
562.384	2419.34
562.587	2311.61
562.79	2301.73
562.993	2304.06
563.197	2357.34
563.4	2375.94
563.603	2390.86
563.806	2409.65
564.009	2300.38
564.212	2338.93
564.416	2254.65
564.619	2320.91
564.822	2232.95
565.025	2370.71
565.228	2332.35
565.431	2296.89
565.634	2223.65
565.837	2213.58
566.04	2241.87
566.243	2243.42
566.446	2147.51
566.649	2252.72
566.852	2145.57
567.055	2202.92
567.258	2229.66
567.461	2304.06
567.664	2276.74
567.867	2204.08
568.07	2203.89
568.273	2277.13
568.475	2274.03
568.678	2218.62
568.881	2229.08
569.084	2191.88
569.287	2052.57
569.489	2153.32
569.692	2180.45
569.895	2174.05
570.098	2168.44
570.3	2101.4
570.503	2047.73
570.706	2084.54
570.909	2044.82
571.111	2043.47
571.314	2047.92
571.516	2055.09
571.719	2057.61
571.922	2035.33
572.124	2023.51
572.327	2045.41
572.529	1982.44
572.732	2063.23
572.935	2082.41
573.137	2154.29
573.34	2061.68
573.542	2062.46
573.745	2073.11
573.947	2096.36
574.15	2082.41
574.352	2020.41
574.554	2108.95
574.757	2007.04
574.959	2025.26
575.162	2013.05
575.364	1985.34
575.566	2103.92
575.769	1993.68
575.971	2009.17
576.173	1883.24
576.376	1990.96
576.578	2030.49
576.78	2067.69
576.982	1924.7
577.185	2002.2
577.387	1930.9
577.589	1957.64
577.791	2002.78
577.993	2016.54
578.196	1975.46
578.398	1980.11
578.6	1975.08
578.802	1890.41
579.004	1889.05
579.206	1921.21
579.408	1919.28
579.61	1906.88
579.812	1965.97
580.014	1887.7
580.216	1905.13
580.418	1923.54
580.62	1912.3
580.822	1854.37
581.024	1919.08
581.226	1951.63
581.428	1893.51
581.63	2041.53
581.832	1907.07
582.034	1969.46
582.236	1917.34
582.438	1938.07
582.64	1964.81
582.841	1988.64
583.043	2020.99
583.245	1953.76
583.447	1961.32
583.649	1922.57
583.85	1947.18
584.052	1977.59
584.254	1863.86
584.456	1977.4
584.657	1875.88
584.859	1920.83
585.061	1889.05
585.262	1909.01
585.464	1857.66
585.666	1925.09
585.867	1871.42
586.069	1914.05
586.27	1883.82
586.472	1885.76
586.674	1875.49
586.875	1877.23
587.077	1865.22
587.278	1881.88
587.48	1827.25
587.681	1966.55
587.883	1867.74
588.084	1813.68
588.285	1782.68
588.487	1835
588.688	1868.51
588.89	1731.54
589.091	1746.45
589.292	1688.52
589.494	1702.09
589.695	1635.24
589.896	1580.41
590.098	1590.87
590.299	1647.45
590.5	1653.84
590.702	1683.29
590.903	1694.72
591.104	1748.78
591.305	1735.8
591.507	1779.97
591.708	1758.47
591.909	1740.83
592.11	1789.47
592.311	1774.74
592.512	1717.59
592.714	1694.14
592.915	1713.13
593.116	1722.82
593.317	1742
593.518	1766.99
593.719	1741.03
593.92	1754.78
594.121	1830.73
594.322	1741.22
594.523	1735.02
594.724	1675.93
594.925	1714.68
595.126	1734.44
595.327	1753.62
595.528	1728.05
595.729	1729.79
595.929	1710.22
596.13	1724.56
596.331	1746.65
596.532	1762.34
596.733	1796.25
596.934	1804.77
597.135	1753.23
597.335	1800.51
597.536	1740.64
597.737	1751.49
597.938	1709.06
598.138	1765.63
598.339	1719.91
598.54	1747.62
598.74	1699.95
598.941	1736.19
599.142	1788.69
599.342	1734.83
599.543	1725.53
599.744	1714.29
599.944	1683.29
600.145	1723.79
600.345	1733.86
600.546	1769.9
600.746	1765.83
600.947	1799.54
601.147	1698.6
601.348	1745.1
601.548	1676.7
601.749	1705.57
601.949	1671.67
602.15	1704.22
602.35	1677.67
602.551	1713.52
602.751	1682.52
602.951	1687.55
603.152	1661.59
603.352	1762.53
603.552	1656.36
603.753	1753.23
603.953	1703.83
604.153	1743.55
604.354	1690.46
604.554	1681.74
604.754	1699.57
604.954	1661.59
605.155	1710.03
605.355	1663.14
605.555	1722.24
605.755	1727.85
605.955	1708.67
606.155	1738.12
606.356	1681.74
606.556	1736.96
606.756	1743.55
606.956	1642.8
607.156	1759.82
607.356	1653.07
607.556	1682.71
607.756	1689.49
607.956	1737.54
608.156	1708.09
608.356	1614.32
608.556	1695.5
608.756	1662.56
608.956	1638.54
609.156	1668.95
609.356	1617.03
609.556	1576.54
609.755	1632.34
609.955	1627.11
610.155	1626.52
610.355	1667.4
610.555	1614.51
610.755	1627.69
610.954	1580.02
611.154	1609.86
611.354	1654.62
611.554	1564.91
611.753	1625.94
611.953	1542.83
612.153	1634.47
612.352	1618.39
612.552	1541.47
612.752	1520.35
612.951	1591.07
613.151	1549.22
613.351	1524.81
613.55	1555.81
613.75	1568.98
613.949	1572.66
614.149	1551.16
614.348	1559.49
