Data from gum_old_FLMT105791__133__15-46-22-252.txt Node

Date: Mon Mar 20 15:46:22 GMT 2023
User: antho
Spectrometer: FLMT10579
Trigger mode: 0
Integration Time (sec): 1.000000E-1
Scans to average: 10
Electric dark correction enabled: true
Nonlinearity correction enabled: false
Boxcar width: 0
XAxis mode: Wavelengths
Number of Pixels in Spectrum: 3648
>>>>>Begin Spectral Data<<<<<
345.248	-167.28
345.464	-167.28
345.681	-167.28
345.898	-203.52
346.114	-171.35
346.331	-40.96
346.548	30.34
346.764	-12.67
346.981	-20.81
347.197	1.47
347.414	20.65
347.631	-28.17
347.847	69.28
348.064	13.68
348.28	27.04
348.497	-55.88
348.713	-3.96
348.93	21.23
349.146	42.93
349.363	2.83
349.579	54.56
349.796	18.52
350.012	-4.15
350.229	31.11
350.445	13.87
350.661	-12.48
350.878	10.77
351.094	-5.12
351.311	21.04
351.527	32.28
351.743	-4.34
351.96	43.9
352.176	45.26
352.392	50.29
352.609	40.99
352.825	1.47
353.041	27.24
353.257	-5.89
353.474	13.68
353.69	21.23
353.906	34.41
354.122	-4.15
354.339	77.81
354.555	25.88
354.771	-2.41
354.987	78
355.203	64.24
355.42	19.88
355.636	-5.7
355.852	2.63
356.068	0.5
356.284	-26.24
356.5	40.99
356.716	58.04
356.932	28.4
357.148	48.36
357.364	23.75
357.58	73.54
357.796	76.45
358.012	52.62
358.228	38.47
358.444	-58.01
358.66	89.04
358.876	37.89
359.092	14.26
359.308	28.59
359.524	47.39
359.74	33.05
359.956	-20.62
360.172	12.13
360.388	69.67
360.604	3.02
360.819	132.05
361.035	21.23
361.251	74.32
361.467	10.96
361.683	103.77
361.898	40.22
362.114	51.26
362.33	22.98
362.546	82.26
362.762	35.38
362.977	27.24
363.193	7.28
363.409	85.94
363.624	1.66
363.84	12.51
364.056	16.58
364.271	45.45
364.487	52.81
364.703	42.16
364.918	-2.41
365.134	19.49
365.35	27.43
365.565	147.36
365.781	31.69
365.996	42.16
366.212	75.29
366.427	61.14
366.643	23.94
366.858	51.07
367.074	-1.82
367.289	91.17
367.505	135.15
367.72	6.51
367.936	36.15
368.151	60.17
368.367	56.49
368.582	49.71
368.798	34.02
369.013	87.11
369.228	40.22
369.444	39.83
369.659	100.86
369.874	78.19
370.09	113.46
370.305	-17.71
370.52	8.25
370.736	102.22
370.951	39.44
371.166	74.71
371.381	106.87
371.597	79.16
371.812	33.83
372.027	31.89
372.242	37.12
372.458	131.47
372.673	15.81
372.888	29.18
373.103	60.76
373.318	151.43
373.533	65.21
373.749	77.42
373.964	8.25
374.179	82.84
374.394	31.5
374.609	84.78
374.824	33.63
375.039	87.49
375.254	19.1
375.469	76.26
375.684	81.1
375.899	83.81
376.114	48.74
376.329	58.24
376.544	86.91
376.759	77.61
376.974	16.78
377.189	46.81
377.404	33.44
377.619	100.86
377.834	7.86
378.049	11.93
378.264	30.92
378.478	75.87
378.693	21.81
378.908	84.97
379.123	30.34
379.338	96.6
379.553	87.11
379.767	62.5
379.982	62.5
380.197	78.19
380.412	61.72
380.626	88.27
380.841	143.68
381.056	80.91
381.271	135.15
381.485	60.17
381.7	17.74
381.915	93.5
382.129	79.74
382.344	63.86
382.559	27.24
382.773	108.22
382.988	4.38
383.202	87.3
383.417	26.08
383.632	135.35
383.846	68.7
384.061	57.66
384.275	43.9
384.49	68.89
384.704	92.14
384.919	54.94
385.133	97.96
385.348	72.19
385.562	33.63
385.777	91.56
385.991	64.24
386.206	45.06
386.42	66.57
386.634	113.26
386.849	69.86
387.063	102.22
387.277	28.98
387.492	40.8
387.706	19.49
387.92	37.12
388.135	97.96
388.349	96.02
388.563	94.08
388.778	94.27
388.992	103.38
389.206	98.54
389.42	187.85
389.635	69.47
389.849	112.29
390.063	120.62
390.277	121.98
390.491	161.7
390.706	114.81
390.92	126.05
391.134	103.96
391.348	127.6
391.562	15.03
391.776	84.01
391.99	87.69
392.205	144.45
392.419	60.56
392.633	68.51
392.847	150.07
393.061	50.87
393.275	146.39
393.489	50.87
393.703	92.92
393.917	103.57
394.131	48.94
394.345	81.87
394.559	113.26
394.773	82.65
394.986	100.47
395.2	103.96
395.414	125.85
395.628	70.64
395.842	113.84
396.056	113.07
396.27	42.35
396.484	112.49
396.697	123.53
396.911	122.76
397.125	106.67
397.339	113.26
397.553	69.86
397.766	152.2
397.98	152.98
398.194	139.03
398.408	93.5
398.621	141.55
398.835	180.88
399.049	132.25
399.262	206.45
399.476	170.42
399.69	175.45
399.903	209.94
400.117	147.36
400.331	191.73
400.544	160.54
400.758	263.42
400.971	166.54
401.185	224.08
401.398	138.64
401.612	224.47
401.826	202.58
402.039	195.8
402.253	162.47
402.466	198.9
402.68	190.76
402.893	191.54
403.106	195.02
403.32	167.9
403.533	232.42
403.747	176.62
403.96	191.15
404.174	225.83
404.387	145.04
404.6	205.29
404.814	208.2
405.027	178.55
405.24	172.16
405.454	167.51
405.667	248.69
405.88	125.47
406.094	205.68
406.307	234.93
406.52	212.85
406.733	162.09
406.947	125.47
407.16	253.92
407.373	242.49
407.586	149.88
407.799	177.39
408.012	228.54
408.226	188.82
408.439	253.15
408.652	157.63
408.865	217.69
409.078	272.13
409.291	231.06
409.504	165.96
409.717	251.98
409.93	241.13
410.143	225.44
410.357	155.3
410.57	153.17
410.783	193.86
410.996	244.62
411.209	214.4
411.421	253.15
411.634	213.62
411.847	213.43
412.06	245.01
412.273	245.2
412.486	250.82
412.699	322.7
412.912	251.21
413.125	251.6
413.338	229.7
413.55	259.35
413.763	233.58
413.976	279.88
414.189	213.62
414.402	209.55
414.615	299.84
414.827	199.67
415.04	283.76
415.253	247.14
415.466	289.96
415.678	309.72
415.891	255.67
416.104	245.2
416.316	247.53
416.529	209.75
416.742	262.64
416.954	301.2
417.167	267.87
417.38	236.87
417.592	302.75
417.805	205.29
418.017	175.07
418.23	294.42
418.442	257.8
418.655	229.51
418.868	241.33
419.08	303.33
419.293	303.52
419.505	264.97
419.718	281.43
419.93	301
420.142	246.37
420.355	318.44
420.567	311.46
420.78	271.75
420.992	277.56
421.205	336.85
421.417	241.72
421.629	279.88
421.842	257.22
422.054	249.27
422.266	307.2
422.479	309.72
422.691	234.16
422.903	314.76
423.115	248.88
423.328	262.06
423.54	281.24
423.752	287.25
423.964	257.6
424.177	285.5
424.389	267.87
424.601	383.35
424.813	311.08
425.025	327.16
425.238	319.99
425.45	301.97
425.662	269.42
425.874	598.02
426.086	284.15
426.298	294.03
426.51	296.93
426.722	282.6
426.934	280.27
427.146	305.46
427.358	247.53
427.57	313.98
427.782	281.24
427.994	253.73
428.206	236.1
428.418	242.1
428.63	300.42
428.842	331.23
429.054	283.18
429.266	325.22
429.478	242.1
429.69	297.52
429.902	232.22
430.114	301.97
430.325	290.93
430.537	254.31
430.749	235.9
430.961	165.19
431.173	223.89
431.384	259.15
431.596	172.94
431.808	257.99
432.02	301.2
432.231	309.91
432.443	355.06
432.655	323.09
432.867	297.13
433.078	335.49
433.29	403.11
433.502	349.25
433.713	392.84
433.925	359.9
434.136	385.09
434.348	269.23
434.56	236.68
434.771	409.31
434.983	273.1
435.194	286.67
435.406	318.25
435.617	390.32
435.829	403.88
436.04	359.51
436.252	366.49
436.463	435.85
436.675	403.88
436.886	401.94
437.098	408.14
437.309	452.71
437.521	379.66
437.732	394.58
437.943	357.77
438.155	369.78
438.366	340.14
438.578	422.87
438.789	370.56
439	380.05
439.211	317.28
439.423	363.97
439.634	396.33
439.845	373.85
440.057	401.75
440.268	422.87
440.479	350.02
440.69	389.16
440.902	383.35
441.113	377.15
441.324	358.16
441.535	395.74
441.746	473.24
441.957	378.5
442.168	386.83
442.38	414.15
442.591	430.81
442.802	383.35
443.013	405.04
443.224	454.45
443.435	407.56
443.646	399.04
443.857	406.21
444.068	390.9
444.279	404.46
444.49	479.64
444.701	399.23
444.912	529.04
445.123	472.86
445.334	433.33
445.545	463.36
445.756	415.7
445.967	392.06
446.178	461.43
446.388	443.99
446.599	414.73
446.81	452.9
447.021	415.89
447.232	477.7
447.443	497.07
447.653	413.18
447.864	491.26
448.075	464.33
448.286	491.07
448.496	463.56
448.707	521.87
448.918	447.86
449.129	531.37
449.339	413.57
449.55	488.74
449.761	468.98
449.971	489.71
450.182	448.44
450.393	508.12
450.603	478.28
450.814	505.99
451.024	485.84
451.235	528.27
451.446	538.54
451.656	571.28
451.867	499.21
452.077	527.3
452.288	560.24
452.498	547.45
452.709	512.38
452.919	488.16
453.13	452.71
453.34	484.87
453.55	439.53
453.761	522.26
453.971	465.49
454.182	525.94
454.392	516.45
454.602	573.99
454.813	527.3
455.023	520.71
455.233	466.27
455.444	515.09
455.654	428.29
455.864	507.54
456.075	493.97
456.285	470.53
456.495	495.14
456.705	527.69
456.916	565.85
457.126	589.1
457.336	498.43
457.546	444.38
457.756	478.67
457.967	525.75
458.177	522.46
458.387	498.43
458.597	491.26
458.807	515.67
459.017	484.67
459.227	490.87
459.437	503.08
459.647	557.52
459.857	528.07
460.068	492.62
460.278	557.33
460.488	521.68
460.698	562.75
460.908	528.46
461.117	487.77
461.327	495.52
461.537	535.44
461.747	545.71
461.957	542.22
462.167	661.95
462.377	577.67
462.587	527.49
462.797	602.67
463.007	549.77
463.216	586.97
463.426	607.7
463.636	560.82
463.846	509.86
464.056	529.82
464.265	583.1
464.475	506.76
464.685	536.99
464.895	575.93
465.104	531.76
465.314	597.44
465.524	537.57
465.733	518.97
465.943	623.98
466.153	612.55
466.362	593.75
466.572	588.72
466.782	553.46
466.991	565.47
467.201	647.81
467.41	511.02
467.62	574.57
467.829	544.54
468.039	597.44
468.249	560.04
468.458	593.56
468.668	601.31
468.877	600.34
469.086	652.46
469.296	664.67
469.505	564.3
469.715	640.25
469.924	627.66
470.134	639.67
470.343	675.32
470.552	598.02
470.762	593.37
470.971	602.09
471.18	612.55
471.39	574.38
471.599	591.62
471.808	639.87
472.018	588.72
472.227	659.24
472.436	682.49
472.645	657.5
472.855	616.62
473.064	720.47
473.273	684.62
473.482	684.62
473.691	698.18
473.901	699.93
474.11	658.66
474.319	766.58
474.528	683.65
474.737	745.26
474.946	710.39
475.155	693.34
475.364	744.1
475.573	714.85
475.783	730.93
475.992	744.3
476.201	781.5
476.41	734.42
476.619	669.51
476.828	708.07
477.037	690.82
477.245	726.28
477.454	768.32
477.663	751.27
477.872	708.65
478.081	828.19
478.29	709.23
478.499	842.53
478.708	795.06
478.917	859.19
479.125	797
479.334	792.15
479.543	793.12
479.752	822.18
479.961	821.8
480.169	831.68
480.378	804.75
480.587	944.05
480.796	838.07
481.004	848.92
481.213	859.38
481.422	834.78
481.63	859.19
481.839	852.99
482.048	920.02
482.256	874.11
482.465	909.95
482.674	896.78
482.882	923.12
483.091	945.99
483.299	904.91
483.508	942.31
483.716	917.7
483.925	913.05
484.134	854.93
484.342	859.77
484.551	915.37
484.759	910.72
484.967	927.19
485.176	956.06
485.384	955.67
485.593	983.77
485.801	949.86
486.01	927.39
486.218	854.15
486.426	812.3
486.635	861.32
486.843	815.01
487.051	850.47
487.26	832.64
487.468	879.34
487.676	910.92
487.885	873.72
488.093	906.46
488.301	919.06
488.509	930.29
488.717	996.75
488.926	967.3
489.134	922.54
489.342	964.01
489.55	923.71
489.758	949.67
489.967	951.99
490.175	1087.62
490.383	985.32
490.591	1087.23
490.799	985.9
491.007	1067.47
491.215	1023.1
491.423	1007.02
491.631	1025.81
491.839	1033.75
492.047	1049.64
492.255	987.26
492.463	964.78
492.671	995.39
492.879	1021.35
493.087	988.42
493.295	1042.28
493.503	1062.24
493.711	1104.67
493.919	1062.62
494.127	1072.31
494.334	1098.85
494.542	1017.09
494.75	1052.74
494.958	1058.55
495.166	1113.19
495.374	1118.42
495.581	1114.35
495.789	1113
495.997	1169.96
496.205	1077.74
496.412	1084.71
496.62	1098.08
496.828	1096.72
497.035	1133.73
497.243	1143.03
497.451	1134.89
497.658	1125.59
497.866	1114.35
498.074	1173.83
498.281	1088
498.489	1189.33
498.696	1145.74
498.904	1073.28
499.112	1077.35
499.319	1214.91
499.527	1124.43
499.734	1153.88
499.942	1092.07
500.149	1099.24
500.357	1130.43
500.564	1079.87
500.771	1132.37
500.979	1071.34
501.186	1087.42
501.394	1101.95
501.601	1085.87
501.808	1127.14
502.016	1135.86
502.223	1077.54
502.43	1111.25
502.638	1117.65
502.845	1055.07
503.052	1207.55
503.26	1119.2
503.467	1204.64
503.674	1146.52
503.881	1169.57
504.089	1230.99
504.296	1185.85
504.503	1086.84
504.71	1160.08
504.917	1141.67
505.125	1163.76
505.332	1171.51
505.539	1193.21
505.746	1250.17
505.953	1198.63
506.16	1237.38
506.367	1253.66
506.574	1245.52
506.781	1278.46
506.988	1207.74
507.195	1247.65
507.402	1208.51
507.609	1252.5
507.816	1212
508.023	1193.79
508.23	1161.43
508.437	1134.5
508.644	1210.45
508.851	1228.47
509.058	1252.88
509.265	1227.5
509.472	1239.13
509.679	1308.29
509.885	1231.57
510.092	1245.71
510.299	1243.78
510.506	1236.41
510.713	1257.34
510.92	1253.46
511.126	1280.59
511.333	1269.35
511.54	1259.47
511.746	1350.14
511.953	1320.31
512.16	1366.81
512.367	1282.91
512.573	1257.73
512.78	1315.46
512.987	1269.74
513.193	1296.09
513.4	1196.5
513.606	1262.57
513.813	1317.4
514.02	1271.48
514.226	1336.78
514.433	1345.49
514.639	1230.99
514.846	1285.82
515.052	1254.43
515.259	1290.66
515.465	1286.4
515.672	1320.11
515.878	1388.7
516.085	1291.24
516.291	1349.37
516.497	1329.61
516.704	1297.64
516.91	1266.06
517.117	1204.45
517.323	1174.61
517.529	1215.1
517.736	1193.4
517.942	1195.34
518.148	1190.5
518.354	1267.41
518.561	1256.37
518.767	1269.54
518.973	1318.76
519.179	1303.26
519.386	1243.2
519.592	1273.61
519.798	1294.15
520.004	1370.29
520.21	1349.76
520.417	1391.8
520.623	1440.43
520.829	1421.44
521.035	1452.44
521.241	1420.67
521.447	1450.31
521.653	1542.92
521.859	1467.17
522.065	1475.69
522.271	1549.7
522.477	1529.94
522.683	1541.57
522.889	1477.82
523.095	1503.59
523.301	1495.26
523.507	1454.77
523.713	1494.1
523.919	1484.41
524.125	1555.52
524.331	1548.15
524.537	1602.21
524.742	1586.52
524.948	1616.55
525.154	1604.15
525.36	1733.96
525.566	1603.57
525.772	1660.72
525.977	1594.65
526.183	1612.48
526.389	1675.83
526.595	1619.45
526.8	1602.02
527.006	1534.78
527.212	1515.02
527.417	1451.67
527.623	1477.82
527.829	1536.14
528.034	1605.12
528.24	1580.32
528.446	1588.65
528.651	1673.9
528.857	1699.66
529.062	1726.21
529.268	1694.43
529.473	1705.48
529.679	1702.96
529.884	1812.04
530.09	1765.93
530.295	1799.44
530.501	1760.5
530.706	1748.68
530.912	1740.54
531.117	1782.01
531.323	1778.13
531.528	1825.02
531.733	1801.96
531.939	1776.97
532.144	1807.97
532.35	1824.05
532.555	1867.26
532.76	1819.01
532.966	1794.6
533.171	1779.88
533.376	1729.69
533.581	1708.38
533.787	1746.36
533.992	1826.57
534.197	1826.96
534.402	1784.91
534.607	1792.86
534.813	1887.02
535.018	1795.57
535.223	1796.54
535.428	1825.02
535.633	1857.76
535.838	1902.13
536.043	1847.11
536.249	1945.34
536.454	1875
536.659	1904.07
536.864	1891.67
537.069	1861.06
537.274	1879.85
537.479	1862.61
537.684	1898.45
537.889	1814.36
538.094	1962
538.299	1875.2
538.504	1885.08
538.708	1908.72
538.913	1930.61
539.118	1918.02
539.323	1933.52
539.528	1861.64
539.733	1872.87
539.938	1905.23
540.142	1939.91
540.347	1858.54
540.552	1883.53
540.757	1832.38
540.962	1835.48
541.166	1817.66
541.371	1818.24
541.576	1807.58
541.781	1760.89
541.985	1897.48
542.19	1839.94
542.395	1980.02
542.599	1993.38
542.804	1936.62
543.008	1981.37
543.213	1894.96
543.418	1865.71
543.622	1907.17
543.827	1881.98
544.031	1938.17
544.236	1983.31
544.44	1943.59
544.645	2026.13
544.849	1921.12
545.054	2012.57
545.258	2046.86
545.463	2007.72
545.667	1921.5
545.872	1996.48
546.076	1997.84
546.281	1975.56
546.485	1970.52
546.689	2002.3
546.894	1989.9
547.098	1966.26
547.302	1915.89
547.507	1971.3
547.711	1979.24
547.915	2037.75
548.119	1966.65
548.324	1940.69
548.528	2032.72
548.732	1975.56
548.936	2016.05
549.141	2027.29
549.345	1993
549.549	1999.78
549.753	1991.06
549.957	2085.22
550.161	2061
550.366	2013.34
550.57	2006.17
550.774	1965.1
550.978	1997.45
551.182	2041.05
551.386	1980.79
551.59	2002.1
551.794	2015.28
551.998	2004.82
552.202	1996.87
552.406	1964.71
552.61	2059.84
552.814	2024.38
553.018	2098.59
553.222	2016.05
553.426	2023.22
553.63	2114.09
553.833	2030.78
554.037	1958.32
554.241	2042.6
554.445	2007.14
554.649	2024.58
554.853	1986.8
555.056	2009.85
555.26	2068.56
555.464	2012.57
555.668	2069.53
555.871	2034.46
556.075	2073.4
556.279	2034.85
556.483	1985.05
556.686	2012.37
556.89	1982.53
557.094	1975.75
557.297	1905.23
557.501	2037.56
557.704	1878.88
557.908	1996.29
558.112	1900.58
558.315	2050.15
558.519	1954.25
558.722	1947.27
558.926	1917.24
559.129	1838.58
559.333	1849.04
559.536	1855.63
559.74	1835.67
559.943	1838.77
560.147	1840.52
560.35	1859.51
560.553	1830.06
560.757	1794.21
560.96	1903.87
561.164	1804.29
561.367	1956.38
561.57	1866.09
561.774	1920.92
561.977	1872.29
562.18	1815.33
562.384	1925.77
562.587	1864.35
562.79	1841.68
562.993	1836.45
563.197	1844.59
563.4	1951.73
563.603	1887.21
563.806	1943.79
564.009	1836.26
564.212	1866.67
564.416	1774.84
564.619	1838.19
564.822	1769.03
565.025	1863.19
565.228	1822.5
565.431	1815.52
565.634	1697.73
565.837	1765.15
566.04	1731.44
566.243	1718.84
566.446	1679.71
566.649	1787.04
566.852	1699.66
567.055	1714.39
567.258	1763.79
567.461	1816.69
567.664	1788.21
567.867	1685.91
568.07	1770.38
568.273	1735.12
568.475	1808.36
568.678	1716.91
568.881	1687.46
569.084	1721.56
569.287	1608.41
569.489	1628.17
569.692	1692.69
569.895	1697.14
570.098	1660.72
570.3	1642.51
570.503	1580.12
570.706	1611.7
570.909	1597.75
571.111	1553.97
571.314	1555.52
571.516	1586.13
571.719	1602.98
571.922	1546.8
572.124	1527.23
572.327	1583.22
572.529	1536.53
572.732	1529.36
572.935	1574.7
573.137	1643.28
573.34	1529.36
573.542	1630.11
573.745	1608.41
573.947	1593.68
574.15	1538.47
574.352	1543.31
574.554	1625.85
574.757	1520.25
574.959	1521.61
575.162	1505.53
575.364	1533.43
575.566	1601.24
575.769	1507.27
575.971	1539.82
576.173	1428.81
576.376	1489.25
576.578	1510.37
576.78	1596.01
576.982	1433.84
577.185	1493.13
577.387	1437.91
577.589	1431.52
577.791	1525.1
577.993	1505.72
578.196	1472.4
578.398	1484.41
578.6	1484.22
578.802	1396.84
579.004	1390.64
579.206	1399.16
579.408	1465.42
579.61	1404.39
579.812	1483.64
580.014	1394.32
580.216	1376.88
580.418	1390.83
580.62	1399.55
580.822	1343.17
581.024	1407.69
581.226	1436.94
581.428	1376.3
581.63	1491.58
581.832	1378.24
582.034	1417.37
582.236	1368.74
582.438	1430.16
582.64	1467.94
582.841	1452.25
583.043	1510.95
583.245	1453.02
583.447	1433.65
583.649	1404.01
583.85	1407.69
584.052	1445.85
584.254	1367.77
584.456	1433.07
584.657	1365.06
584.859	1407.88
585.061	1360.22
585.262	1373.59
585.464	1321.08
585.666	1402.07
585.867	1359.44
586.069	1436.94
586.27	1400.13
586.472	1384.44
586.674	1307.71
586.875	1315.85
587.077	1337.36
587.278	1323.79
587.48	1347.04
587.681	1471.04
587.883	1348.4
588.084	1275.94
588.285	1324.38
588.487	1333.87
588.688	1342.01
588.89	1243.97
589.091	1226.15
589.292	1284.66
589.494	1243.78
589.695	1191.85
589.896	1148.07
590.098	1114.35
590.299	1206.77
590.5	1146.52
590.702	1181.78
590.903	1221.88
591.104	1303.26
591.305	1258.31
591.507	1308.29
591.708	1269.93
591.909	1250.17
592.11	1311.2
592.311	1261.41
592.512	1272.26
592.714	1202.9
592.915	1224.21
593.116	1249.4
593.317	1250.56
593.518	1249.2
593.719	1243.78
593.92	1313.33
594.121	1317.21
594.322	1254.82
594.523	1280.59
594.724	1186.62
594.925	1255.4
595.126	1253.46
595.327	1270.9
595.528	1246.3
595.729	1268.77
595.929	1246.1
596.13	1243
596.331	1297.25
596.532	1286.21
596.733	1297.25
596.934	1272.84
597.135	1283.49
597.335	1264.31
597.536	1248.04
597.737	1243.39
597.938	1222.66
598.138	1257.15
598.339	1222.46
598.54	1259.47
598.74	1206
598.941	1260.63
599.142	1277.1
599.342	1252.11
599.543	1216.26
599.744	1224.21
599.944	1176.55
600.145	1216.85
600.345	1227.11
600.546	1313.72
600.746	1266.44
600.947	1308.68
601.147	1226.34
601.348	1300.35
601.548	1221.69
601.749	1220.14
601.949	1160.08
602.15	1164.92
602.35	1183.91
602.551	1264.12
602.751	1162.02
602.951	1175.96
603.152	1116.68
603.352	1243.2
603.552	1217.23
603.753	1224.01
603.953	1218.4
604.153	1221.11
604.354	1211.23
604.554	1180.42
604.754	1185.07
604.954	1146.52
605.155	1225.18
605.355	1165.7
605.555	1213.75
605.755	1245.52
605.955	1173.45
606.155	1207.35
606.356	1181.39
606.556	1239.71
606.756	1226.53
606.956	1139.35
607.156	1259.08
607.356	1173.45
607.556	1216.07
607.756	1207.55
607.956	1221.5
608.156	1189.53
608.356	1166.67
608.556	1206.96
608.756	1140.7
608.956	1139.93
609.156	1170.93
609.356	1120.17
609.556	1095.95
609.755	1160.85
609.955	1107.96
610.155	1145.55
610.355	1170.93
610.555	1130.05
610.755	1147.87
610.954	1045.38
611.154	1160.27
611.354	1160.27
611.554	1127.14
611.753	1077.93
611.953	1082.97
612.153	1117.45
612.352	1115.9
612.552	1075.02
612.752	1049.84
612.951	1104.08
613.151	1134.5
613.351	1048.87
613.55	1082.97
613.75	1101.18
613.949	1103.31
614.149	1116.29
614.348	1074.64
614.548	1074.83
614.747	1008.18
614.947	1062.04
615.146	1011.67
615.346	1136.44
615.545	1081.8
615.745	1073.67
615.944	1111.64
