Data from gum_old_FLMT105791__91__15-44-19-256.txt Node

Date: Mon Mar 20 15:44:19 GMT 2023
User: antho
Spectrometer: FLMT10579
Trigger mode: 0
Integration Time (sec): 1.000000E-1
Scans to average: 10
Electric dark correction enabled: true
Nonlinearity correction enabled: false
Boxcar width: 0
XAxis mode: Wavelengths
Number of Pixels in Spectrum: 3648
>>>>>Begin Spectral Data<<<<<
345.248	-170.58
345.464	-170.58
345.681	-170.58
345.898	-170.97
346.114	-158.76
346.331	-32.44
346.548	45.64
346.764	-13.06
346.981	-15.19
347.197	-35.54
347.414	30.73
347.631	-21.59
347.847	51.46
348.064	16
348.28	33.24
348.497	-48.32
348.713	-10.93
348.93	45.26
349.146	31.69
349.363	22.98
349.579	24.72
349.796	5.15
350.012	9.41
350.229	43.71
350.445	27.43
350.661	-4.15
350.878	20.26
351.094	49.91
351.311	40.02
351.527	62.89
351.743	-5.12
351.96	62.31
352.176	63.27
352.392	64.63
352.609	60.76
352.825	3.21
353.041	54.94
353.257	26.66
353.474	43.71
353.69	45.84
353.906	47.58
354.122	-5.51
354.339	86.14
354.555	25.49
354.771	17.55
354.987	103.96
355.203	78.58
355.42	14.45
355.636	-3.18
355.852	14.84
356.068	51.65
356.284	-1.05
356.5	93.5
356.716	49.91
356.932	41.57
357.148	58.62
357.364	46.61
357.58	71.02
357.796	67.15
358.012	57.85
358.228	50.29
358.444	-33.79
358.66	97.76
358.876	55.91
359.092	-0.27
359.308	37.7
359.524	66.18
359.74	21.43
359.956	-3.76
360.172	58.62
360.388	63.86
360.604	23.56
360.819	138.84
361.035	76.26
361.251	80.71
361.467	33.63
361.683	74.12
361.898	57.85
362.114	51.84
362.33	47.77
362.546	74.12
362.762	68.31
362.977	68.89
363.193	27.04
363.409	36.92
363.624	26.66
363.84	30.53
364.056	7.48
364.271	71.61
364.487	68.7
364.703	22.98
364.918	15.03
365.134	53.39
365.35	27.04
365.565	138.06
365.781	59.79
365.996	91.76
366.212	121.59
366.427	70.06
366.643	29.95
366.858	60.17
367.074	38.86
367.289	109.77
367.505	176.62
367.72	40.61
367.936	44.87
368.151	91.95
368.367	81.87
368.582	71.8
368.798	53.2
369.013	81.1
369.228	80.52
369.444	72.96
369.659	119.46
369.874	98.34
370.09	139.8
370.305	15.81
370.52	56.11
370.736	150.85
370.951	90.21
371.166	125.85
371.381	137.48
371.597	116.94
371.812	17.74
372.027	55.91
372.242	58.04
372.458	156.08
372.673	50.29
372.888	65.79
373.103	96.02
373.318	152.98
373.533	67.92
373.749	73.74
373.964	29.76
374.179	104.74
374.394	7.86
374.609	140.77
374.824	31.31
375.039	108.03
375.254	31.89
375.469	140.97
375.684	59.79
375.899	111.32
376.114	91.37
376.329	96.21
376.544	94.27
376.759	99.51
376.974	61.72
377.189	87.3
377.404	73.93
377.619	133.8
377.834	28.01
378.049	45.84
378.264	56.49
378.478	111.13
378.693	73.35
378.908	107.06
379.123	93.89
379.338	148.72
379.553	121.98
379.767	138.25
379.982	105.51
380.197	99.7
380.412	82.84
380.626	110.94
380.841	179.91
381.056	119.85
381.271	184.95
381.485	77.61
381.7	52.42
381.915	103.57
382.129	79.55
382.344	110.55
382.559	92.34
382.773	124.3
382.988	11.16
383.202	97.18
383.417	48.94
383.632	174.68
383.846	80.13
384.061	78.58
384.275	70.06
384.49	93.69
384.704	96.41
384.919	120.82
385.133	89.62
385.348	125.66
385.562	60.17
385.777	150.65
385.991	129.15
386.206	83.42
386.42	98.92
386.634	142.32
386.849	126.44
387.063	122.56
387.277	76.84
387.492	83.23
387.706	75.09
387.92	83.23
388.135	135.15
388.349	141.94
388.563	133.41
388.778	115.39
388.992	110.94
389.206	139.22
389.42	187.27
389.635	101.25
389.849	120.82
390.063	159.95
390.277	158.02
390.491	198.32
390.706	172.94
390.92	143.49
391.134	142.52
391.348	185.72
391.562	117.52
391.776	131.09
391.99	135.74
392.205	156.85
392.419	128.95
392.633	124.69
392.847	183.01
393.061	119.27
393.275	188.63
393.489	105.12
393.703	120.24
393.917	105.51
394.131	65.79
394.345	137.67
394.559	144.07
394.773	122.76
394.986	152.59
395.2	138.84
395.414	203.74
395.628	129.34
395.842	169.45
396.056	148.52
396.27	145.04
396.484	194.83
396.697	167.51
396.911	157.24
397.125	141.74
397.339	160.73
397.553	135.54
397.766	207.04
397.98	157.05
398.194	195.8
398.408	183.2
398.621	210.33
398.835	249.47
399.049	222.15
399.262	250.63
399.476	246.95
399.69	250.63
399.903	305.65
400.117	239.97
400.331	299.65
400.544	217.11
400.758	361.84
400.971	272.33
401.185	316.5
401.398	243.46
401.612	326.58
401.826	263.61
402.039	299.06
402.253	259.73
402.466	303.33
402.68	275.43
402.893	270.78
403.106	306.04
403.32	273.1
403.533	290.54
403.747	272.72
403.96	294.22
404.174	300.23
404.387	250.24
404.6	282.6
404.814	333.36
405.027	274.65
405.24	290.93
405.454	260.7
405.667	313.79
405.88	261.48
406.094	303.71
406.307	305.85
406.52	291.7
406.733	264.19
406.947	240.94
407.16	328.13
407.373	341.11
407.586	258.38
407.799	272.13
408.012	355.83
408.226	326
408.439	342.27
408.652	282.02
408.865	353.51
409.078	363.97
409.291	339.56
409.504	295.58
409.717	357
409.93	343.24
410.143	330.84
410.357	277.17
410.57	253.92
410.783	278.33
410.996	312.24
411.209	285.7
411.421	377.15
411.634	342.85
411.847	305.46
412.06	363
412.273	348.08
412.486	373.85
412.699	463.56
412.912	352.54
413.125	388.77
413.338	375.01
413.55	393.42
413.763	358.16
413.976	393.61
414.189	329.29
414.402	361.65
414.615	428.88
414.827	348.47
415.04	354.28
415.253	383.54
415.466	418.8
415.678	445.54
415.891	388.38
416.104	369.78
416.316	369.78
416.529	360.48
416.742	423.45
416.954	442.83
417.167	366.88
417.38	389.74
417.592	394.78
417.805	357.58
418.017	319.6
418.23	404.85
418.442	371.72
418.655	405.82
418.868	402.91
419.08	432.94
419.293	420.93
419.505	397.49
419.718	385.67
419.93	410.47
420.142	373.46
420.355	440.5
420.567	432.36
420.78	405.63
420.992	392.06
421.205	429.07
421.417	362.61
421.629	390.13
421.842	396.33
422.054	382.96
422.266	432.17
422.479	481.77
422.691	385.28
422.903	429.07
423.115	402.53
423.328	376.56
423.54	385.67
423.752	415.51
423.964	366.3
424.177	416.28
424.389	431.39
424.601	541.44
424.813	417.06
425.025	462.59
425.238	471.89
425.45	399.62
425.662	441.08
425.874	759.02
426.086	418.99
426.298	425.58
426.51	437.79
426.722	430.81
426.934	407.18
427.146	443.6
427.358	396.91
427.57	457.36
427.782	428.88
427.994	412.6
428.206	386.44
428.418	371.14
428.63	461.81
428.842	468.21
429.054	435.27
429.266	463.94
429.478	382.18
429.69	431.98
429.902	361.45
430.114	444.96
430.325	428.1
430.537	337.23
430.749	354.28
430.961	299.65
431.173	339.17
431.384	365.33
431.596	297.52
431.808	364.36
432.02	405.63
432.231	502.11
432.443	528.27
432.655	501.72
432.867	468.98
433.078	481.38
433.29	521.29
433.502	520.13
433.713	523.42
433.925	526.52
434.136	577.87
434.348	439.34
434.56	447.09
434.771	550.74
434.983	411.24
435.194	471.5
435.406	493.39
435.617	555.97
435.829	579.42
436.04	547.45
436.252	524.59
436.463	589.1
436.675	587.17
436.886	553.46
437.098	583.29
437.309	644.52
437.521	574.19
437.732	575.54
437.943	526.14
438.155	567.02
438.366	508.7
438.578	622.62
438.789	514.71
439	545.71
439.211	499.98
439.423	523.23
439.634	575.35
439.845	587.94
440.057	584.07
440.268	617.59
440.479	547.84
440.69	582.71
440.902	570.12
441.113	556.56
441.324	568.37
441.535	629.99
441.746	664.67
441.957	581.74
442.168	599.76
442.38	651.49
442.591	651.68
442.802	586.2
443.013	605.57
443.224	634.44
443.435	638.32
443.646	610.22
443.857	624.95
444.068	627.47
444.279	600.15
444.49	711.55
444.701	623.98
444.912	763.86
445.123	651.68
445.334	644.71
445.545	640.84
445.756	643.55
445.967	599.18
446.178	641.61
446.388	659.24
446.599	660.6
446.81	654.98
447.021	624.37
447.232	688.11
447.443	732.48
447.653	655.95
447.864	723.37
448.075	705.55
448.286	701.48
448.496	708.65
448.707	735.96
448.918	679.78
449.129	787.7
449.339	692.95
449.55	719.11
449.761	722.21
449.971	765.22
450.182	709.81
450.393	749.14
450.603	695.86
450.814	790.6
451.024	737.71
451.235	790.8
451.446	806.3
451.656	795.64
451.867	733.25
452.077	736.74
452.288	808.62
452.498	774.33
452.709	747.4
452.919	739.26
453.13	681.72
453.34	715.23
453.55	666.22
453.761	727.44
453.971	731.32
454.182	732.28
454.392	738.68
454.602	781.11
454.813	761.15
455.023	776.46
455.233	723.18
455.444	755.15
455.654	684.23
455.864	753.4
456.075	751.27
456.285	746.23
456.495	744.3
456.705	776.46
456.916	826.44
457.126	839.04
457.336	780.33
457.546	702.64
457.756	730.15
457.967	816.56
458.177	724.53
458.387	780.53
458.597	722.6
458.807	758.25
459.017	747.98
459.227	747.78
459.437	719.88
459.647	807.46
459.857	799.32
460.068	754.37
460.278	839.81
460.488	796.41
460.698	847.18
460.908	785.95
461.117	757.86
461.327	755.34
461.537	812.3
461.747	822.96
461.957	806.49
462.167	940.37
462.377	846.79
462.587	834.19
462.797	881.08
463.007	827.03
463.216	862.87
463.426	931.26
463.636	869.65
463.846	761.15
464.056	774.71
464.265	843.11
464.475	789.05
464.685	826.64
464.895	878.76
465.104	801.26
465.314	871.39
465.524	824.31
465.733	785.76
465.943	908.4
466.153	918.09
466.362	868.1
466.572	878.56
466.782	835.74
466.991	868.68
467.201	884.96
467.41	786.73
467.62	857.64
467.829	839.43
468.039	862.09
468.249	846.4
468.458	891.16
468.668	896
468.877	907.04
469.086	937.85
469.296	932.81
469.505	881.66
469.715	956.64
469.924	929.91
470.134	979.12
470.343	970.4
470.552	924.87
470.762	897.16
470.971	869.84
471.18	922.74
471.39	902.01
471.599	913.24
471.808	936.88
472.018	930.68
472.227	997.33
472.436	1019.03
472.645	1014.77
472.855	947.54
473.064	1055.45
473.273	1021.35
473.482	1042.67
473.691	1039.57
473.901	1043.25
474.11	996.17
474.319	1113.58
474.528	1051.19
474.737	1120.55
474.946	1061.27
475.155	1041.31
475.364	1125.98
475.573	1071.34
475.783	1104.67
475.992	1092.27
476.201	1121.52
476.41	1102.34
476.619	1051
476.828	1099.05
477.037	1066.5
477.245	1090.13
477.454	1152.33
477.663	1112.22
477.872	1147.48
478.081	1262.38
478.29	1162.98
478.499	1249.59
478.708	1232.73
478.917	1266.44
479.125	1211.23
479.334	1190.88
479.543	1189.72
479.752	1216.65
479.961	1231.57
480.169	1271.48
480.378	1220.14
480.587	1384.24
480.796	1310.04
481.004	1294.34
481.213	1280.2
481.422	1306.36
481.63	1307.33
481.839	1308.68
482.048	1356.92
482.256	1354.02
482.465	1365.64
482.674	1384.24
482.882	1392.38
483.091	1468.14
483.299	1339.1
483.508	1377.66
483.716	1379.98
483.925	1382.31
484.134	1362.54
484.342	1362.93
484.551	1416.41
484.759	1399.74
484.967	1426.48
485.176	1402.84
485.384	1425.9
485.593	1427.06
485.801	1408.85
486.01	1382.11
486.218	1321.28
486.426	1220.14
486.635	1241.45
486.843	1188.36
487.051	1252.5
487.26	1264.31
487.468	1301.71
487.676	1339.49
487.885	1327.09
488.093	1380.76
488.301	1447.99
488.509	1425.9
488.717	1485.77
488.926	1443.14
489.134	1459.03
489.342	1464.45
489.55	1364.87
489.758	1445.85
489.967	1456.12
490.175	1570.43
490.383	1538.66
490.591	1619.84
490.799	1500.49
491.007	1619.45
491.215	1578.38
491.423	1571.02
491.631	1566.56
491.839	1573.73
492.047	1586.71
492.255	1529.75
492.463	1455.15
492.671	1464.84
492.879	1533.82
493.087	1520.25
493.295	1562.88
493.503	1606.47
493.711	1647.16
493.919	1623.71
494.127	1632.63
494.334	1647.35
494.542	1575.08
494.75	1654.52
494.958	1589.81
495.166	1688.62
495.374	1695.6
495.581	1676.61
495.789	1695.4
495.997	1740.74
496.205	1652.97
496.412	1627.59
496.62	1679.32
496.828	1689.59
497.035	1684.55
497.243	1694.82
497.451	1680.87
497.658	1707.8
497.866	1683.78
498.074	1752.17
498.281	1658.78
498.489	1739.58
498.696	1663.82
498.904	1605.7
499.112	1628.56
499.319	1733.96
499.527	1714.58
499.734	1752.36
499.942	1657.43
500.149	1676.41
500.357	1714.58
500.564	1637.86
500.771	1685.33
500.979	1629.14
501.186	1623.91
501.394	1659.56
501.601	1603.57
501.808	1668.66
502.016	1657.23
502.223	1621
502.43	1659.17
502.638	1681.06
502.845	1623.52
503.052	1747.33
503.26	1658.59
503.467	1800.02
503.674	1726.21
503.881	1729.89
504.089	1820.17
504.296	1738.61
504.503	1659.17
504.71	1707.99
504.917	1674.28
505.125	1738.61
505.332	1717.49
505.539	1763.79
505.746	1845.75
505.953	1797.51
506.16	1810.1
506.367	1883.92
506.574	1937.97
506.781	1882.17
506.988	1821.92
507.195	1854.86
507.402	1812.62
507.609	1876.55
507.816	1826.76
508.023	1801.38
508.23	1767.67
508.437	1789.56
508.644	1862.41
508.851	1882.56
509.058	1845.17
509.265	1817.27
509.472	1872.49
509.679	1964.32
509.885	1853.69
510.092	1874.81
510.299	1842.07
510.506	1838.58
510.713	1858.34
510.92	1852.92
511.126	1913.37
511.333	1902.71
511.54	1871.32
511.746	1976.53
511.953	1964.13
512.16	1985.25
512.367	1923.83
512.573	1908.52
512.78	1931.39
512.987	1916.66
513.193	1895.15
513.4	1811.84
513.606	1882.75
513.813	1923.44
514.02	1873.26
514.226	1935.07
514.433	1924.02
514.639	1837.61
514.846	1893.99
515.052	1889.15
515.259	1876.55
515.465	1893.8
515.672	1892.64
515.878	1977.69
516.085	1919.57
516.291	1986.8
516.497	1944.75
516.704	1904.65
516.91	1860.47
517.117	1780.46
517.323	1734.54
517.529	1716.52
517.736	1725.43
517.942	1715.74
518.148	1762.63
518.354	1767.86
518.561	1839.74
518.767	1800.41
518.973	1854.86
519.179	1856.21
519.386	1851.17
519.592	1840.32
519.798	1826.96
520.004	1964.13
520.21	1918.21
520.417	1979.05
520.623	2015.28
520.829	2024.38
521.035	2001.13
521.241	1999.39
521.447	2025.16
521.653	2115.83
521.859	2000.36
522.065	2049.76
522.271	2124.75
522.477	2081.54
522.683	2165.04
522.889	2104.4
523.095	2046.47
523.301	2051.31
523.507	2009.47
523.713	2043.95
523.919	2014.31
524.125	2112.93
524.331	2111.76
524.537	2176.86
524.742	2154.97
524.948	2216.39
525.154	2196.82
525.36	2308.42
525.566	2200.69
525.772	2228.98
525.977	2161.56
526.183	2182.87
526.389	2270.25
526.595	2137.73
526.8	2116.61
527.006	2016.05
527.212	1974.98
527.417	1978.47
527.623	1954.44
527.829	2080.38
528.034	2084.45
528.24	2108.28
528.446	2140.44
528.651	2234.41
528.857	2193.72
529.062	2275.29
529.268	2277.22
529.473	2291.76
529.679	2290.4
529.884	2358.02
530.09	2329.54
530.295	2323.92
530.501	2351.82
530.706	2320.04
530.912	2282.65
531.117	2309.39
531.323	2300.28
531.528	2376.62
531.733	2386.69
531.939	2337.29
532.144	2351.82
532.35	2330.5
532.555	2438.42
532.76	2378.17
532.966	2354.53
533.171	2335.15
533.376	2269.86
533.581	2201.08
533.787	2311.32
533.992	2353.37
534.197	2327.79
534.402	2316.36
534.607	2341.94
534.813	2473.68
535.018	2356.08
535.223	2381.85
535.428	2396.57
535.633	2452.76
535.838	2488.99
536.043	2434.16
536.249	2568.23
536.454	2434.16
536.659	2466.9
536.864	2425.05
537.069	2411.49
537.274	2442.88
537.479	2458.77
537.684	2409.75
537.889	2348.91
538.094	2536.65
538.299	2426.02
538.504	2442.68
538.708	2464.58
538.913	2499.06
539.118	2475.62
539.323	2462.06
539.528	2443.46
539.733	2452.18
539.938	2455.67
540.142	2445.78
540.347	2410.52
540.552	2409.55
540.757	2366.54
540.962	2367.12
541.166	2319.46
541.371	2345.04
541.576	2388.44
541.781	2291.76
541.985	2464.19
542.19	2425.63
542.395	2534.52
542.599	2537.43
542.804	2493.64
543.008	2530.45
543.213	2469.62
543.418	2436.48
543.622	2516.89
543.827	2402.77
544.031	2546.15
544.236	2528.71
544.44	2531.42
544.645	2607.95
544.849	2498.87
545.054	2600.98
545.258	2624.42
545.463	2580.05
545.667	2464.77
545.872	2563.58
546.076	2568.81
546.281	2555.83
546.485	2492.67
546.689	2584.31
546.894	2576.37
547.098	2532.78
547.302	2507.4
547.507	2515.92
547.711	2587.8
547.915	2619.38
548.119	2468.07
548.324	2486.86
548.528	2573.08
548.732	2537.62
548.936	2565.33
549.141	2593.42
549.345	2532.39
549.549	2580.24
549.753	2589.54
549.957	2629.07
550.161	2610.86
550.366	2566.88
550.57	2574.24
550.774	2569.98
550.978	2520.76
551.182	2604.46
551.386	2500.61
551.59	2546.15
551.794	2545.76
551.998	2562.23
552.202	2553.31
552.406	2526.58
552.61	2589.93
552.814	2574.43
553.018	2648.83
553.222	2576.37
553.426	2562.81
553.63	2661.23
553.833	2564.75
554.037	2522.12
554.241	2607.95
554.445	2573.66
554.649	2566.88
554.853	2543.43
555.056	2621.71
555.26	2654.26
555.464	2576.18
555.668	2632.75
555.871	2632.75
556.075	2646.12
556.279	2577.14
556.483	2535.1
556.686	2555.45
556.89	2593.42
557.094	2556.22
557.297	2443.07
557.501	2553.9
557.704	2445.98
557.908	2513.01
558.112	2449.08
558.315	2593.23
558.519	2524.25
558.722	2497.71
558.926	2484.34
559.129	2409.36
559.333	2412.85
559.536	2384.75
559.74	2435.32
559.943	2365.19
560.147	2419.43
560.35	2400.45
560.553	2433
560.757	2382.62
560.96	2504.49
561.164	2426.22
561.367	2524.64
561.57	2466.32
561.774	2438.62
561.977	2433.19
562.18	2458.96
562.384	2543.05
562.587	2397.73
562.79	2426.99
562.993	2409.17
563.197	2441.13
563.4	2505.65
563.603	2471.75
563.806	2514.56
564.009	2429.7
564.212	2464.97
564.416	2390.18
564.619	2424.08
564.822	2358.4
565.025	2459.93
565.228	2364.22
565.431	2445.78
565.634	2314.42
565.837	2367.9
566.04	2305.12
566.243	2311.52
566.446	2206.12
566.649	2319.65
566.852	2241.19
567.055	2327.21
567.258	2337.29
567.461	2353.95
567.664	2378.55
567.867	2289.04
568.07	2344.26
568.273	2300.86
568.475	2362.28
568.678	2276.06
568.881	2255.72
569.084	2268.31
569.287	2179.38
569.489	2146.83
569.692	2264.44
569.895	2266.76
570.098	2220.65
570.3	2180.74
570.503	2095.3
570.706	2147.8
570.909	2140.83
571.111	2099.36
571.314	2078.83
571.516	2086.96
571.719	2161.36
571.922	2093.36
572.124	2100.14
572.327	2148.96
572.529	2089.87
572.732	2095.88
572.935	2156.13
573.137	2249.91
573.34	2128.81
573.542	2202.05
573.745	2160.59
573.947	2137.14
574.15	2149.54
574.352	2127.65
574.554	2185.39
574.757	2130.56
574.959	2095.88
575.162	2096.07
575.364	2105.37
575.566	2215.61
575.769	2060.81
575.971	2076.31
576.173	1971.3
576.376	2067.2
576.578	2110.41
576.78	2124.36
576.982	1953.09
577.185	2051.12
577.387	1997.45
577.589	2023.61
577.791	2082.51
577.993	2076.89
578.196	2047.44
578.398	2088.13
578.6	2093.94
578.802	1984.86
579.004	1990.48
579.206	1999.2
579.408	2001.52
579.61	1964.52
579.812	2052.67
580.014	1999.2
580.216	1995.71
580.418	2004.23
580.62	1997.45
580.822	1940.88
581.024	1994.93
581.226	2064.3
581.428	1985.44
581.63	2085.22
581.832	1964.52
582.034	2028.65
582.236	2001.91
582.438	2077.47
582.64	2067.98
582.841	2106.73
583.043	2102.27
583.245	2060.61
583.447	2086.77
583.649	2037.75
583.85	2048.41
584.052	2062.36
584.254	2005.78
584.456	2077.47
584.657	1998.62
584.859	2016.25
585.061	1997.84
585.262	2005.2
585.464	1949.21
585.666	2084.25
585.867	1956.19
586.069	2040.27
586.27	1929.64
586.472	1962.19
586.674	1951.54
586.875	1972.65
587.077	1941.27
587.278	1941.65
587.48	1913.95
587.681	2058.87
587.883	1960.25
588.084	1904.07
588.285	1938.55
588.487	1897.29
588.688	1950.57
588.89	1851.17
589.091	1816.88
589.292	1815.91
589.494	1786.66
589.695	1720.2
589.896	1636.89
590.098	1694.63
590.299	1724.27
590.5	1705.86
590.702	1704.7
590.903	1755.27
591.104	1837.22
591.305	1805.84
591.507	1867.84
591.708	1837.03
591.909	1812.62
592.11	1883.14
592.311	1818.24
592.512	1770.77
592.714	1742.48
592.915	1786.66
593.116	1781.04
593.317	1804.87
593.518	1767.28
593.719	1805.26
593.92	1830.44
594.121	1851.76
594.322	1829.09
594.523	1838.19
594.724	1760.31
594.925	1770.19
595.126	1762.83
595.327	1821.34
595.528	1791.89
595.729	1811.65
595.929	1787.04
596.13	1790.14
596.331	1772.71
596.532	1792.47
596.733	1838.97
596.934	1846.91
597.135	1808.55
597.335	1853.69
597.536	1775.81
597.737	1792.27
597.938	1778.71
598.138	1802.54
598.339	1780.65
598.54	1779.88
598.74	1740.93
598.941	1792.27
599.142	1795.37
599.342	1798.86
599.543	1721.94
599.744	1766.12
599.944	1722.14
600.145	1746.16
600.345	1768.83
600.546	1842.07
600.746	1797.89
600.947	1825.6
601.147	1760.11
601.348	1809.91
601.548	1723.88
601.749	1764.38
601.949	1677.77
602.15	1721.75
602.35	1682.81
602.551	1775.23
602.751	1706.64
602.951	1716.33
603.152	1665.56
603.352	1729.11
603.552	1730.66
603.753	1757.59
603.953	1739.77
604.153	1770.38
604.354	1726.79
604.554	1756.82
604.754	1729.89
604.954	1707.61
605.155	1744.42
605.355	1737.83
605.555	1798.28
605.755	1788.01
605.955	1742.48
606.155	1793.44
606.356	1734.54
606.556	1781.23
606.756	1782.01
606.956	1738.61
607.156	1779.88
607.356	1688.23
607.556	1738.8
607.756	1715.94
607.956	1811.65
608.156	1709.16
608.356	1713.03
608.556	1750.62
608.756	1725.04
608.956	1703.54
609.156	1719.62
609.356	1675.83
609.556	1684.55
609.755	1687.07
609.955	1671.76
610.155	1713.81
610.355	1674.09
610.555	1646.77
610.755	1664.01
610.954	1595.82
611.154	1665.76
611.354	1654.52
611.554	1646.38
611.753	1629.91
611.953	1625.85
612.153	1679.51
612.352	1676.61
612.552	1633.6
612.752	1565.78
612.951	1671.57
613.151	1634.18
613.351	1620.81
613.55	1664.4
