Data from gum_old_FLMT105791__26__15-42-48-259.txt Node

Date: Mon Mar 20 15:42:48 GMT 2023
User: antho
Spectrometer: FLMT10579
Trigger mode: 0
Integration Time (sec): 1.000000E-1
Scans to average: 10
Electric dark correction enabled: true
Nonlinearity correction enabled: false
Boxcar width: 0
XAxis mode: Wavelengths
Number of Pixels in Spectrum: 3648
>>>>>Begin Spectral Data<<<<<
345.248	-151.22
345.464	-151.22
345.681	-151.22
345.898	-172.14
346.114	-176.21
346.331	-30.9
346.548	19.67
346.764	20.83
346.981	-3.58
347.197	-12.11
347.414	25.48
347.631	-25.87
347.847	59.96
348.064	-5.52
348.28	15.98
348.497	-47.76
348.713	-16.18
348.93	10.56
349.146	34.58
349.363	10.17
349.579	37.68
349.796	21.8
350.012	34.97
350.229	33.62
350.445	32.07
350.661	-9.78
350.878	6.3
351.094	64.42
351.311	23.54
351.527	40.4
351.743	-8.04
351.96	47.56
352.176	82.44
352.392	37.3
352.609	74.3
352.825	11.53
353.041	21.6
353.257	45.24
353.474	66.36
353.69	37.88
353.906	32.26
354.122	-0.48
354.339	81.28
354.555	39.04
354.771	19.28
354.987	106.66
355.203	109.76
355.42	31.87
355.636	29.93
355.852	17.92
356.068	50.28
356.284	11.92
356.5	84.76
356.716	39.04
356.932	31.48
357.148	75.08
357.364	48.34
357.58	72.75
357.796	89.22
358.012	81.28
358.228	48.53
358.444	-25.67
358.66	77.98
358.876	54.73
359.092	14.63
359.308	57.06
359.524	51.05
359.74	17.53
359.956	52.41
360.172	38.07
360.388	90.58
360.604	23.15
360.819	130.3
361.035	55.12
361.251	86.51
361.467	41.75
361.683	98.13
361.898	48.34
362.114	62.68
362.33	46.6
362.546	89.61
362.762	45.24
362.977	66.75
363.193	33.03
363.409	98.91
363.624	27.8
363.84	39.43
364.056	66.16
364.271	80.31
364.487	83.02
364.703	44.46
364.918	26.83
365.134	57.45
365.35	70.62
365.565	166.53
365.781	90.77
365.996	87.28
366.212	112.86
366.427	95.61
366.643	58.61
366.858	75.85
367.074	57.64
367.289	124.48
367.505	191.33
367.72	55.7
367.936	71.2
368.151	91.55
368.367	94.26
368.582	85.73
368.798	67.52
369.013	129.52
369.228	92.32
369.444	104.53
369.659	142.89
369.874	106.08
370.09	130.3
370.305	50.86
370.52	104.14
370.736	135.91
370.951	103.95
371.166	145.79
371.381	152.58
371.597	120.22
371.812	73.14
372.027	51.05
372.242	84.76
372.458	158
372.673	74.5
372.888	80.7
373.103	102.78
373.318	177.18
373.533	117.7
373.749	104.91
373.964	27.42
374.179	126.81
374.394	50.47
374.609	138.43
374.824	44.27
375.039	132.62
375.254	62.29
375.469	142.69
375.684	118.48
375.899	141.92
376.114	102.59
376.329	98.33
376.544	156.26
376.759	138.24
376.974	77.98
377.189	109.56
377.404	119.06
377.619	129.52
377.834	90.77
378.049	77.01
378.264	91.93
378.478	143.47
378.693	90.38
378.908	179.89
379.123	124.1
379.338	162.07
379.553	156.45
379.767	154.9
379.982	149.67
380.197	116.93
380.412	134.56
380.626	138.43
380.841	204.69
381.056	156.06
381.271	200.63
381.485	100.26
381.7	96.97
381.915	142.69
382.129	95.03
382.344	141.73
382.559	115.18
382.773	155.87
382.988	73.91
383.202	91.74
383.417	92.71
383.632	210.31
383.846	93.68
384.061	77.01
384.275	107.82
384.49	129.91
384.704	135.91
384.919	147.93
385.133	122.93
385.348	174.28
385.562	129.13
385.777	172.14
385.991	105.88
386.206	122.55
386.42	123.32
386.634	172.92
386.849	160.13
387.063	189.19
387.277	127.78
387.492	154.13
387.706	106.46
387.92	129.91
388.135	165.75
388.349	155.29
388.563	167.3
388.778	134.94
388.992	167.11
389.206	170.21
389.42	221.94
389.635	176.41
389.849	173.89
390.063	217.29
390.277	196.17
390.491	242.09
390.706	207.02
390.92	222.71
391.134	208.38
391.348	237.82
391.562	187.84
391.776	201.79
391.99	214.38
392.205	212.06
392.419	198.11
392.633	182.22
392.847	262.24
393.061	129.33
393.275	228.72
393.489	163.62
393.703	129.91
393.917	157.81
394.131	100.46
394.345	149.86
394.559	178.34
394.773	188.61
394.986	220.39
395.2	220.77
395.414	258.94
395.628	203.53
395.842	260.69
396.056	250.42
396.27	182.03
396.484	228.91
396.697	236.47
396.911	231.82
397.125	185.71
397.339	183.19
397.553	162.84
397.766	238.02
397.98	236.66
398.194	279.48
398.408	246.16
398.621	295.56
398.835	321.91
399.049	340.7
399.262	361.44
399.476	349.62
399.69	351.36
399.903	426.34
400.117	335.67
400.331	391.85
400.544	314.94
400.758	455.98
400.971	388.37
401.185	417.62
401.398	350.2
401.612	416.27
401.826	409.29
402.039	401.54
402.253	395.15
402.466	425.76
402.68	414.91
402.893	406
403.106	407.93
403.32	390.89
403.533	416.65
403.747	381.59
403.96	402.9
404.174	446.49
404.387	392.24
404.6	408.52
404.814	456.76
405.027	402.7
405.24	407.74
405.454	394.95
405.667	426.92
405.88	400.18
406.094	458.31
406.307	466.45
406.52	436.8
406.733	378.29
406.947	354.65
407.16	476.72
407.373	464.7
407.586	423.82
407.799	442.03
408.012	443.2
408.226	458.89
408.439	485.43
408.652	411.03
408.865	509.07
409.078	542.2
409.291	505
409.504	449.2
409.717	508.68
409.93	519.53
410.143	470.52
410.357	388.75
410.57	375.58
410.783	417.82
410.996	449.78
411.209	456.18
411.421	550.73
411.634	496.48
411.847	488.15
412.06	531.16
412.273	520.89
412.486	523.21
412.699	615.05
412.912	522.83
413.125	521.86
413.338	519.15
413.55	559.64
413.763	518.18
413.976	526.31
414.189	511.59
414.402	520.5
414.615	609.63
414.827	510.62
415.04	568.94
415.253	571.65
415.466	560.61
415.678	615.83
415.891	552.86
416.104	529.22
416.316	543.75
416.529	531.35
416.742	593.35
416.954	626.48
417.167	555.76
417.38	548.4
417.592	608.27
417.805	527.09
418.017	541.81
418.23	581.14
418.442	535.61
418.655	531.35
418.868	548.6
419.08	582.69
419.293	605.17
419.505	584.44
419.718	591.99
419.93	616.02
420.142	545.11
420.355	586.18
420.567	606.91
420.78	607.88
420.992	576.88
421.205	646.44
421.417	583.66
421.629	616.6
421.842	585.41
422.054	567.2
422.266	654.38
422.479	682.28
422.691	578.82
422.903	627.64
423.115	543.56
423.328	566.81
423.54	619.12
423.752	582.5
423.964	590.25
424.177	616.21
424.389	604.78
424.601	727.23
424.813	627.06
425.025	681.12
425.238	650.31
425.45	614.08
425.662	604.78
425.874	931.83
426.086	628.61
426.298	672.01
426.51	626.68
426.722	644.5
426.934	616.21
427.146	668.33
427.358	602.07
427.57	657.48
427.782	621.44
427.994	581.53
428.206	599.74
428.418	604.59
428.63	704.17
428.842	675.11
429.054	641.01
429.266	663.49
429.478	598.19
429.69	603.23
429.902	586.76
430.114	613.5
430.325	591.22
430.537	525.93
430.749	533.29
430.961	472.84
431.173	491.83
431.384	536.2
431.596	467.22
431.808	558.86
432.02	629
432.231	724.32
432.443	788.07
432.655	743.12
432.867	666.78
433.078	733.24
433.29	783.22
433.502	771.6
433.713	770.63
433.925	767.14
434.136	803.76
434.348	681.31
434.56	631.91
434.771	791.36
434.983	646.63
435.194	704.37
435.406	728.01
435.617	824.69
435.829	855.88
436.04	827.79
436.252	803.37
436.463	861.69
436.675	901.8
436.886	883.58
437.098	871.18
437.309	890.17
437.521	864.21
437.732	847.55
437.943	828.95
438.155	815.77
438.366	781.67
438.578	844.06
438.789	784.97
439	817.32
439.211	780.32
439.423	804.34
439.634	830.11
439.845	835.34
440.057	844.45
440.268	894.82
440.479	873.32
440.69	889.01
440.902	846.58
441.113	819.07
441.324	846.58
441.535	896.95
441.746	964.96
441.957	888.04
442.168	906.25
442.38	962.44
442.591	953.91
442.802	916.33
443.013	925.63
443.224	1005.84
443.435	952.95
443.646	930.66
443.857	924.27
444.068	934.54
444.279	905.09
444.49	1032.58
444.701	995.96
444.912	1069
445.123	1017.85
445.334	992.28
445.545	1009.13
445.756	964.76
445.967	945.58
446.178	977.16
446.388	952.56
446.599	960.11
446.81	974.84
447.021	949.46
447.232	1003.9
447.443	1016.69
447.653	974.84
447.864	1060.86
448.075	1039.36
448.286	1041.88
448.496	1038.58
448.707	1087.41
448.918	1015.14
449.129	1100.19
449.339	1011.84
449.55	1077.14
449.761	1031.03
449.971	1078.11
450.182	1050.21
450.393	1075.98
450.603	1063.38
450.814	1144.37
451.024	1119.57
451.235	1163.36
451.446	1199.2
451.656	1160.45
451.867	1122.47
452.077	1130.61
452.288	1177.69
452.498	1160.84
452.709	1115.31
452.919	1080.63
453.13	1025.41
453.34	1077.91
453.55	1016.69
453.761	1100
453.971	1079.46
454.182	1101.16
454.392	1104.46
454.602	1193.39
454.813	1104.07
455.023	1140.69
455.233	1048.46
455.444	1143.01
455.654	1028.51
455.864	1120.15
456.075	1092.06
456.285	1076.56
456.495	1123.06
456.705	1141.85
456.916	1198.62
457.126	1244.92
457.336	1157.93
457.546	1092.83
457.756	1163.74
457.967	1222.64
458.177	1166.65
458.387	1173.82
458.597	1140.3
458.807	1148.05
459.017	1118.02
459.227	1130.22
459.437	1129.64
459.647	1186.99
459.857	1182.54
460.068	1165.68
460.278	1233.1
460.488	1207.34
460.698	1250.15
460.908	1195.32
461.117	1166.46
461.327	1193.19
461.537	1249.19
461.747	1237.75
461.957	1200.55
462.167	1353.81
462.377	1246.28
462.587	1242.6
462.797	1280.38
463.007	1257.32
463.216	1313.32
463.426	1342.57
463.636	1272.82
463.846	1192.61
464.056	1220.32
464.265	1267.4
464.475	1181.37
464.685	1238.34
464.895	1263.52
465.104	1224.39
465.314	1299.95
465.524	1216.83
465.733	1196.68
465.943	1303.05
466.153	1320.1
466.362	1310.8
466.572	1304.6
466.782	1254.22
466.991	1285.61
467.201	1316.03
467.41	1197.45
467.62	1309.05
467.829	1298.2
468.039	1308.28
468.249	1292.58
468.458	1328.04
468.668	1348.19
468.877	1348.38
469.086	1403.8
469.296	1384.61
469.505	1360.4
469.715	1404.18
469.924	1373.57
470.134	1448.55
470.343	1431.11
470.552	1381.71
470.762	1344.32
470.971	1328.04
471.18	1376.28
471.39	1407.67
471.599	1374.35
471.808	1410.96
472.018	1400.11
472.227	1508.23
472.436	1523.14
472.645	1518.49
472.855	1440.03
473.064	1587.47
473.273	1532.83
473.482	1528.96
473.691	1565.96
473.901	1560.73
474.11	1506.48
474.319	1612.66
474.528	1526.44
474.737	1634.55
474.946	1617.89
475.155	1623.89
475.364	1654.5
475.573	1622.34
475.783	1652.18
475.992	1627.57
476.201	1664
476.41	1665.94
476.619	1602.77
476.828	1660.9
477.037	1564.02
477.245	1619.44
477.454	1684.34
477.663	1684.34
477.872	1718.05
478.081	1789.16
478.29	1690.35
478.499	1859.1
478.708	1795.94
478.917	1876.73
479.125	1760.1
479.334	1768.23
479.543	1781.41
479.752	1855.81
479.961	1821.32
480.169	1913.54
480.378	1881.58
480.587	2019.72
480.796	1925.56
481.004	1929.43
481.213	1912.96
481.422	1926.53
481.63	1960.24
481.839	1971.86
482.048	2030.18
482.256	1985.23
482.465	2030.18
482.674	2060.4
482.882	2037.93
483.091	2121.44
483.299	2037.54
483.508	2084.62
483.716	2080.17
483.925	2099.93
484.134	2061.37
484.342	2074.94
484.551	2097.41
484.759	2073
484.967	2175.49
485.176	2168.71
485.384	2177.23
485.593	2125.89
485.801	2158.83
486.01	2064.28
486.218	1965.86
486.426	1831.2
486.635	1847.28
486.843	1797.3
487.051	1892.23
487.26	1881.58
487.468	1982.71
487.676	2025.92
487.885	2035.8
488.093	2114.65
488.301	2162.7
488.509	2199.71
488.717	2242.72
488.926	2209.98
489.134	2212.3
489.342	2242.33
489.55	2163.87
489.758	2212.5
489.967	2245.43
490.175	2386.48
490.383	2337.46
490.591	2453.71
490.799	2333.78
491.007	2437.44
491.215	2370.59
491.423	2354.32
491.631	2378.15
491.839	2334.36
492.047	2325.06
492.255	2314.8
492.463	2269.85
492.671	2247.95
492.879	2369.82
493.087	2327.97
493.295	2369.24
493.503	2443.44
493.711	2475.8
493.919	2475.61
494.127	2460.49
494.334	2452.94
494.542	2407.41
494.75	2463.79
494.958	2444.02
495.166	2542.84
495.374	2559.3
495.581	2522.1
495.789	2554.46
495.997	2605.42
496.205	2486.46
496.412	2500.21
496.62	2499.05
496.828	2536.64
497.035	2556.4
497.243	2592.63
497.451	2590.69
497.658	2562.4
497.866	2595.73
498.074	2657.73
498.281	2527.72
498.489	2614.13
498.696	2502.73
498.904	2462.43
499.112	2477.16
499.319	2573.45
499.527	2588.75
499.734	2589.72
499.942	2549.81
500.149	2535.86
500.357	2599.99
500.564	2513.97
500.771	2530.63
500.979	2473.67
501.186	2450.22
501.394	2492.46
501.601	2465.53
501.808	2510.29
502.016	2455.65
502.223	2461.85
502.43	2499.63
502.638	2553.1
502.845	2519.59
503.052	2618.78
503.26	2484.91
503.467	2644.36
503.674	2586.23
503.881	2600.57
504.089	2689.5
504.296	2615.3
504.503	2494.98
504.71	2556.4
504.917	2496.34
505.125	2580.03
505.332	2577.32
505.539	2585.65
505.746	2714.88
505.953	2685.05
506.16	2702.68
506.367	2767.39
506.574	2812.34
506.781	2804.78
506.988	2719.53
507.195	2746.66
507.402	2688.34
507.609	2770.29
507.816	2676.33
508.023	2650.37
508.23	2642.23
508.437	2596.31
508.644	2661.8
508.851	2680.2
509.058	2717.98
509.265	2702.48
509.472	2746.46
509.679	2806.33
509.885	2770.88
510.092	2757.12
510.299	2728.64
510.506	2710.81
510.713	2754.6
510.92	2726.51
511.126	2750.15
511.333	2785.79
511.54	2786.96
511.746	2855.93
511.953	2851.28
512.16	2857.29
512.367	2816.41
512.573	2810.4
512.78	2838.88
512.987	2781.14
513.193	2798.19
513.4	2685.24
513.606	2747.24
513.813	2775.14
514.02	2773.2
514.226	2787.93
514.433	2810.59
514.639	2723.02
514.846	2759.44
515.052	2729.8
515.259	2791.99
515.465	2802.07
515.672	2817.57
515.878	2878.41
516.085	2803.81
516.291	2871.24
516.497	2802.26
516.704	2728.45
516.91	2673.23
517.117	2622.66
517.323	2504.86
517.529	2477.54
517.736	2460.69
517.942	2472.7
518.148	2567.64
518.354	2622.27
518.561	2618.59
518.767	2599.22
518.973	2641.26
519.179	2647.85
519.386	2669.93
519.592	2649.01
519.798	2672.06
520.004	2829
520.21	2780.37
520.417	2837.91
520.623	2872.59
520.829	2907.86
521.035	2885.38
521.241	2885.77
521.447	2906.89
521.653	2981.87
521.859	2910.37
522.065	2938.66
522.271	3047.55
522.477	2968.5
522.683	3034.18
522.889	3004.92
523.095	2975.28
523.301	2910.57
523.507	2901.46
523.713	2951.25
523.919	2889.64
524.125	3047.55
524.331	3027.2
524.537	3166.31
524.742	3139.77
524.948	3147.91
525.154	3165.93
525.36	3213.78
525.566	3112.84
525.772	3191.69
525.977	3041.93
526.183	3136.67
526.389	3180.65
526.595	3056.07
526.8	3063.63
527.006	2913.47
527.212	2869.49
527.417	2840.62
527.623	2837.33
527.829	2947.57
528.034	2992.91
528.24	3013.84
528.446	3015.77
528.651	3166.51
528.857	3173.1
529.062	3239.74
529.268	3259.12
529.473	3260.09
529.679	3254.47
529.884	3385.05
530.09	3308.52
530.295	3284.5
530.501	3295.74
530.706	3309.3
530.912	3260.48
531.117	3317.82
531.323	3279.07
531.528	3347.27
531.733	3396.49
531.939	3334.49
532.144	3342.24
532.35	3348.05
532.555	3346.31
532.76	3286.82
532.966	3286.63
533.171	3269.97
533.376	3164.18
533.581	3168.45
533.787	3243.62
533.992	3277.52
534.197	3268.81
534.402	3312.98
534.607	3285.47
534.813	3337.97
535.018	3314.72
535.223	3362.19
535.428	3326.16
535.633	3408.3
535.838	3469.53
536.043	3453.25
536.249	3541.21
536.454	3425.35
536.659	3525.72
536.864	3452.48
537.069	3407.34
537.274	3464.1
537.479	3376.34
537.684	3373.43
537.889	3321.7
538.094	3438.92
538.299	3374.98
538.504	3402.3
538.708	3421.87
538.913	3480.77
539.118	3478.25
539.323	3433.3
539.528	3367.04
539.733	3372.65
539.938	3403.46
540.142	3424.77
540.347	3398.23
540.552	3333.52
540.757	3327.32
540.962	3361.42
541.166	3258.34
541.371	3279.27
541.576	3304.26
541.781	3208.36
541.985	3435.24
542.19	3368.97
542.395	3498.01
542.599	3483.28
542.804	3413.34
543.008	3496.27
543.213	3451.32
543.418	3389.32
543.622	3433.1
543.827	3386.8
544.031	3475.15
544.236	3511.57
544.44	3474.57
544.645	3550.9
544.849	3465.27
545.054	3508.08
545.258	3587.52
545.463	3558.26
545.667	3484.25
545.872	3526.1
546.076	3503.82
546.281	3524.55
546.485	3471.66
546.689	3508.67
546.894	3542.57
547.098	3481.54
547.302	3420.51
547.507	3518.93
547.711	3504.21
547.915	3516.03
548.119	3362.58
548.324	3394.55
548.528	3479.02
548.732	3429.42
548.936	3489.48
549.141	3482.9
549.345	3473.21
549.549	3480.96
549.753	3532.11
549.957	3614.06
550.161	3574.73
550.366	3537.15
550.57	3479.8
550.774	3498.2
550.978	3477.08
551.182	3487.16
551.386	3424.77
551.59	3420.12
551.794	3431.36
551.998	3509.44
552.202	3441.05
552.406	3400.36
552.61	3519.32
552.814	3549.74
553.018	3531.33
553.222	3434.46
553.426	3437.75
553.63	3563.3
553.833	3483.48
554.037	3427.29
554.241	3441.63
554.445	3473.21
554.649	3495.49
554.853	3452.87
555.056	3506.15
555.26	3530.95
555.464	3472.24
555.668	3543.93
555.871	3510.8
556.075	3565.24
556.279	3497.04
556.483	3442.99
556.686	3400.94
556.89	3462.55
557.094	3488.71
557.297	3351.54
557.501	3443.95
557.704	3337.39
557.908	3400.94
558.112	3432.52
558.315	3485.61
558.519	3356.38
558.722	3348.63
558.926	3369.75
559.129	3250.98
559.333	3279.27
559.536	3281.59
559.74	3267.45
559.943	3217.27
560.147	3269
560.35	3245.94
560.553	3298.64
560.757	3234.71
560.96	3329.26
561.164	3281.21
561.367	3385.83
561.57	3349.02
561.774	3347.66
561.977	3322.28
562.18	3268.61
562.384	3312.79
562.587	3248.46
562.79	3232.58
562.993	3268.03
563.197	3286.82
563.4	3278.49
563.603	3347.86
563.806	3361.81
564.009	3291.09
564.212	3320.92
564.416	3216.11
564.619	3246.53
564.822	3182.59
565.025	3323.44
565.228	3229.09
565.431	3285.08
565.634	3142.1
565.837	3175.03
566.04	3156.82
566.243	3146.16
566.446	3029.72
566.649	3172.13
566.852	3064.98
567.055	3125.24
567.258	3126.6
567.461	3194.6
567.664	3181.23
567.867	3138.8
568.07	3125.82
568.273	3144.61
568.475	3179.88
568.678	3090.37
568.881	3130.86
569.084	3096.76
569.287	2983.22
569.489	3024.68
569.692	3088.23
569.895	3066.73
570.098	2998.72
570.3	2981.48
570.503	2931.69
570.706	2950.09
570.909	2939.44
571.111	2876.08
571.314	2856.71
571.516	2913.67
571.719	2940.02
571.922	2877.63
572.124	2884.99
572.327	2940.79
572.529	2884.22
572.732	2897.39
572.935	2918.51
573.137	3056.65
573.34	2903.59
573.542	2990.39
573.745	2979.15
573.947	2938.66
574.15	2916.57
574.352	2899.33
574.554	3013.84
574.757	2863.68
574.959	2878.41
575.162	2897.39
575.364	2859.03
575.566	2952.03
575.769	2798
575.971	2860.58
576.173	2740.26
576.376	2847.6
576.578	2900.3
576.78	2879.37
576.982	2765.06
577.185	2803.43
577.387	2791.22
577.589	2792.96
577.791	2844.89
577.993	2852.06
578.196	2791.03
578.398	2814.08
578.6	2795.09
578.802	2727.09
579.004	2682.14
579.206	2755.57
579.408	2801.1
579.61	2738.91
579.812	2828.61
580.014	2722.44
580.216	2728.83
580.418	2748.79
580.62	2726.12
580.822	2707.33
581.024	2780.76
581.226	2808.85
581.428	2793.74
581.63	2854.19
581.832	2737.75
582.034	2792.19
582.236	2808.85
582.438	2827.06
582.64	2873.95
582.841	2861.74
583.043	2895.26
583.245	2785.21
583.447	2835.78
583.649	2839.46
583.85	2826.68
584.052	2859.42
584.254	2806.72
584.456	2854.19
584.657	2747.63
584.859	2801.1
585.061	2783.08
585.262	2711.01
585.464	2707.52
585.666	2805.94
585.867	2737.55
586.069	2788.89
586.27	2738.52
586.472	2721.66
586.674	2714.69
586.875	2721.08
587.077	2659.67
587.278	2708.3
587.48	2667.8
587.681	2829.39
587.883	2697.25
588.084	2636.8
588.285	2690.28
588.487	2653.08
588.688	2628.08
588.89	2562.79
589.091	2530.05
589.292	2525.4
589.494	2406.82
589.695	2366.14
589.896	2321.58
590.098	2298.13
590.299	2355.29
590.5	2369.82
590.702	2394.62
590.903	2419.81
591.104	2481.61
591.305	2509.32
591.507	2555.82
591.708	2545.16
591.909	2473.86
592.11	2563.57
592.311	2549.81
592.512	2476.38
592.714	2460.88
592.915	2505.83
593.116	2486.26
593.317	2521.33
593.518	2504.47
593.719	2485.29
593.92	2557.95
594.121	2531.4
594.322	2505.44
594.523	2520.75
594.724	2470.96
594.925	2494.4
595.126	2510.87
595.327	2527.72
595.528	2500.99
595.729	2481.81
595.929	2467.47
596.13	2476.77
596.331	2485.49
596.532	2518.62
596.733	2589.53
596.934	2553.3
597.135	2553.49
597.335	2541.67
597.536	2487.81
597.737	2515.9
597.938	2512.61
598.138	2549.04
598.339	2503.7
598.54	2518.42
598.74	2492.65
598.941	2517.07
599.142	2563.18
599.342	2504.47
599.543	2440.15
599.744	2473.47
599.944	2488.39
600.145	2470.96
600.345	2482
600.546	2566.86
600.746	2517.26
600.947	2581
601.147	2476.77
601.348	2563.95
601.548	2453.52
601.749	2510.67
601.949	2451.19
602.15	2451.19
602.35	2457.78
602.551	2478.32
602.751	2418.84
602.951	2451.58
603.152	2394.81
603.352	2507.19
603.552	2425.81
603.753	2525.01
603.953	2477.74
604.153	2522.3
604.354	2528.5
604.554	2523.85
604.754	2502.34
604.954	2488.2
605.155	2559.11
605.355	2518.42
605.555	2517.26
605.755	2545.55
605.955	2547.68
606.155	2545.55
606.356	2504.28
606.556	2536.44
606.756	2521.91
606.956	2467.86
607.156	2538.19
607.356	2454.29
607.556	2523.46
607.756	2492.27
607.956	2511.45
608.156	2489.56
608.356	2432.98
608.556	2518.23
608.756	2401.98
608.956	2409.73
609.156	2458.36
609.356	2388.81
609.556	2397.33
609.755	2423.49
609.955	2393.84
610.155	2427.94
610.355	2454.49
610.555	2388.42
610.755	2364.2
610.954	2334.56
611.154	2352.77
611.354	2406.24
611.554	2360.71
611.753	2337.08
611.953	2349.09
612.153	2400.24
