Data from gum_old_FLMT105791__103__15-45-52-253.txt Node

Date: Mon Mar 20 15:45:52 GMT 2023
User: antho
Spectrometer: FLMT10579
Trigger mode: 0
Integration Time (sec): 1.000000E-1
Scans to average: 10
Electric dark correction enabled: true
Nonlinearity correction enabled: false
Boxcar width: 0
XAxis mode: Wavelengths
Number of Pixels in Spectrum: 3648
>>>>>Begin Spectral Data<<<<<
345.248	-212.88
345.464	-212.88
345.681	-212.88
345.898	-176.46
346.114	-159.41
346.331	-51.88
346.548	27.17
346.764	-0.15
346.981	-12.93
347.197	-14.1
347.414	47.52
347.631	-40.06
347.847	60.69
348.064	-1.31
348.28	2.57
348.497	-32.5
348.713	14.97
348.93	39.19
349.146	30.66
349.363	-8.48
349.579	22.72
349.796	-18.36
350.012	-3.05
350.229	45.97
350.445	21.36
350.661	1.4
350.878	10.9
351.094	33.57
351.311	22.72
351.527	25.62
351.743	-9.06
351.96	61.85
352.176	47.32
352.392	30.66
352.609	73.67
352.825	-2.28
353.041	5.09
353.257	-9.83
353.474	17.49
353.69	18.84
353.906	17.1
354.122	-6.73
354.339	61.47
354.555	8.77
354.771	-2.66
354.987	73.28
355.203	77.35
355.42	8.77
355.636	19.23
355.852	2.95
356.068	15.16
356.284	-43.74
356.5	97.31
356.716	33.37
356.932	12.45
357.148	52.55
357.364	14.58
357.58	80.65
357.796	62.05
358.012	51.39
358.228	52.36
358.444	-51.29
358.66	58.75
358.876	19.23
359.092	5.86
359.308	21.17
359.524	30.47
359.74	18.07
359.956	-5.76
360.172	27.37
360.388	86.27
360.604	-5.38
360.819	113.39
361.035	17.68
361.251	65.34
361.467	-20.49
361.683	86.85
361.898	35.5
362.114	78.13
362.33	63.6
362.546	63.4
362.762	23.3
362.977	39.19
363.193	-1.31
363.409	81.42
363.624	-0.15
363.84	5.67
364.056	18.26
364.271	34.54
364.487	41.7
364.703	14.58
364.918	12.06
365.134	21.36
365.35	18.65
365.565	125.6
365.781	53.91
365.996	45.58
366.212	98.28
366.427	61.47
366.643	26.79
366.858	32.02
367.074	38.02
367.289	76.77
367.505	139.74
367.72	-8.09
367.936	11.29
368.151	88.78
368.367	75.42
368.582	36.47
368.798	36.47
369.013	57.98
369.228	51.2
369.444	45.97
369.659	92.27
369.874	40.15
370.09	84.33
370.305	-22.81
370.52	26.4
370.736	104.87
370.951	57.59
371.166	92.08
371.381	93.63
371.597	63.99
371.812	18.84
372.027	24.85
372.242	49.65
372.458	127.15
372.673	23.69
372.888	45.19
373.103	57.98
373.318	136.06
373.533	57.79
373.749	62.82
373.964	-8.09
374.179	101.38
374.394	38.99
374.609	95.95
374.824	19.04
375.039	96.92
375.254	25.04
375.469	80.65
375.684	56.04
375.899	89.37
376.114	67.47
376.329	39.77
376.544	91.11
376.759	76.58
376.974	25.24
377.189	36.67
377.404	20.97
377.619	82
377.834	2.95
378.049	2.37
378.264	12.25
378.478	87.04
378.693	55.07
378.908	90.92
379.123	28.92
379.338	102.54
379.553	93.24
379.767	82.39
379.982	61.27
380.197	98.08
380.412	50.23
380.626	70.96
380.841	130.63
381.056	119.78
381.271	118.04
381.485	37.83
381.7	17.29
381.915	72.7
382.129	40.93
382.344	63.79
382.559	62.44
382.773	77.55
382.988	-3.44
383.202	64.37
383.417	31.44
383.632	143.42
383.846	57.4
384.061	70.38
384.275	47.71
384.49	58.17
384.704	97.89
384.919	71.93
385.133	53.52
385.348	107
385.562	37.64
385.777	103.32
385.991	56.04
386.206	42.09
386.42	48.29
386.634	117.07
386.849	83.75
387.063	69.02
387.277	59.53
387.492	57.2
387.706	51
387.92	7.41
388.135	115.13
388.349	79.87
388.563	60.5
388.778	71.15
388.992	104.67
389.206	108.55
389.42	158.15
389.635	88.59
389.849	118.23
390.063	139.74
390.277	101.77
390.491	149.43
390.706	115.33
390.92	140.52
391.134	86.85
391.348	127.73
391.562	23.88
391.776	76.58
391.99	93.24
392.205	120.75
392.419	80.45
392.633	75.8
392.847	130.05
393.061	97.5
393.275	158.15
393.489	68.83
393.703	83.36
393.917	88.4
394.131	52.17
394.345	90.92
394.559	130.25
394.773	71.54
394.986	120.17
395.2	100.99
395.414	144.2
395.628	77.16
395.842	146.72
396.056	110.1
396.27	52.75
396.484	138.19
396.697	115.13
396.911	136.45
397.125	121.72
397.339	127.53
397.553	93.05
397.766	167.06
397.98	135.87
398.194	167.45
398.408	109.13
398.621	152.72
398.835	184.88
399.049	159.5
399.262	182.17
399.476	189.15
399.69	183.91
399.903	202.13
400.117	168.41
400.331	183.72
400.544	132.96
400.758	287.18
400.971	189.15
401.185	231.38
401.398	168.22
401.612	225.57
401.826	228.48
402.039	202.71
402.253	177.13
402.466	238.75
402.68	192.83
402.893	208.13
403.106	202.51
403.32	196.7
403.533	212.01
403.747	199.61
403.96	194.57
404.174	194.18
404.387	155.05
404.6	193.6
404.814	254.05
405.027	195.93
405.24	197.09
405.454	181.98
405.667	218.21
405.88	156.21
406.094	225.57
406.307	216.27
406.52	210.26
406.733	168.22
406.947	158.53
407.16	296.29
407.373	247.46
407.586	213.17
407.799	177.33
408.012	251.53
408.226	222.08
408.439	255.21
408.652	172.68
408.865	233.32
409.078	279.82
409.291	247.46
409.504	174.61
409.717	252.89
409.93	264.71
410.143	251.14
410.357	187.4
410.57	169.58
410.783	202.51
410.996	223.63
411.209	231.19
411.421	270.52
411.634	241.07
411.847	214.33
412.06	227.7
412.273	253.47
412.486	257.34
412.699	341.24
412.912	255.02
413.125	281.76
413.338	261.8
413.55	271.68
413.763	233.9
413.976	264.32
414.189	199.41
414.402	247.08
414.615	314.11
414.827	245.53
415.04	280.98
415.253	254.44
415.466	295.51
415.678	321.48
415.891	273.23
416.104	257.54
416.316	248.82
416.529	233.9
416.742	300.94
416.954	301.13
417.167	305.39
417.38	245.72
417.592	321.67
417.805	226.73
418.017	209.68
418.23	307.72
418.442	252.89
418.655	242.43
418.868	289.7
419.08	292.22
419.293	308.3
419.505	269.74
419.718	315.66
419.93	332.52
420.142	251.14
420.355	333.1
420.567	326.13
420.78	261.99
420.992	264.9
421.205	326.13
421.417	239.52
421.629	299.58
421.842	256.76
422.054	246.69
422.266	306.56
422.479	343.76
422.691	245.72
422.903	335.62
423.115	274.98
423.328	286.6
423.54	285.44
423.752	291.64
423.964	257.34
424.177	324.19
424.389	305.2
424.601	388.51
424.813	293.38
425.025	356.16
425.238	331.94
425.45	287.18
425.662	296.87
425.874	630.5
426.086	294.16
426.298	320.31
426.51	306.56
426.722	297.84
426.934	273.23
427.146	336.59
427.358	292.03
427.57	320.51
427.782	291.64
427.994	284.66
428.206	262.19
428.418	257.34
428.63	315.28
428.842	353.83
429.054	329.81
429.266	367.59
429.478	259.86
429.69	309.46
429.902	233.32
430.114	329.03
430.325	299.19
430.537	251.34
430.749	268.97
430.961	215.3
431.173	227.12
431.384	262.96
431.596	188.56
431.808	278.85
432.02	303.84
432.231	337.56
432.443	380.57
432.655	342.59
432.867	315.28
433.078	353.25
433.29	389.87
433.502	374.17
433.713	378.24
433.925	358.09
434.136	399.36
434.348	313.73
434.56	255.6
434.771	428.04
434.983	305.2
435.194	326.51
435.406	351.89
435.617	407.89
435.829	452.84
436.04	398.2
436.252	427.07
436.463	416.8
436.675	430.75
436.886	418.74
437.098	416.41
437.309	473.57
437.521	407.5
437.732	418.35
437.943	409.24
438.155	421.25
438.366	346.27
438.578	446.44
438.789	385.22
439	395.87
439.211	363.32
439.423	406.92
439.634	393.74
439.845	410.41
440.057	405.95
440.268	423.58
440.479	406.14
440.69	431.91
440.902	398.97
441.113	421.25
441.324	386.38
441.535	447.02
441.746	479.38
441.957	410.21
442.168	406.14
442.38	437.14
442.591	440.24
442.802	421.06
443.013	466.59
443.224	465.04
443.435	436.75
443.646	439.85
443.857	437.34
444.068	434.04
444.279	401.69
444.49	524.52
444.701	457.87
444.912	558.04
445.123	515.8
445.334	491.39
445.545	473.76
445.756	476.28
445.967	420.29
446.178	487.9
446.388	488.29
446.599	459.04
446.81	486.94
447.021	431.72
447.232	487.71
447.443	525.3
447.653	461.55
447.864	528.2
448.075	482.67
448.286	536.73
448.496	521.03
448.707	512.32
448.918	475.31
449.129	596.4
449.339	481.9
449.55	487.71
449.761	514.45
449.971	537.7
450.182	479.19
450.393	537.89
450.603	500.89
450.814	552.42
451.024	558.82
451.235	589.81
451.446	605.9
451.656	609.96
451.867	491
452.077	538.28
452.288	583.62
452.498	584.97
452.709	534.02
452.919	542.54
453.13	493.91
453.34	562.11
453.55	455.16
453.761	548.93
453.971	514.83
454.182	559.59
454.392	545.83
454.602	597.95
454.813	575.87
455.023	584.97
455.233	483.25
455.444	529.37
455.654	488.29
455.864	510.18
456.075	526.27
456.285	515.03
456.495	519.29
456.705	536.53
456.916	626.24
457.126	598.92
457.336	547.97
457.546	467.37
457.756	527.82
457.967	607.06
458.177	554.75
458.387	549.52
458.597	503.02
458.807	547.77
459.017	533.63
459.227	510.18
459.437	513.48
459.647	582.07
459.857	562.3
460.068	560.37
460.278	622.95
460.488	576.83
460.698	615.39
460.908	571.6
461.117	503.98
461.327	528.4
461.537	577.03
461.747	570.25
461.957	583.42
462.167	684.75
462.377	622.56
462.587	565.6
462.797	618.68
463.007	541.77
463.216	670.61
463.426	651.04
463.636	639.03
463.846	528.01
464.056	586.13
464.265	632.05
464.475	579.16
464.685	586.72
464.895	645.03
465.104	571.02
465.314	616.94
465.524	592.72
465.733	583.62
465.943	683.01
466.153	661.5
466.362	642.51
466.572	624.3
466.782	580.13
466.991	613.84
467.201	679.71
467.41	564.43
467.62	619.46
467.829	639.8
468.039	651.23
468.249	627.79
468.458	632.83
468.668	626.05
468.877	650.26
469.086	666.93
469.296	669.83
469.505	625.66
469.715	712.26
469.924	694.44
470.134	718.08
470.343	682.23
470.552	650.85
470.762	647.75
470.971	636.31
471.18	636.12
471.39	651.43
471.599	636.31
471.808	682.04
472.018	631.08
472.227	703.16
472.436	729.31
472.645	704.13
472.855	697.73
473.064	767.29
473.273	739.78
473.482	751.4
473.691	740.55
473.901	760.31
474.11	693.08
474.319	811.46
474.528	734.93
474.737	808.17
474.946	781.04
475.155	761.28
475.364	820.18
475.573	762.44
475.783	788.6
475.992	804.29
476.201	828.51
476.41	767.09
476.619	771.74
476.828	790.73
477.037	759.15
477.245	788.79
477.454	852.54
477.663	785.89
477.872	791.7
478.081	858.54
478.29	788.6
478.499	912.99
478.708	841.11
478.917	907.17
479.125	838.01
479.334	859.12
479.543	856.6
479.752	866.87
479.961	853.7
480.169	925.77
480.378	853.12
480.587	1019.16
480.796	915.5
481.004	896.13
481.213	933.52
481.422	911.24
481.63	886.05
481.839	952.9
482.048	1022.45
482.256	950.96
482.465	941.08
482.674	1010.83
482.882	993.97
483.091	1024.97
483.299	954.45
483.508	1030.01
483.716	973.24
483.925	992.23
484.134	967.43
484.342	934.88
484.551	1001.33
484.759	984.48
484.967	1036.79
485.176	1033.5
485.384	1042.6
485.593	1057.13
485.801	991.26
486.01	970.72
486.218	966.07
486.426	845.56
486.635	899.42
486.843	853.89
487.051	901.17
487.26	871.14
487.468	929.26
487.676	1016.25
487.885	946.12
488.093	985.06
488.301	1053.06
488.509	1025.17
488.717	1069.73
488.926	1032.72
489.134	1034.08
489.342	1038.92
489.55	1004.05
489.758	1050.55
489.967	1033.11
490.175	1176.68
490.383	1068.76
490.591	1165.44
490.799	1038.53
491.007	1167.96
491.215	1111
491.423	1129.4
491.631	1079.03
491.839	1113.32
492.047	1135.21
492.255	1008.31
492.463	1021.29
492.671	1065.27
492.879	1106.73
493.087	1090.85
493.295	1121.65
493.503	1156.14
493.711	1184.62
493.919	1197.99
494.127	1189.27
494.334	1187.14
494.542	1111.77
494.75	1121.65
494.958	1164.08
495.166	1235.19
495.374	1213.49
495.581	1193.53
495.789	1209.22
495.997	1237.51
496.205	1203.8
496.412	1172.22
496.62	1157.88
496.828	1205.74
497.035	1182.1
497.243	1253.4
497.451	1214.07
497.658	1215.42
497.866	1215.42
498.074	1290.6
498.281	1185.78
498.489	1272.19
498.696	1227.44
498.904	1208.84
499.112	1163.89
499.319	1277.42
499.527	1239.06
499.734	1266.57
499.942	1200.89
500.149	1210.58
500.357	1262.51
500.564	1217.56
500.771	1236.35
500.979	1160.01
501.186	1212.32
501.394	1225.69
501.601	1196.83
501.808	1214.65
502.016	1208.06
502.223	1193.53
502.43	1236.16
502.638	1168.93
502.845	1200.31
503.052	1297.19
503.26	1228.02
503.467	1291.37
503.674	1266.57
503.881	1281.49
504.089	1339.23
504.296	1260.57
504.503	1192.56
504.71	1270.84
504.917	1210.39
505.125	1290.02
505.332	1290.21
505.539	1273.16
505.746	1366.55
505.953	1330.9
506.16	1302.03
506.367	1361.32
506.574	1418.86
506.781	1373.52
506.988	1285.95
507.195	1356.28
507.402	1339.04
507.609	1364.61
507.816	1280.91
508.023	1287.69
508.23	1302.03
508.437	1244.29
508.644	1337.87
508.851	1348.72
509.058	1322.76
509.265	1356.47
509.472	1340.59
509.679	1438.23
509.885	1371.78
510.092	1347.37
510.299	1330.9
510.506	1371.39
510.713	1402.2
510.92	1355.31
511.126	1417.89
511.333	1411.5
511.54	1387.08
511.746	1411.11
511.953	1436.1
512.16	1472.14
512.367	1364.61
512.573	1397.55
512.78	1430.1
512.987	1365.77
513.193	1380.11
513.4	1300.29
513.606	1404.52
513.813	1402.78
514.02	1401.62
514.226	1460.9
514.433	1421.57
514.639	1351.44
514.846	1383.79
515.052	1382.63
515.259	1413.82
515.465	1380.3
515.672	1409.37
515.878	1514.76
516.085	1406.27
516.291	1463.03
516.497	1424.67
516.704	1396.38
516.91	1364.03
517.117	1313.07
517.323	1266.96
517.529	1281.11
517.736	1319.08
517.942	1303.58
518.148	1318.3
518.354	1396.77
518.561	1357.64
518.767	1344.46
518.973	1423.9
519.179	1389.02
519.386	1383.79
519.592	1402.2
519.798	1391.15
520.004	1518.64
520.21	1453.93
520.417	1509.53
520.623	1548.48
520.829	1569.98
521.035	1568.43
521.241	1542.08
521.447	1525.81
521.653	1679.06
521.859	1537.24
522.065	1570.18
522.271	1664.14
522.477	1611.83
522.683	1666.66
522.889	1647.48
523.095	1610.28
523.301	1627.72
523.507	1558.16
523.713	1601.18
523.919	1588.58
524.125	1682.55
524.331	1639.73
524.537	1741.84
524.742	1728.47
524.948	1708.71
525.154	1737.19
525.36	1853.63
525.566	1715.87
525.772	1811
525.977	1696.89
526.183	1798.22
526.389	1797.05
526.595	1705.99
526.8	1711.03
527.006	1646.71
527.212	1629.08
527.417	1592.65
527.623	1612.03
527.829	1694.37
528.034	1701.34
528.24	1683.91
528.446	1676.74
528.651	1810.81
528.857	1795.12
529.062	1844.72
529.268	1821.47
529.473	1853.43
529.679	1851.5
529.884	1931.32
530.09	1878.04
530.295	1919.11
530.501	1897.8
530.706	1879.59
530.912	1851.88
531.117	1903.23
531.323	1903.03
531.528	1942.56
531.733	1946.24
531.939	1916.4
532.144	1953.99
532.35	1932.29
532.555	1943.53
532.76	1916.01
532.966	1929.96
533.171	1904.39
533.376	1837.16
533.581	1864.09
533.787	1886.57
533.992	1898.97
534.197	1960.96
534.402	1883.85
534.607	1957.09
534.813	2051.64
535.018	1944.69
535.223	1927.06
535.428	1971.04
535.633	2036.33
535.838	1988.09
536.043	2002.23
536.249	2094.07
536.454	2010.56
536.659	2049.7
536.864	2008.04
537.069	1990.61
537.274	2054.54
537.479	2015.41
537.684	1997.19
537.889	1935.39
538.094	2078.18
538.299	2010.37
538.504	2005.91
538.708	2027.42
538.913	2063.07
539.118	2016.18
539.323	2044.47
539.528	2011.53
539.733	2003.98
539.938	2038.27
540.142	2010.56
540.347	1997.39
540.552	1997.39
540.757	1937.91
540.962	1973.95
541.166	1932.68
541.371	1939.07
541.576	1956.31
541.781	1870.29
541.985	2020.44
542.19	2016.57
542.395	2098.14
542.599	2119.64
542.804	2056.09
543.008	2103.76
543.213	2021.99
543.418	1982.86
543.622	2071.4
543.827	1989.06
544.031	2079.34
544.236	2093.87
544.44	2060.74
544.645	2173.31
544.849	2058.42
545.054	2120.22
545.258	2188.42
545.463	2173.7
545.667	2017.73
545.872	2135.53
546.076	2104.72
546.281	2116.54
546.485	2065.39
546.689	2112.86
546.894	2152.58
547.098	2128.17
547.302	2060.74
547.507	2090.77
547.711	2113.06
547.915	2177.38
548.119	2060.55
548.324	2080.51
548.528	2127.39
548.732	2085.54
548.936	2132.43
549.141	2158.59
549.345	2088.06
549.549	2113.25
549.753	2134.76
549.957	2228.72
550.161	2189.59
550.366	2164.4
550.57	2120.03
550.774	2087.09
550.978	2102.98
551.182	2147.16
551.386	2107.63
551.59	2141.34
551.794	2103.95
551.998	2136.11
552.202	2094.46
552.406	2068.49
552.61	2169.24
552.814	2145.99
553.018	2223.49
553.222	2134.17
553.426	2110.73
553.63	2194.62
553.833	2131.07
554.037	2076.82
554.241	2145.41
554.445	2091.36
554.649	2130.49
554.853	2139.99
555.056	2170.99
555.26	2160.91
555.464	2167.11
555.668	2165.37
555.871	2182.8
556.075	2210.32
556.279	2122.55
556.483	2076.44
556.686	2064.62
556.89	2152
557.094	2130.69
557.297	2027.03
557.501	2107.24
557.704	2027.23
557.908	2091.36
558.112	2038.08
558.315	2140.18
558.519	2038.85
558.722	2085.54
558.926	2023.35
559.129	1964.45
559.333	1982.08
559.536	1950.89
559.74	1964.84
559.943	1932.1
560.147	1928.8
560.35	1962.13
560.553	2014.83
560.757	1887.73
560.96	2025.29
561.164	2003.78
561.367	2094.46
561.57	2004.56
561.774	2013.08
561.977	2004.75
562.18	1953.02
562.384	2049.51
562.587	1961.35
562.79	1927.64
562.993	1969.88
563.197	1999.71
563.4	2039.63
563.603	2039.43
563.806	2069.27
564.009	1940.23
564.212	1966.58
564.416	1885.98
564.619	1931.32
564.822	1882.88
565.025	1993.9
565.228	1944.88
565.431	1960.38
565.634	1826.5
565.837	1877.27
566.04	1839.29
566.243	1861.57
566.446	1776.13
566.649	1841.42
566.852	1799.19
567.055	1827.86
567.258	1880.75
567.461	1955.15
567.664	1922.02
567.867	1792.99
568.07	1819.92
568.273	1863.32
568.475	1879.2
568.678	1806.55
568.881	1830.96
569.084	1818.56
569.287	1698.05
569.489	1745.13
569.692	1829.02
569.895	1832.9
570.098	1723.24
570.3	1728.08
570.503	1684.29
570.706	1693.98
570.909	1684.1
571.111	1682.36
571.314	1598.85
571.516	1688.17
571.719	1705.99
571.922	1672.28
572.124	1649.22
572.327	1712.97
572.529	1626.36
572.732	1657.56
572.935	1707.16
573.137	1747.84
573.34	1665.69
573.542	1724.98
573.745	1708.51
573.947	1700.18
574.15	1685.26
574.352	1643.8
574.554	1709.48
574.757	1632.37
574.959	1626.56
575.162	1595.94
575.364	1626.17
575.566	1722.85
575.769	1599.82
575.971	1642.44
576.173	1501.98
576.376	1635.86
576.578	1634.69
576.78	1662.79
576.982	1527.36
577.185	1616.87
577.387	1529.1
577.589	1523.87
577.791	1600.4
577.993	1592.65
578.196	1555.26
578.398	1557
578.6	1599.82
578.802	1513.21
579.004	1507.79
579.206	1513.8
579.408	1538.98
579.61	1493.45
579.812	1576.38
580.014	1553.71
580.216	1521.35
580.418	1524.84
580.62	1501.59
580.822	1453.15
581.024	1555.45
581.226	1544.6
581.428	1504.69
581.63	1591.49
581.832	1490.35
582.034	1555.84
582.236	1552.54
582.438	1535.3
582.64	1561.65
582.841	1610.09
583.043	1606.79
583.245	1529.68
583.447	1546.54
583.649	1515.93
583.85	1536.27
584.052	1575.99
584.254	1485.51
584.456	1544.21
584.657	1491.9
584.859	1507.79
585.061	1497.91
585.262	1469.04
585.464	1465.94
585.666	1548.86
585.867	1469.81
586.069	1515.54
586.27	1483.76
586.472	1481.05
586.674	1445.98
586.875	1425.25
587.077	1410.92
587.278	1461.1
587.48	1464.2
587.681	1569.59
587.883	1474.08
588.084	1388.25
588.285	1457.8
588.487	1426.42
588.688	1428.93
588.89	1344.07
589.091	1346.59
589.292	1340.97
589.494	1356.09
589.695	1323.34
589.896	1227.63
590.098	1203.02
590.299	1311.33
590.5	1254.37
590.702	1294.28
590.903	1349.3
591.104	1349.89
591.305	1359.38
591.507	1403.94
591.708	1376.82
591.909	1318.5
592.11	1428.16
592.311	1385.92
592.512	1359.77
592.714	1331.67
592.915	1346.2
593.116	1314.43
593.317	1338.65
593.518	1356.28
593.719	1336.52
593.92	1394.25
594.121	1384.95
594.322	1377.4
594.523	1355.5
594.724	1285.76
594.925	1335.74
595.126	1354.92
595.327	1340
595.528	1316.56
595.729	1342.72
595.929	1306.29
596.13	1332.06
596.331	1334.39
596.532	1321.21
596.733	1403.75
596.934	1395.61
597.135	1393.87
597.335	1365
597.536	1322.18
597.737	1344.65
597.938	1295.44
598.138	1341.55
598.339	1297.96
598.54	1372.94
598.74	1330.12
598.941	1336.13
599.142	1371
599.342	1346.79
599.543	1293.31
599.744	1332.25
599.944	1311.14
600.145	1289.44
600.345	1348.92
600.546	1401.62
600.746	1383.98
600.947	1442.5
601.147	1308.23
601.348	1379.53
601.548	1268.51
601.749	1346.59
601.949	1292.15
602.15	1278.01
602.35	1270.45
602.551	1329.54
602.751	1275.87
602.951	1264.44
603.152	1199.54
603.352	1327.8
603.552	1298.93
603.753	1333.42
603.953	1334.39
604.153	1296.99
604.354	1303.97
604.554	1272.97
604.754	1301.25
604.954	1242.94
605.155	1300.87
605.355	1274.32
605.555	1324.12
605.755	1365
605.955	1292.73
606.155	1312.49
606.356	1280.91
606.556	1306.87
606.756	1290.99
606.956	1237.12
607.156	1358.8
607.356	1256.89
607.556	1285.56
607.756	1286.14
607.956	1343.1
608.156	1279.75
608.356	1236.93
608.556	1272.19
608.756	1245.46
608.956	1267.35
609.156	1300.48
609.356	1220.07
609.556	1219.11
609.755	1268.51
609.955	1210
610.155	1241.39
610.355	1257.66
610.555	1203.99
610.755	1234.61
610.954	1151.49
611.154	1240.61
611.354	1271.42
611.554	1212.91
611.753	1190.43
611.953	1163.31
612.153	1244.1
612.352	1250.69
612.552	1133.08
612.752	1136.18
612.951	1179.97
613.151	1204.96
613.351	1158.46
613.55	1178.42
613.75	1231.31
613.949	1150.33
614.149	1186.75
614.348	1213.68
614.548	1146.45
614.747	1106.73
614.947	1156.14
615.146	1108.86
615.346	1196.24
615.545	1180.16
