Data from gum_old_FLMT105791__135__15-46-24-252.txt Node

Date: Mon Mar 20 15:46:24 GMT 2023
User: antho
Spectrometer: FLMT10579
Trigger mode: 0
Integration Time (sec): 1.000000E-1
Scans to average: 10
Electric dark correction enabled: true
Nonlinearity correction enabled: false
Boxcar width: 0
XAxis mode: Wavelengths
Number of Pixels in Spectrum: 3648
>>>>>Begin Spectral Data<<<<<
345.248	-172.77
345.464	-172.77
345.681	-172.77
345.898	-199.9
346.114	-168.12
346.331	-38.89
346.548	27.17
346.764	-2.28
346.981	-11.19
347.197	-20.68
347.414	-1.7
347.631	-35.02
347.847	63.79
348.064	10.32
348.28	29.11
348.497	-25.14
348.713	4.5
348.93	32.02
349.146	53.91
349.363	13.22
349.579	24.85
349.796	5.86
350.012	41.51
350.229	84.72
350.445	11.29
350.661	16.13
350.878	5.09
351.094	18.45
351.311	29.89
351.527	31.82
351.743	18.07
351.96	54.88
352.176	44.03
352.392	39.77
352.609	29.89
352.825	-6.15
353.041	21.94
353.257	32.79
353.474	35.31
353.69	23.1
353.906	22.52
354.122	-15.26
354.339	92.08
354.555	15.55
354.771	8.96
354.987	80.45
355.203	74.06
355.42	4.12
355.636	-14.1
355.852	13.42
356.068	41.32
356.284	-19.71
356.5	93.05
356.716	37.83
356.932	12.64
357.148	43.06
357.364	27.75
357.58	65.73
357.796	81.81
358.012	93.24
358.228	44.61
358.444	-4.99
358.66	73.87
358.876	23.49
359.092	-14.29
359.308	36.86
359.524	41.7
359.74	9.74
359.956	-9.25
360.172	26.98
360.388	57.4
360.604	8.38
360.819	100.02
361.035	38.22
361.251	48.29
361.467	-4.99
361.683	65.73
361.898	46.94
362.114	64.76
362.33	17.87
362.546	73.67
362.762	12.06
362.977	54.88
363.193	-16.61
363.409	44.61
363.624	13.42
363.84	14.39
364.056	45.97
364.271	54.69
364.487	36.86
364.703	0.44
364.918	3.15
365.134	10.9
365.35	37.05
365.565	142.45
365.781	33.57
365.996	69.02
366.212	108.93
366.427	71.35
366.643	28.53
366.858	38.8
367.074	16.9
367.289	73.28
367.505	135.67
367.72	-4.41
367.936	32.99
368.151	70.96
368.367	76.38
368.582	34.92
368.798	1.79
369.013	88.98
369.228	70.57
369.444	49.07
369.659	96.15
369.874	70.57
370.09	99.83
370.305	7.6
370.52	18.84
370.736	93.24
370.951	43.25
371.166	98.28
371.381	120.37
371.597	99.63
371.812	30.08
372.027	13.03
372.242	27.56
372.458	114.36
372.673	34.92
372.888	48.49
373.103	77.35
373.318	133.35
373.533	72.32
373.749	49.45
373.964	-5.76
374.179	97.7
374.394	26.2
374.609	100.8
374.824	2.76
375.039	95.95
375.254	23.88
375.469	117.07
375.684	49.26
375.899	110.1
376.114	64.76
376.329	70.38
376.544	84.13
376.759	84.13
376.974	22.14
377.189	23.88
377.404	54.49
377.619	100.8
377.834	4.12
378.049	4.7
378.264	27.75
378.478	76
378.693	39.19
378.908	89.37
379.123	39.96
379.338	105.45
379.553	81.03
379.767	91.88
379.982	80.84
380.197	115.52
380.412	47.13
380.626	94.4
380.841	134.51
381.056	116.1
381.271	128.7
381.485	51.2
381.7	35.5
381.915	91.69
382.129	42.09
382.344	62.44
382.559	55.46
382.773	89.37
382.988	24.27
383.202	78.13
383.417	52.75
383.632	156.6
383.846	44.22
384.061	62.82
384.275	63.79
384.49	85.68
384.704	92.47
384.919	82.2
385.133	80.84
385.348	78.71
385.562	33.37
385.777	109.71
385.991	72.7
386.206	48.1
386.42	72.12
386.634	115.33
386.849	97.12
387.063	56.82
387.277	58.37
387.492	91.11
387.706	37.05
387.92	41.32
388.135	100.6
388.349	78.13
388.563	89.75
388.778	91.88
388.992	84.72
389.206	105.45
389.42	153.3
389.635	81.62
389.849	114.94
390.063	166.48
390.277	90.72
390.491	170.74
390.706	111.07
390.92	126.37
391.134	103.51
391.348	109.32
391.562	44.8
391.776	80.84
391.99	76.77
392.205	137.03
392.419	73.67
392.633	96.53
392.847	139.35
393.061	70.96
393.275	141.87
393.489	93.63
393.703	99.63
393.917	129.28
394.131	55.27
394.345	112.81
394.559	143.62
394.773	47.32
394.986	129.28
395.2	113.2
395.414	156.98
395.628	93.82
395.842	139.35
396.056	101.38
396.27	61.47
396.484	133.15
396.697	126.76
396.911	141.1
397.125	130.44
397.339	105.45
397.553	98.08
397.766	143.42
397.98	130.25
398.194	143.03
398.408	104.28
398.621	140.13
398.835	158.92
399.049	144.58
399.262	180.62
399.476	182.36
399.69	204.45
399.903	259.48
400.117	155.05
400.331	186.24
400.544	157.18
400.758	268
400.971	183.91
401.185	188.37
401.398	130.83
401.612	202.51
401.826	194.18
402.039	229.45
402.253	161.25
402.466	193.6
402.68	180.23
402.893	197.67
403.106	178.68
403.32	190.11
403.533	186.05
403.747	172.1
403.96	208.71
404.174	224.21
404.387	145.17
404.6	210.26
404.814	237
405.027	211.62
405.24	202.32
405.454	168.03
405.667	241.46
405.88	143.23
406.094	237.58
406.307	213.17
406.52	209.68
406.733	162.21
406.947	110.29
407.16	246.69
407.373	232.93
407.586	160.86
407.799	172.68
408.012	223.05
408.226	201.55
408.439	286.79
408.652	174.81
408.865	237.78
409.078	252.11
409.291	230.22
409.504	175.58
409.717	249.4
409.93	243.59
410.143	210.85
410.357	164.73
410.57	141.68
410.783	189.73
410.996	240.68
411.209	186.24
411.421	262.96
411.634	226.93
411.847	223.83
412.06	251.34
412.273	220.73
412.486	250.37
412.699	321.09
412.912	237.2
413.125	259.48
413.338	257.54
413.55	238.16
413.763	231.19
413.976	242.62
414.189	212.2
414.402	234.1
414.615	298.61
414.827	200.77
415.04	288.54
415.253	258.89
415.466	285.83
415.678	308.11
415.891	225.57
416.104	246.11
416.316	238.16
416.529	263.54
416.742	254.24
416.954	302.68
417.167	271.1
417.38	279.43
417.592	309.85
417.805	245.91
418.017	215.88
418.23	262.58
418.442	248.43
418.655	223.44
418.868	255.79
419.08	295.13
419.293	285.05
419.505	276.91
419.718	276.91
419.93	283.89
420.142	277.69
420.355	304.81
420.567	328.64
420.78	276.14
420.992	290.48
421.205	343.37
421.417	216.66
421.629	271.1
421.842	240.49
422.054	222.47
422.266	325.35
422.479	323.61
422.691	259.28
422.903	304.23
423.115	230.41
423.328	269.94
423.54	255.21
423.752	269.94
423.964	251.53
424.177	278.46
424.389	250.37
424.601	399.56
424.813	265.48
425.025	318.57
425.238	315.28
425.45	272.84
425.662	280.21
425.874	586.33
426.086	283.5
426.298	298.42
426.51	292.03
426.722	300.74
426.934	277.49
427.146	340.46
427.358	261.22
427.57	301.33
427.782	279.63
427.994	278.08
428.206	250.18
428.418	251.92
428.63	325.74
428.842	321.28
429.054	302.1
429.266	310.43
429.478	254.44
429.69	299.19
429.902	221.89
430.114	280.21
430.325	282.53
430.537	244.36
430.749	262.58
430.961	197.67
431.173	230.8
431.384	277.3
431.596	180.62
431.808	242.23
432.02	289.51
432.231	347.44
432.443	373.98
432.655	334.65
432.867	313.14
433.078	330.39
433.29	384.44
433.502	352.47
433.713	370.3
433.925	352.86
434.136	400.14
434.348	300.94
434.56	274.2
434.771	415.64
434.983	279.43
435.194	279.04
435.406	316.44
435.617	398.01
435.829	393.36
436.04	373.59
436.252	352.67
436.463	412.92
436.675	392.39
436.886	349.37
437.098	384.44
437.309	436.95
437.521	391.22
437.732	376.89
437.943	371.85
438.155	366.81
438.366	322.06
438.578	430.75
438.789	370.11
439	398.01
439.211	368.56
439.423	350.34
439.634	383.86
439.845	385.8
440.057	418.15
440.268	425.52
440.479	370.88
440.69	378.82
440.902	380.96
441.113	378.44
441.324	352.09
441.535	428.04
441.746	419.51
441.957	394.52
442.168	409.63
442.38	428.81
442.591	428.23
442.802	355.77
443.013	407.89
443.224	466.59
443.435	396.65
443.646	414.67
443.857	407.5
444.068	385.99
444.279	394.32
444.49	494.3
444.701	413.12
444.912	551.65
445.123	446.25
445.334	417.96
445.545	435.98
445.756	452.45
445.967	375.53
446.178	451.29
446.388	464.65
446.599	438.89
446.81	431.91
447.021	436.75
447.232	467.37
447.443	504.95
447.653	440.24
447.864	506.5
448.075	458.26
448.286	493.14
448.496	483.45
448.707	498.17
448.918	463.69
449.129	542.15
449.339	452.64
449.55	499.53
449.761	455.35
449.971	522.97
450.182	452.06
450.393	483.25
450.603	451.29
450.814	516
451.024	516.38
451.235	577.61
451.446	562.3
451.656	543.7
451.867	486.16
452.077	487.32
452.288	580.9
452.498	534.79
452.709	474.15
452.919	510.18
453.13	471.05
453.34	509.22
453.55	437.92
453.761	510.57
453.971	486.94
454.182	529.17
454.392	482.87
454.602	562.5
454.813	547.38
455.023	537.89
455.233	453.8
455.444	499.14
455.654	409.82
455.864	478.6
456.075	475.31
456.285	478.02
456.495	501.85
456.705	503.98
456.916	543.7
457.126	555.13
457.336	523.17
457.546	438.5
457.756	488.87
457.967	552.42
458.177	507.08
458.387	511.93
458.597	471.05
458.807	526.07
459.017	490.42
459.227	484.42
459.437	515.42
459.647	516.19
459.857	570.63
460.068	472.6
460.278	569.08
460.488	516.58
460.698	562.5
460.908	494.88
461.117	479.38
461.327	480.93
461.537	524.52
461.747	542.73
461.957	555.52
462.167	642.71
462.377	567.34
462.587	541.96
462.797	593.3
463.007	555.91
463.216	573.54
463.426	611.13
463.636	587.3
463.846	480.74
464.056	538.08
464.265	599.7
464.475	531.11
464.685	568.31
464.895	562.5
465.104	555.52
465.314	622.36
465.524	535.37
465.733	547.97
465.943	646.58
466.153	657.05
466.362	617.52
466.572	587.68
466.782	555.33
466.991	570.63
467.201	608.8
467.41	545.83
467.62	576.06
467.829	561.33
468.039	590.2
468.249	605.7
468.458	586.13
468.668	602.02
468.877	616.94
469.086	651.04
469.296	657.63
469.505	577.8
469.715	668.09
469.924	649.68
470.134	666.54
470.343	644.65
470.552	603.57
470.762	588.27
470.971	599.7
471.18	600.28
471.39	627.6
471.599	583.23
471.808	632.63
472.018	600.86
472.227	680.49
472.436	680.68
472.645	663.63
472.855	614.03
473.064	719.63
473.273	691.14
473.482	674.68
473.691	726.79
473.901	708.58
474.11	656.85
474.319	759.15
474.528	683.39
474.737	774.65
474.946	718.66
475.155	692.11
475.364	797.12
475.573	726.99
475.783	721.76
475.992	749.27
476.201	772.13
476.41	708.19
476.619	687.85
476.828	728.54
477.037	685.91
477.245	710.33
477.454	751.21
477.663	718.27
477.872	749.85
478.081	840.33
478.29	746.17
478.499	851.76
478.708	792.86
478.917	834.13
479.125	772.71
479.334	793.64
479.543	784.92
479.752	806.62
479.961	795.96
480.169	825.99
480.378	800.03
480.587	948.05
480.796	841.88
481.004	835.87
481.213	869.78
481.422	856.99
481.63	839.17
481.839	871.14
482.048	901.55
482.256	848.08
482.465	917.64
482.674	891.67
482.882	890.51
483.091	963.36
483.299	903.1
483.508	934.69
483.716	931.97
483.925	895.16
484.134	875.79
484.342	894.58
484.551	947.47
484.759	917.25
484.967	937.79
485.176	950.38
485.384	972.66
485.593	949.22
485.801	938.17
486.01	918.8
486.218	875.98
486.426	806.23
486.635	796.35
486.843	823.47
487.051	808.75
487.26	814.76
487.468	852.73
487.676	911.44
487.885	879.08
488.093	888.57
488.301	942.82
488.509	970.14
488.717	972.27
488.926	945.73
489.134	965.68
489.342	974.21
489.55	928.68
489.758	976.73
489.967	971.11
490.175	1096.46
490.383	962
490.591	1083.48
490.799	965.3
491.007	1081.74
491.215	1029.62
491.423	1029.04
491.631	1017.03
491.839	1032.14
492.047	1037.95
492.255	965.3
492.463	955.61
492.671	986.03
492.879	1031.95
493.087	988.93
493.295	1016.83
493.503	1040.28
493.711	1078.25
493.919	1098.98
494.127	1085.81
494.334	1076.31
494.542	1021.1
494.75	1074.96
494.958	1061.01
495.166	1166.02
495.374	1080.96
495.581	1115.26
495.789	1114.48
495.997	1150.33
496.205	1078.83
496.412	1101.89
496.62	1097.05
496.828	1108.09
497.035	1118.16
497.243	1105.96
497.451	1099.76
497.658	1122.23
497.866	1101.89
498.074	1182.88
498.281	1108.48
498.489	1202.06
498.696	1106.15
498.904	1064.5
499.112	1092.01
499.319	1195.47
499.527	1120.88
499.734	1166.02
499.942	1056.16
500.149	1092.4
500.357	1160.98
500.564	1096.66
500.771	1142.77
500.979	1062.36
501.186	1088.33
501.394	1118.55
501.601	1099.37
501.808	1143.54
502.016	1130.95
502.223	1064.3
502.43	1100.34
502.638	1108.48
502.845	1061.2
503.052	1190.24
503.26	1102.08
503.467	1206.12
503.674	1133.86
503.881	1175.13
504.089	1276.26
504.296	1172.61
504.503	1126.69
504.71	1143.35
504.917	1116.42
505.125	1161.56
505.332	1184.23
505.539	1156.53
505.746	1235.96
505.953	1247.97
506.16	1209.22
506.367	1264.25
506.574	1256.69
506.781	1312.3
506.988	1201.09
507.195	1226.47
507.402	1193.14
507.609	1245.46
507.816	1207.67
508.023	1202.06
508.23	1139.86
508.437	1164.66
508.644	1222.98
508.851	1260.18
509.058	1250.88
509.265	1235.38
509.472	1266.77
509.679	1317.92
509.885	1218.14
510.092	1249.91
510.299	1247.39
510.506	1211.55
510.713	1258.24
510.92	1239.26
511.126	1264.25
511.333	1272.58
511.54	1286.92
511.746	1344.27
511.953	1313.46
512.16	1369.65
512.367	1273.94
512.573	1308.62
512.78	1291.37
512.987	1280.72
513.193	1277.62
513.4	1195.66
513.606	1295.64
513.813	1297.38
514.02	1279.94
514.226	1359.77
514.433	1326.25
514.639	1249.52
514.846	1269.87
515.052	1281.88
515.259	1313.85
515.465	1305.9
515.672	1295.44
515.878	1379.92
516.085	1318.3
516.291	1364.22
516.497	1300.29
516.704	1278.59
516.91	1271.61
517.117	1228.21
517.323	1150.91
517.529	1185.59
517.736	1181.52
517.942	1191.98
518.148	1204.57
518.354	1285.76
518.561	1256.5
518.767	1271.22
518.973	1304.94
519.179	1303.39
519.386	1283.82
519.592	1266.57
519.798	1284.98
520.004	1383.02
520.21	1343.88
520.417	1413.82
520.623	1434.94
520.829	1458.77
521.035	1425.06
521.241	1430.1
521.447	1441.14
521.653	1539.95
521.859	1466.91
522.065	1478.73
522.271	1575.79
522.477	1498.1
522.683	1545.38
522.889	1547.7
523.095	1510.31
523.301	1500.81
523.507	1483.96
523.713	1495.39
523.919	1423.12
524.125	1565.91
524.331	1512.25
524.537	1620.16
524.742	1618.03
524.948	1618.42
525.154	1618.23
525.36	1693.21
525.566	1563.59
525.772	1674.22
525.977	1581.22
526.183	1655.23
526.389	1645.74
526.595	1557.78
526.8	1607.96
527.006	1509.15
527.212	1485.31
527.417	1479.31
527.623	1453.73
527.829	1569.01
528.034	1576.18
528.24	1573.86
528.446	1562.23
528.651	1691.66
528.857	1684.29
529.062	1743.58
529.268	1688.17
529.473	1718.59
529.679	1720.91
529.884	1789.89
530.09	1787.75
530.295	1775.74
530.501	1742.22
530.706	1733.89
530.912	1711.03
531.117	1749.78
531.323	1794.54
531.528	1805.97
531.733	1849.17
531.939	1763.92
532.144	1822.43
532.35	1814.3
532.555	1849.56
532.76	1827.86
532.966	1803.25
533.171	1815.46
533.376	1758.89
533.581	1680.22
533.787	1747.65
533.992	1815.27
534.197	1833.48
534.402	1782.33
534.607	1811.39
534.813	1878.43
535.018	1815.46
535.223	1805.39
535.428	1828.25
535.633	1900.13
535.838	1914.85
536.043	1868.93
536.249	1999.33
536.454	1880.17
536.659	1900.9
536.864	1892.18
537.069	1879.78
537.274	1899.16
537.479	1908.65
537.684	1889.47
537.889	1831.35
538.094	1951.66
538.299	1873.97
538.504	1885.02
538.708	1927.64
538.913	1933.84
539.118	1903.42
539.323	1946.05
539.528	1888.5
539.733	1885.02
539.938	1917.18
540.142	1915.63
540.347	1864.48
540.552	1835.22
540.757	1848.78
540.962	1864.87
541.166	1783.88
541.371	1815.65
541.576	1848.78
541.781	1760.24
541.985	1884.63
542.19	1886.76
542.395	1988.67
542.599	1982.86
542.804	1961.16
543.008	1984.99
543.213	1932.87
543.418	1893.93
543.622	1941.98
543.827	1902.45
544.031	1971.23
544.236	1961.74
544.44	1977.63
544.645	2041.76
544.849	1952.25
545.054	1972.2
545.258	2044.28
545.463	2061.13
545.667	1943.14
545.872	2014.05
546.076	1976.46
546.281	1973.95
546.485	1935.97
546.689	1982.08
546.894	2037.3
547.098	2009.01
547.302	1941.01
547.507	1991.58
547.711	1975.11
547.915	2017.15
548.119	1960.38
548.324	1931.9
548.528	2019.09
548.732	1975.5
548.936	2021.22
549.141	2047.18
549.345	1958.64
549.549	2003.78
549.753	2008.63
549.957	2058.42
550.161	2081.28
550.366	2010.37
550.57	1950.5
550.774	2020.64
550.978	2000.49
551.182	2043.11
551.386	1998.94
551.59	1992.74
551.794	1994.87
551.998	2038.27
552.202	1980.73
552.406	1979.95
552.61	2056.29
552.814	2028
553.018	2101.04
553.222	1978.21
553.426	2002.04
553.63	2084.57
553.833	1981.89
554.037	1964.65
554.241	2047.38
554.445	2014.44
554.649	2027.81
554.853	1990.8
555.056	2059.78
555.26	2069.08
555.464	2039.63
555.668	2018.12
555.871	2024.71
556.075	2101.82
556.279	1981.5
556.483	1960.58
556.686	1973.95
556.89	2001.65
557.094	2009.4
557.297	1901.1
557.501	2004.36
557.704	1901.29
557.908	1994.09
558.112	1915.63
558.315	2021.41
558.519	1916.01
558.722	1955.35
558.926	1956.51
559.129	1864.67
559.333	1851.88
559.536	1861.18
559.74	1889.67
559.943	1844.91
560.147	1821.08
560.35	1865.64
560.553	1869.13
560.757	1816.43
560.96	1919.89
561.164	1835.61
561.367	1961.55
561.57	1879.4
561.774	1937.13
561.977	1841.42
562.18	1842.97
562.384	1978.21
562.587	1820.88
562.79	1861.57
562.993	1844.72
563.197	1886.57
563.4	1916.4
563.603	1921.05
563.806	1892.96
564.009	1822.43
564.212	1875.72
564.416	1795.7
564.619	1842.39
564.822	1778.26
565.025	1909.43
565.228	1789.11
565.431	1816.23
565.634	1696.69
565.837	1771.09
566.04	1781.94
566.243	1741.84
566.446	1662.79
566.649	1767.02
566.852	1684.1
567.055	1699.6
567.258	1759.27
567.461	1810.62
567.664	1836.58
567.867	1656.39
568.07	1712.77
568.273	1769.15
568.475	1739.7
568.678	1703.47
568.881	1695.72
569.084	1721.49
569.287	1618.03
569.489	1651.36
569.692	1723.82
569.895	1715.87
570.098	1638.37
570.3	1613.38
570.503	1572.69
570.706	1581.99
570.909	1563.39
571.111	1510.31
571.314	1553.13
571.516	1581.8
571.719	1611.64
571.922	1536.27
572.124	1559.52
572.327	1597.11
572.529	1510.7
572.732	1552.74
572.935	1556.61
573.137	1670.54
573.34	1540.53
573.542	1600.01
573.745	1587.81
573.947	1580.83
574.15	1532.59
574.352	1538.98
574.554	1635.47
574.757	1528.33
574.959	1498.68
575.162	1537.05
575.364	1505.08
575.566	1643.8
575.769	1492.48
575.971	1542.86
576.173	1385.53
576.376	1476.98
576.578	1535.88
576.78	1568.04
576.982	1453.93
577.185	1510.31
577.387	1401.03
577.589	1450.25
577.791	1494.42
577.993	1508.18
578.196	1487.06
578.398	1466.33
578.6	1502.36
578.802	1430.68
579.004	1451.6
579.206	1382.63
579.408	1443.85
579.61	1418.28
579.812	1463.23
580.014	1426.61
580.216	1433.78
580.418	1419.63
580.62	1387.08
580.822	1344.27
581.024	1437.27
581.226	1469.81
581.428	1411.88
581.63	1482.6
581.832	1400.84
582.034	1454.51
582.236	1445.79
582.438	1442.11
582.64	1476.01
582.841	1479.7
583.043	1515.15
583.245	1423.9
583.447	1443.85
583.649	1437.27
583.85	1406.27
584.052	1476.79
584.254	1407.82
584.456	1460.32
584.657	1354.34
584.859	1404.91
585.061	1403.94
585.262	1365.97
585.464	1349.11
585.666	1451.41
585.867	1377.4
586.069	1419.44
586.27	1384.18
586.472	1361.32
586.674	1350.85
586.875	1337.87
587.077	1323.15
587.278	1405.3
587.48	1346.01
587.681	1461.48
587.883	1369.26
588.084	1299.32
588.285	1322.37
588.487	1342.33
588.688	1326.05
588.89	1287.89
589.091	1275.29
589.292	1270.84
589.494	1206.9
589.695	1187.33
589.896	1150.52
590.098	1144.13
590.299	1204.19
590.5	1155.36
590.702	1180.16
590.903	1210
591.104	1296.6
591.305	1230.54
591.507	1293.7
591.708	1305.71
591.909	1244.29
592.11	1340.78
592.311	1273.36
592.512	1250.69
592.714	1198.57
592.915	1206.51
593.116	1223.76
593.317	1268.71
593.518	1269.48
593.719	1238.29
593.92	1246.23
594.121	1311.33
594.322	1240.61
594.523	1241.97
594.724	1195.28
594.925	1237.12
595.126	1247.01
595.327	1261.73
595.528	1216.97
595.729	1248.17
595.929	1246.62
596.13	1261.15
596.331	1241.39
596.532	1235.19
596.733	1284.01
596.934	1266.96
597.135	1272.58
597.335	1278.59
597.536	1220.07
597.737	1248.94
597.938	1192.18
598.138	1272
598.339	1222.21
598.54	1240.42
598.74	1241.97
598.941	1245.46
599.142	1272.39
599.342	1252.04
599.543	1207.48
599.744	1223.17
599.944	1219.88
600.145	1188.88
600.345	1279.17
600.546	1290.4
600.746	1305.32
600.947	1323.54
601.147	1262.89
601.348	1249.33
601.548	1193.34
601.749	1221.43
601.949	1174.16
602.15	1179.58
602.35	1184.23
602.551	1252.04
602.751	1181.91
602.951	1183.65
603.152	1137.93
603.352	1252.82
603.552	1176.29
603.753	1245.84
603.953	1233.83
604.153	1224.14
604.354	1187.33
604.554	1203.22
604.754	1194.11
604.954	1160.21
605.155	1214.26
605.355	1193.73
605.555	1207.09
605.755	1286.72
605.955	1216.78
606.155	1257.86
606.356	1172.61
606.556	1222.79
606.756	1219.88
606.956	1141.22
607.156	1277.62
607.356	1146.84
607.556	1187.53
607.756	1179.97
607.956	1242.74
608.156	1224.72
608.356	1174.16
608.556	1201.86
608.756	1182.29
608.956	1136.18
609.156	1188.69
609.356	1096.27
609.556	1133.66
609.755	1150.52
609.955	1129.21
610.155	1176.48
610.355	1158.85
610.555	1129.98
610.755	1165.05
610.954	1086.78
611.154	1153.23
611.354	1168.73
611.554	1130.95
611.753	1144.9
611.953	1074.38
612.153	1158.66
612.352	1139.48
612.552	1064.11
612.752	1034.66
612.951	1139.09
613.151	1130.56
613.351	1083.87
613.55	1063.33
613.75	1082.32
613.949	1108.48
614.149	1098.4
614.348	1103.25
614.548	1048.03
614.747	1049.96
614.947	1074.18
615.146	1006.57
615.346	1133.86
615.545	1117.58
615.745	1096.85
