Data from gum_old_FLMT105791__100__15-45-49-253.txt Node

Date: Mon Mar 20 15:45:49 GMT 2023
User: antho
Spectrometer: FLMT10579
Trigger mode: 0
Integration Time (sec): 1.000000E-1
Scans to average: 10
Electric dark correction enabled: true
Nonlinearity correction enabled: false
Boxcar width: 0
XAxis mode: Wavelengths
Number of Pixels in Spectrum: 3648
>>>>>Begin Spectral Data<<<<<
345.248	-170.5
345.464	-170.5
345.681	-170.5
345.898	-184.83
346.114	-158.49
346.331	-43.79
346.548	37.2
346.764	-7.75
346.981	-20.73
347.197	14.14
347.414	36.23
347.631	-17.05
347.847	67.62
348.064	-2.52
348.28	-2.52
348.497	-64.52
348.713	3.68
348.93	41.85
349.146	31.97
349.363	5.42
349.579	41.66
349.796	38.17
350.012	-7.36
350.229	27.71
350.445	9.69
350.661	0.97
350.878	9.49
351.094	19.37
351.311	-3.1
351.527	54.25
351.743	-6.39
351.96	40.88
352.176	35.46
352.392	21.12
352.609	45.34
352.825	14.72
353.041	33.91
353.257	7.75
353.474	39.52
353.69	19.57
353.906	8.52
354.122	-4.46
354.339	64.52
354.555	32.55
354.771	18.6
354.987	91.45
355.203	111.79
355.42	16.47
355.636	0
355.852	-17.82
356.068	40.49
356.284	-20.73
356.5	62.97
356.716	46.31
356.932	21.51
357.148	31.77
357.364	10.66
357.58	47.08
357.796	69.75
358.012	93.39
358.228	27.12
358.444	-37.97
358.66	69.36
358.876	43.21
359.092	6.2
359.308	30.61
359.524	28.09
359.74	-0.97
359.956	-6.01
360.172	13.37
360.388	60.84
360.604	22.67
360.819	96.49
361.035	51.73
361.251	68.39
361.467	-3.49
361.683	78.66
361.898	54.06
362.114	39.52
362.33	2.71
362.546	50.76
362.762	14.92
362.977	49.41
363.193	-12.4
363.409	71.69
363.624	-7.56
363.84	31
364.056	18.21
364.271	50.37
364.487	13.76
364.703	2.13
364.918	-1.55
365.134	26.16
365.35	29.06
365.565	125.35
365.781	50.18
365.996	37.2
366.212	118.57
366.427	52.12
366.643	24.02
366.858	41.07
367.074	12.79
367.289	93.58
367.505	165.65
367.72	-9.88
367.936	38.75
368.151	87.38
368.367	52.31
368.582	62
368.798	6.97
369.013	89.7
369.228	47.08
369.444	51.73
369.659	99.59
369.874	63.16
370.09	142.79
370.305	-35.07
370.52	46.89
370.736	100.36
370.951	22.28
371.166	82.15
371.381	102.69
371.597	73.62
371.812	24.99
372.027	11.82
372.242	39.33
372.458	116.05
372.673	33.52
372.888	50.37
373.103	62.58
373.318	111.99
373.533	65.29
373.749	86.61
373.964	15.69
374.179	85.06
374.394	8.72
374.609	82.73
374.824	14.72
375.039	89.7
375.254	39.91
375.469	96.68
375.684	50.37
375.899	89.51
376.114	56.96
376.329	55.99
376.544	81.57
376.759	98.23
376.974	29.26
377.189	60.06
377.404	40.3
377.619	75.37
377.834	-14.34
378.049	4.84
378.264	12.21
378.478	77.11
378.693	30.42
378.908	97.26
379.123	58.9
379.338	85.64
379.553	81.18
379.767	71.69
379.982	88.93
380.197	89.7
380.412	79.63
380.626	80.6
380.841	148.22
381.056	80.02
381.271	118.77
381.485	69.56
381.7	52.31
381.915	70.33
382.129	28.48
382.344	87.96
382.559	57.35
382.773	91.64
382.988	22.86
383.202	75.17
383.417	21.7
383.632	155.58
383.846	46.89
384.061	67.62
384.275	37.01
384.49	69.75
384.704	73.04
384.919	101.52
385.133	45.92
385.348	93.97
385.562	30.61
385.777	115.09
385.991	64.52
386.206	58.51
386.42	54.06
386.634	126.71
386.849	86.02
387.063	74.79
387.277	49.79
387.492	38.36
387.706	39.14
387.92	34.1
388.135	104.43
388.349	105.2
388.563	89.51
388.778	50.18
388.992	91.84
389.206	115.09
389.42	149.57
389.635	88.54
389.849	130.39
390.063	127.87
390.277	80.21
390.491	175.73
390.706	125.55
390.92	122.45
391.134	88.93
391.348	111.4
391.562	47.66
391.776	82.34
391.99	43.98
392.205	110.05
392.419	51.54
392.633	73.82
392.847	158.68
393.061	59.87
393.275	111.6
393.489	86.02
393.703	74.59
393.917	108.89
394.131	47.47
394.345	111.02
394.559	121.87
394.773	71.69
394.986	109.47
395.2	108.11
395.414	142.99
395.628	63.94
395.842	123.22
396.056	95.9
396.27	49.99
396.484	83.31
396.697	136.79
396.911	157.32
397.125	107.92
397.339	120.51
397.553	93.58
397.766	173.02
397.98	111.4
398.194	150.15
398.408	116.64
398.621	152.67
398.835	178.05
399.049	163.52
399.262	196.27
399.476	174.18
399.69	167.4
399.903	250.52
400.117	136.01
400.331	195.88
400.544	141.44
400.758	276.86
400.971	190.26
401.185	203.05
401.398	157.52
401.612	211.96
401.826	183.09
402.039	216.22
402.253	135.82
402.466	229.4
402.68	190.07
402.893	220.87
403.106	202.08
403.32	193.17
403.533	217.38
403.747	162.75
403.96	179.99
404.174	218.55
404.387	151.12
404.6	182.12
404.814	234.24
405.027	197.82
405.24	186.58
405.454	159.07
405.667	223.78
405.88	116.64
406.094	203.05
406.307	231.33
406.52	218.35
406.733	178.44
406.947	149.38
407.16	265.24
407.373	244.7
407.586	160.23
407.799	176.89
408.012	222.81
408.226	210.41
408.439	268.34
408.652	138.72
408.865	235.98
409.078	241.41
409.291	252.07
409.504	177.67
409.717	236.57
409.93	241.99
410.143	237.15
410.357	161.2
410.57	159.45
410.783	179.6
410.996	197.82
411.209	216.03
411.421	261.37
411.634	227.65
411.847	206.53
412.06	211.96
412.273	237.15
412.486	231.33
412.699	341.19
412.912	234.63
413.125	275.12
413.338	235.21
413.55	259.62
413.763	239.28
413.976	252.07
414.189	212.15
414.402	211.77
414.615	313.87
414.827	193.17
415.04	288.88
415.253	280.93
415.466	293.14
415.678	321.04
415.891	235.21
416.104	247.61
416.316	244.12
416.529	249.74
416.742	283.84
416.954	303.21
417.167	260.4
417.38	255.94
417.592	283.45
417.805	209.25
418.017	188.13
418.23	278.41
418.442	218.74
418.655	231.14
418.868	259.82
419.08	292.95
419.293	311.35
419.505	264.66
419.718	282.87
419.93	310.38
420.142	254.97
420.355	308.45
420.567	280.93
420.78	256.72
420.992	249.74
421.205	338.86
421.417	245.09
421.629	278.8
421.842	231.53
422.054	211.96
422.266	312.71
422.479	304.96
422.691	257.3
422.903	265.82
423.115	242.77
423.328	249.16
423.54	266.6
423.752	274.93
423.964	248.77
424.177	290.81
424.389	266.98
424.601	383.04
424.813	299.53
425.025	318.91
425.238	300.7
425.45	281.9
425.662	267.95
425.874	546.56
426.086	290.23
426.298	298.37
426.51	312.71
426.722	278.03
426.934	276.48
427.146	333.83
427.358	281.32
427.57	333.63
427.782	283.84
427.994	279
428.206	268.92
428.418	248
428.63	300.31
428.842	341.58
429.054	302.83
429.266	322.2
429.478	259.43
429.69	291.4
429.902	233.47
430.114	279.96
430.325	286.16
430.537	241.22
430.749	254
430.961	199.37
431.173	216.42
431.384	253.62
431.596	172.24
431.808	268.73
432.02	265.63
432.231	354.75
432.443	341
432.655	320.46
432.867	316.58
433.078	357.85
433.29	381.68
433.502	351.26
433.713	377.23
433.925	340.8
434.136	389.04
434.348	283.06
434.56	241.8
434.771	412.68
434.983	256.33
435.194	295.66
435.406	342.16
435.617	350.68
435.829	416.56
436.04	366.18
436.252	397.18
436.463	423.53
436.675	431.67
436.886	375.48
437.098	388.08
437.309	441.94
437.521	368.7
437.732	359.79
437.943	360.37
438.155	376.45
438.366	314.65
438.578	429.15
438.789	357.46
439	358.82
439.211	349.33
439.423	384.78
439.634	387.88
439.845	378.19
440.057	389.82
440.268	408.23
440.479	362.69
440.69	385.56
440.902	359.98
441.113	375.48
441.324	365.02
441.535	375.48
441.746	436.13
441.957	359.4
442.168	381.49
442.38	433.22
442.591	448.52
442.802	391.76
443.013	402.41
443.224	424.5
443.435	435.54
443.646	383.23
443.857	392.14
444.068	399.31
444.279	407.64
444.49	497.35
444.701	433.22
444.912	569.81
445.123	455.69
445.334	460.34
445.545	454.72
445.756	428.96
445.967	406.87
446.178	444.46
446.388	472.16
446.599	441.94
446.81	479.91
447.021	382.65
447.232	461.89
447.443	472.16
447.653	423.34
447.864	482.43
448.075	447.17
448.286	486.5
448.496	474.1
448.707	518.66
448.918	431.67
449.129	536.49
449.339	431.48
449.55	477.2
449.761	467.12
449.971	516.92
450.182	490.57
450.393	490.18
450.603	447.17
450.814	532.22
451.024	503.16
451.235	516.72
451.446	555.86
451.656	563.8
451.867	460.54
452.077	533.19
452.288	581.63
452.498	558.77
452.709	473.71
452.919	509.56
453.13	467.9
453.34	512.07
453.55	450.46
453.761	496.77
453.971	493.67
454.182	542.3
454.392	478.94
454.602	574.07
454.813	520.6
455.023	537.65
455.233	457.63
455.444	523.7
455.654	410.16
455.864	486.5
456.075	500.26
456.285	477.2
456.495	497.54
456.705	486.89
456.916	544.43
457.126	592.67
457.336	514.4
457.546	420.04
457.756	498.12
457.967	537.07
458.177	508.2
458.387	515.17
458.597	494.64
458.807	480.11
459.017	489.41
459.227	478.75
459.437	487.08
459.647	539.97
459.857	540.75
460.068	491.73
460.278	572.72
460.488	536.1
460.698	597.32
460.908	536.29
461.117	493.86
461.327	484.17
461.537	522.92
461.747	550.05
461.957	558.38
462.167	620.38
462.377	576.2
462.587	553.54
462.797	591.9
463.007	529.7
463.216	595
463.426	612.05
463.636	598.49
463.846	527.38
464.056	528.54
464.265	580.66
464.475	516.92
464.685	596.74
464.895	568.65
465.104	540.55
465.314	576.4
465.524	531.25
465.733	530.09
465.943	616.5
466.153	657.38
466.362	615.34
466.572	588.02
466.782	573.69
466.991	578.72
467.201	644.6
467.41	558.57
467.62	587.44
467.829	568.07
468.039	579.3
468.249	558.19
468.458	576.4
468.668	608.56
468.877	592.87
469.086	628.9
469.296	647.12
469.505	567.68
469.715	673.08
469.924	632.58
470.134	642.27
470.343	659.13
470.552	643.82
470.762	589.57
470.971	596.35
471.18	621.35
471.39	595.58
471.599	584.15
471.808	663.78
472.018	609.53
472.227	693.42
472.436	692.65
472.645	660.1
472.855	637.23
473.064	708.53
473.273	660.1
473.482	703.11
473.691	717.45
473.901	712.41
474.11	676.57
474.319	776.93
474.528	678.31
474.737	741.47
474.946	742.44
475.155	726.16
475.364	800.56
475.573	745.54
475.783	728.49
475.992	744.18
476.201	800.37
476.41	714.35
476.619	717.25
476.828	742.05
477.037	696.52
477.245	721.32
477.454	754.06
477.663	743.6
477.872	725.78
478.081	824.98
478.29	734.3
478.499	895.89
478.708	772.86
478.917	848.81
479.125	792.43
479.334	812.38
479.543	763.36
479.752	834.86
479.961	807.34
480.169	876.12
480.378	832.34
480.587	954.98
480.796	890.66
481.004	830.21
481.213	868.96
481.422	859.66
481.63	853.26
481.839	849.97
482.048	925.72
482.256	865.86
482.465	912.36
482.674	916.04
482.882	929.21
483.091	988.89
483.299	908.09
483.508	912.74
483.716	886.59
483.925	924.95
484.134	868.57
484.342	897.63
484.551	967.57
484.759	946.26
484.967	956.14
485.176	983.07
485.384	942.97
485.593	980.94
485.801	957.89
486.01	933.09
486.218	894.53
486.426	814.9
486.635	806.18
486.843	804.24
487.051	867.6
487.26	821.1
487.468	892.21
487.676	913.91
487.885	906.16
488.093	918.17
488.301	954.79
488.509	965.83
488.717	1007.1
488.926	962.34
489.134	984.24
489.342	944.91
489.55	916.04
489.758	957.11
489.967	973.97
490.175	1091.18
490.383	1009.04
490.591	1113.85
490.799	1011.75
491.007	1082.27
491.215	1050.3
491.423	1055.92
491.631	1033.45
491.839	1020.47
492.047	1055.15
492.255	1005.35
492.463	994.89
492.671	954.01
492.879	1052.24
493.087	1021.82
493.295	1049.53
493.503	1057.28
493.711	1124.7
493.919	1123.15
494.127	1102.23
494.334	1122.57
494.542	1029.19
494.75	1096.61
494.958	1066.77
495.166	1149.7
495.374	1137.68
495.581	1155.51
495.789	1129.93
495.997	1196.2
496.205	1075.3
496.412	1076.46
496.62	1104.75
496.828	1136.33
497.035	1128.38
497.243	1162.87
497.451	1118.7
497.658	1163.06
497.866	1123.15
498.074	1233.39
498.281	1117.73
498.489	1210.15
498.696	1136.91
498.904	1090.6
499.112	1104.55
499.319	1196
499.527	1140.01
499.734	1147.76
499.942	1086.53
500.149	1117.92
500.357	1166.36
500.564	1082.66
500.771	1121.8
500.979	1133.81
501.186	1089.25
501.394	1147.56
501.601	1102.03
501.808	1140.01
502.016	1126.64
502.223	1093.32
502.43	1116.57
502.638	1097
502.845	1102.42
503.052	1211.89
503.26	1123.73
503.467	1231.46
503.674	1207.63
503.881	1201.04
504.089	1256.45
504.296	1207.24
504.503	1095.64
504.71	1150.08
504.917	1114.05
505.125	1172.17
505.332	1182.25
505.539	1207.05
505.746	1257.81
505.953	1271.56
506.16	1244.63
506.367	1247.34
506.574	1303.53
506.781	1283.19
506.988	1197.94
507.195	1240.56
507.402	1198.33
507.609	1265.17
507.816	1219.83
508.023	1247.73
508.23	1221
508.437	1171.2
508.644	1235.53
508.851	1284.54
509.058	1254.71
509.265	1263.81
509.472	1249.09
509.679	1327.36
509.885	1271.76
510.092	1292.68
510.299	1250.83
510.506	1271.95
510.713	1294.62
510.92	1262.84
511.126	1286.68
511.333	1310.7
511.54	1332.01
511.746	1332.01
511.953	1367.08
512.16	1349.06
512.367	1328.52
512.573	1311.09
512.78	1341.51
512.987	1315.74
513.193	1279.31
513.4	1234.17
513.606	1273.89
513.813	1308.18
514.02	1295.2
514.226	1385.1
514.433	1355.26
514.639	1249.86
514.846	1310.31
515.052	1271.18
515.259	1291.13
515.465	1295.01
515.672	1357.01
515.878	1425.01
516.085	1332.4
516.291	1385.68
516.497	1317.67
516.704	1329.49
516.91	1249.67
517.117	1238.63
517.323	1182.44
517.529	1213.63
517.736	1196.2
517.942	1205.11
518.148	1253.93
518.354	1311.09
518.561	1271.18
518.767	1302.76
518.973	1340.15
519.179	1307.41
519.386	1276.02
519.592	1334.14
519.798	1317.29
520.004	1395.95
520.21	1347.51
520.417	1425.01
520.623	1416.87
520.829	1499.6
521.035	1456.59
521.241	1420.75
521.447	1491.47
521.653	1563.54
521.859	1463.76
522.065	1478.68
522.271	1575.75
522.477	1535.06
522.683	1574.39
522.889	1549.01
523.095	1511.03
523.301	1491.47
523.507	1470.15
523.713	1493.98
523.919	1484.49
524.125	1595.12
524.331	1538.55
524.537	1600.16
524.742	1641.62
524.948	1637.94
525.154	1592.99
525.36	1742.37
525.566	1612.56
525.772	1675.53
525.977	1605.78
526.183	1667.78
526.389	1698.39
526.595	1599.58
526.8	1617.21
527.006	1508.13
527.212	1522.85
527.417	1489.92
527.623	1491.08
527.829	1586.4
528.034	1578.46
528.24	1594.15
528.446	1582.91
528.651	1658.67
528.857	1696.06
529.062	1759.42
529.268	1690.64
529.473	1705.56
529.679	1700.52
529.884	1804.95
530.09	1762.91
530.295	1805.34
530.501	1805.14
530.706	1787.71
530.912	1714.28
531.117	1774.72
531.323	1779.57
531.528	1830.52
531.733	1868.89
531.939	1799.72
532.144	1861.52
532.35	1829.75
532.555	1855.9
532.76	1833.62
532.966	1838.27
533.171	1761.16
533.376	1769.3
533.581	1700.91
533.787	1800.49
533.992	1820.64
534.197	1847.96
534.402	1805.72
534.607	1812.31
534.813	1910.93
535.018	1784.22
535.223	1801.46
535.428	1846.41
535.633	1925.65
535.838	1913.06
536.043	1896.4
536.249	2004.51
536.454	1925.46
536.659	1929.72
536.864	1907.64
537.069	1864.24
537.274	1916.16
537.479	1903.37
537.684	1923.33
537.889	1835.17
538.094	1985.33
538.299	1888.45
538.504	1900.47
538.708	1918.68
538.913	1927.2
539.118	1903.95
539.323	1932.24
539.528	1906.28
539.733	1909.19
539.938	1900.08
540.142	1946.77
540.347	1880.12
540.552	1884.77
540.757	1863.27
540.962	1845.64
541.166	1802.62
541.371	1825.1
541.576	1877.8
541.781	1754.96
541.985	1907.64
542.19	1867.53
542.395	1957.23
542.599	1986.88
542.804	1951.42
543.008	1991.14
543.213	1894.07
543.418	1862.3
543.622	1970.8
543.827	1893.3
544.031	1980.87
544.236	1978.35
544.44	1974.67
544.645	2053.14
544.849	1941.35
545.054	1998.89
545.258	2063.99
545.463	2041.71
545.667	1896.4
545.872	2005.48
546.076	2004.51
546.281	1979.71
546.485	1935.15
546.689	1995.02
546.894	2013.42
547.098	1986.49
547.302	1939.22
547.507	1962.08
547.711	1984.55
547.915	2037.83
548.119	1900.85
548.324	1948.71
548.528	2016.91
548.732	1966.73
548.936	2020.4
549.141	2009.35
549.345	2020.2
549.549	1983
549.753	1969.25
549.957	2070.77
550.161	2051.59
550.366	2019.23
550.57	1961.88
550.774	2014.97
550.978	1977.19
551.182	2039.19
551.386	1992.11
551.59	1993.85
551.794	1958.4
551.998	2031.83
552.202	1966.15
552.406	1959.37
552.61	2034.73
552.814	2030.66
553.018	2078.52
553.222	1980.1
553.426	1974.67
553.63	2077.94
553.833	1983.58
554.037	1977.19
554.241	1998.12
554.445	1998.12
554.649	2000.25
554.853	1995.98
555.056	2044.03
555.26	2078.33
555.464	2004.32
555.668	2022.14
555.871	2082.78
556.075	2049.07
556.279	1988.82
556.483	1950.84
556.686	1996.95
556.89	1981.84
557.094	2003.54
557.297	1907.44
557.501	2046.94
557.704	1903.76
557.908	1999.28
558.112	1930.69
558.315	1992.88
558.519	1970.22
558.722	1930.11
558.926	1933.79
559.129	1852.8
559.333	1854.74
559.536	1850.09
559.74	1852.8
559.943	1831.49
560.147	1814.44
560.35	1863.27
560.553	1889.23
560.757	1815.02
560.96	1928.37
561.164	1828.01
561.367	1956.46
561.57	1853
561.774	1896.4
561.977	1813.09
562.18	1823.36
562.384	1919.26
562.587	1827.81
562.79	1828.59
562.993	1829.36
563.197	1891.94
563.4	1933.02
563.603	1895.62
563.806	1931.85
564.009	1841.37
564.212	1865.01
564.416	1782.09
564.619	1863.85
564.822	1792.55
565.025	1861.14
565.228	1810.18
565.431	1815.8
565.634	1717.38
565.837	1786.74
566.04	1749.73
566.243	1737.72
566.446	1681.34
566.649	1798.94
566.852	1686.38
567.055	1747.21
567.258	1785.38
567.461	1803.01
567.664	1812.89
567.867	1705.94
568.07	1776.66
568.273	1772.4
568.475	1813.28
568.678	1715.05
568.881	1712.14
569.084	1740.63
569.287	1599.96
569.489	1634.06
569.692	1693.16
569.895	1698
570.098	1621.28
570.3	1656.73
570.503	1561.8
570.706	1589.7
570.909	1574.39
571.111	1577.49
571.314	1537.38
571.516	1575.94
571.719	1579.04
571.922	1561.6
572.124	1548.62
572.327	1597.64
572.529	1506.19
572.732	1549.78
572.935	1607.71
573.137	1648.01
573.34	1541.26
573.542	1608.68
573.745	1617.01
573.947	1590.86
574.15	1572.26
574.352	1544.94
574.554	1634.84
574.757	1531.77
574.959	1489.33
575.162	1499.41
575.364	1548.62
575.566	1622.25
575.769	1493.4
575.971	1523.24
576.173	1420.55
576.376	1451.36
576.578	1531.18
576.78	1582.53
576.982	1403.12
577.185	1499.99
577.387	1458.53
577.589	1453.49
577.791	1476.35
577.993	1512.97
578.196	1477.9
578.398	1495.73
578.6	1508.52
578.802	1404.28
579.004	1437.02
579.206	1407.96
579.408	1445.16
579.61	1416.87
579.812	1506
580.014	1428.3
580.216	1398.27
580.418	1404.47
580.62	1414.94
580.822	1403.31
581.024	1427.72
581.226	1498.83
581.428	1421.14
581.63	1523.43
581.832	1372.12
582.034	1473.64
582.236	1429.47
582.438	1458.72
582.64	1494.95
582.841	1488.75
583.043	1528.08
583.245	1440.7
583.447	1457.95
583.649	1400.6
583.85	1439.35
584.052	1469.38
584.254	1419
584.456	1484.3
584.657	1370.18
584.859	1384.91
585.061	1397.11
585.262	1396.92
585.464	1369.02
585.666	1433.92
585.867	1370.57
586.069	1427.92
586.27	1399.63
586.472	1380.84
586.674	1345.19
586.875	1323.1
587.077	1330.66
587.278	1396.14
587.48	1323.68
587.681	1474.8
587.883	1376.57
588.084	1305.86
588.285	1385.49
588.487	1316.51
588.688	1381.22
588.89	1283.38
589.091	1268.27
589.292	1266.72
589.494	1217.9
589.695	1198.91
589.896	1162.48
590.098	1132.65
590.299	1222.93
590.5	1185.35
590.702	1170.81
590.903	1207.63
591.104	1252.96
591.305	1283.58
591.507	1321.94
591.708	1306.05
591.909	1257.61
592.11	1338.79
592.311	1297.53
592.512	1269.43
592.714	1216.15
592.915	1256.64
593.116	1242.5
593.317	1288.61
593.518	1224.29
593.719	1264.2
593.92	1292.29
594.121	1308.18
594.322	1291.13
594.523	1258.58
594.724	1228.36
594.925	1249.28
595.126	1263.81
595.327	1295.2
595.528	1271.18
595.729	1258.19
595.929	1254.32
596.13	1269.04
596.331	1255.87
596.532	1268.85
596.733	1307.79
596.934	1307.99
597.135	1258.78
597.335	1266.53
597.536	1214.6
597.737	1281.44
597.938	1240.18
598.138	1287.26
598.339	1227
598.54	1284.35
598.74	1248.31
598.941	1275.63
599.142	1290.36
599.342	1277.96
599.543	1212.28
599.744	1223.13
599.944	1252.58
600.145	1201.04
600.345	1275.05
600.546	1322.32
600.746	1300.43
600.947	1316.12
601.147	1236.88
601.348	1267.69
601.548	1195.42
601.749	1248.31
601.949	1202.01
602.15	1196.39
602.35	1205.5
602.551	1258.78
602.751	1150.66
602.951	1214.8
603.152	1121.22
603.352	1266.14
603.552	1185.15
603.753	1269.24
603.953	1259.16
604.153	1230.88
604.354	1229.71
604.554	1224.09
604.754	1203.56
604.954	1169.46
605.155	1252.96
605.355	1198.52
605.555	1258
605.755	1263.43
605.955	1206.46
606.155	1231.26
606.356	1200.65
606.556	1215.76
606.756	1203.36
606.956	1176.63
607.156	1250.44
607.356	1185.35
607.556	1211.31
607.756	1236.11
607.956	1237.85
608.156	1188.06
608.356	1162.1
608.556	1224.87
608.756	1172.95
608.956	1144.08
609.156	1189.8
609.356	1154.54
609.556	1135.55
609.755	1163.65
609.955	1139.81
610.155	1168.3
610.355	1167.33
610.555	1129.16
610.755	1191.16
610.954	1098.55
611.154	1162.87
611.354	1196.2
611.554	1128.97
611.753	1114.24
611.953	1111.53
612.153	1148.92
612.352	1158.8
612.552	1098.16
612.752	1071.42
612.951	1112.3
613.151	1133.42
613.351	1077.04
613.55	1090.99
613.75	1140.98
613.949	1098.93
614.149	1159.19
614.348	1095.45
614.548	1064.25
614.747	1032.09
614.947	1093.7
615.146	1001.67
615.346	1118.12
615.545	1098.16
615.745	1094.67
615.944	1114.24
616.144	1061.54
