Data from gum_old_FLMT105791__37__15-42-59-259.txt Node

Date: Mon Mar 20 15:42:59 GMT 2023
User: antho
Spectrometer: FLMT10579
Trigger mode: 0
Integration Time (sec): 1.000000E-1
Scans to average: 10
Electric dark correction enabled: true
Nonlinearity correction enabled: false
Boxcar width: 0
XAxis mode: Wavelengths
Number of Pixels in Spectrum: 3648
>>>>>Begin Spectral Data<<<<<
345.248	-157.44
345.464	-157.44
345.681	-157.44
345.898	-169.25
346.114	-165.96
346.331	-39.25
346.548	27.59
346.764	-13.68
346.981	-9.99
347.197	-17.16
347.414	29.72
347.631	-6.7
347.847	62.47
348.064	-0.89
348.28	-2.05
348.497	-17.74
348.713	-12.32
348.93	32.63
349.146	59.56
349.363	24.3
349.579	30.89
349.796	0.08
350.012	30.89
350.229	39.22
350.445	53.75
350.661	6.86
350.878	49.1
351.094	65.18
351.311	62.08
351.527	47.36
351.743	-6.7
351.96	36.7
352.176	79.13
352.392	52.97
352.609	64.99
352.825	23.72
353.041	64.4
353.257	23.72
353.474	26.24
353.69	37.86
353.906	32.82
354.122	8.41
354.339	75.06
354.555	56.85
354.771	48.91
354.987	89.4
355.203	108.77
355.42	32.63
355.636	47.55
355.852	47.94
356.068	20.42
356.284	28.95
356.5	85.14
356.716	62.66
356.932	48.91
357.148	71.77
357.364	53.55
357.58	101.99
357.796	111.49
358.012	74.29
358.228	68.86
358.444	-5.93
358.66	106.84
358.876	51.23
359.092	22.56
359.308	46.19
359.524	75.06
359.74	45.03
359.956	33.41
360.172	46.19
360.388	96.18
360.604	64.4
360.819	128.54
361.035	82.23
361.251	60.14
361.467	39.99
361.683	106.06
361.898	68.47
362.114	76.22
362.33	80.29
362.546	88.62
362.762	68.09
362.977	83.2
363.193	20.62
363.409	102.38
363.624	39.02
363.84	55.3
364.056	30.5
364.271	72.35
364.487	68.67
364.703	54.33
364.918	57.24
365.134	72.54
365.35	44.26
365.565	184.33
365.781	98.5
365.996	110.52
366.212	156.82
366.427	106.45
366.643	72.74
366.858	83.97
367.074	82.81
367.289	139.58
367.505	193.83
367.72	49.1
367.936	83.97
368.151	111.49
368.367	143.45
368.582	105.29
368.798	64.6
369.013	143.84
369.228	92.11
369.444	120.01
369.659	146.17
369.874	117.49
370.09	165.15
370.305	11.71
370.52	108.19
370.736	166.7
370.951	115.55
371.166	142.48
371.381	171.55
371.597	120.98
371.812	53.55
372.027	68.09
372.242	90.56
372.458	169.8
372.673	68.09
372.888	96.37
373.103	130.09
373.318	187.63
373.533	139.97
373.749	82.23
373.964	65.18
374.179	124.47
374.394	83
374.609	147.52
374.824	71.19
375.039	148.88
375.254	57.04
375.469	147.33
375.684	95.79
375.899	149.46
376.114	94.05
376.329	141.9
376.544	138.61
376.759	128.34
376.974	98.7
377.189	121.75
377.404	112.45
377.619	157.02
377.834	91.72
378.049	98.31
378.264	96.76
378.478	172.32
378.693	127.57
378.908	145.39
379.123	141.52
379.338	171.93
379.553	150.62
379.767	164.77
379.982	164.96
380.197	152.56
380.412	137.64
380.626	155.27
380.841	230.06
381.056	167.87
381.271	210.88
381.485	144.81
381.7	109.94
381.915	158.37
382.129	111.68
382.344	142.87
382.559	131.25
382.773	188.21
382.988	51.04
383.202	127.18
383.417	80.49
383.632	216.5
383.846	102.19
384.061	139
384.275	80.1
384.49	160.89
384.704	165.54
384.919	166.32
385.133	154.3
385.348	190.73
385.562	112.45
385.777	187.63
385.991	132.8
386.206	160.89
386.42	143.26
386.634	187.43
386.849	201
387.063	161.28
387.277	140.74
387.492	138.22
387.706	135.32
387.92	140.93
388.135	171.74
388.349	186.47
388.563	154.5
388.778	204.29
388.992	184.53
389.206	180.07
389.42	261.06
389.635	171.93
389.849	217.08
390.063	254.66
390.277	216.69
390.491	278.69
390.706	230.45
390.92	227.54
391.134	216.5
391.348	236.45
391.562	185.88
391.776	247.88
391.99	219.21
392.205	275.2
392.419	197.7
392.633	212.62
392.847	275.78
393.061	191.12
393.275	248.08
393.489	148.1
393.703	141.52
393.917	174.07
394.131	141.71
394.345	181.62
394.559	206.42
394.773	190.92
394.986	262.22
395.2	231.8
395.414	282.37
395.628	234.9
395.842	275.4
396.056	276.56
396.27	202.93
396.484	273.26
396.697	240.52
396.911	256.41
397.125	222.7
397.339	179.49
397.553	194.02
397.766	269.39
397.98	268.42
398.194	306.4
398.408	275.98
398.621	337.98
398.835	341.27
399.049	345.53
399.262	363.36
399.476	406.56
399.69	360.84
399.903	442.79
400.117	365.88
400.331	405.98
400.544	364.52
400.758	488.71
400.971	383.89
401.185	429.62
401.398	325.19
401.612	463.14
401.826	419.54
402.039	438.14
402.253	364.33
402.466	466.04
402.68	397.46
402.893	449.19
403.106	397.65
403.32	438.14
403.533	451.51
403.747	429.62
403.96	429.62
404.174	454.03
404.387	410.63
404.6	424
404.814	476.31
405.027	428.07
405.24	410.05
405.454	413.15
405.667	478.64
405.88	405.01
406.094	461.97
406.307	476.12
406.52	456.55
406.733	395.52
406.947	389.9
407.16	494.14
407.373	462.36
407.586	436.01
407.799	443.18
408.012	486
408.226	474.37
408.439	510.6
408.652	463.91
408.865	504.79
409.078	561.17
409.291	509.83
409.504	483.09
409.717	512.35
409.93	544.9
410.143	471.66
410.357	431.17
410.57	416.64
410.783	448.41
410.996	467.59
411.209	504.99
411.421	558.65
411.634	532.69
411.847	515.84
412.06	526.88
412.273	549.55
412.486	548.97
412.699	648.36
412.912	558.85
413.125	569.31
413.338	547.22
413.55	556.72
413.763	535.4
413.976	559.82
414.189	512.35
414.402	549.94
414.615	645.84
414.827	536.57
415.04	610.19
415.253	579
415.466	615.81
415.678	640.22
415.891	588.3
416.104	560.59
416.316	564.66
416.529	562.72
416.742	616.58
416.954	653.59
417.167	610.58
417.38	591.59
417.592	628.21
417.805	541.22
418.017	522.81
418.23	605.54
418.442	543.54
418.655	574.93
418.868	575.7
419.08	630.73
419.293	628.21
419.505	595.85
419.718	581.52
419.93	652.04
420.142	589.27
420.355	627.63
420.567	646.81
420.78	636.15
420.992	609.61
421.205	674.71
421.417	596.24
421.629	620.27
421.842	636.54
422.054	591.59
422.266	676.84
422.479	678.2
422.691	608.25
422.903	619.49
423.115	573.19
423.328	566.79
423.54	582.48
423.752	606.12
423.964	615.23
424.177	622.01
424.389	626.66
424.601	714.04
424.813	663.86
425.025	693.7
425.238	665.21
425.45	640.61
425.662	615.62
425.874	961.07
426.086	641
426.298	659.79
426.51	669.48
426.722	643.71
426.934	634.02
427.146	665.6
427.358	637.12
427.57	699.12
427.782	606.12
427.994	636.35
428.206	609.42
428.418	614.65
428.63	703
428.842	690.6
429.054	692.53
429.266	668.12
429.478	634.41
429.69	681.68
429.902	580.16
430.114	645.65
430.325	632.67
430.537	574.93
430.749	561.17
430.961	504.99
431.173	528.82
431.384	534.82
431.596	491.62
431.808	594.5
432.02	672.38
432.231	750.66
432.443	788.44
432.655	771.58
432.867	727.21
433.078	747.56
433.29	788.24
433.502	772.94
433.713	830.09
433.925	809.56
434.136	808.01
434.348	721.21
434.56	655.33
434.771	812.27
434.983	669.86
435.194	745.04
435.406	779.33
435.617	855.09
435.829	890.16
436.04	857.99
436.252	834.16
436.463	874.85
436.675	902.17
436.886	928.71
437.098	893.45
437.309	930.07
437.521	897.32
437.732	897.32
437.943	857.61
438.155	861.09
438.366	800.64
438.578	906.82
438.789	820.99
439	845.98
439.211	791.73
439.423	828.93
439.634	834.55
439.845	881.82
440.057	872.33
440.268	928.9
440.479	888.8
440.69	908.37
440.902	874.66
441.113	899.26
441.324	862.26
441.535	942.08
441.746	977.34
441.957	923.09
442.168	948.67
442.38	999.82
442.591	1021.13
442.802	939.56
443.013	933.36
443.224	1016.48
443.435	956.61
443.646	981.6
443.857	964.55
444.068	958.94
444.279	939.56
444.49	1069.37
444.701	983.93
444.912	1118.2
445.123	1055.23
445.334	1004.85
445.545	1037.79
445.756	1031.59
445.967	980.44
446.178	974.63
446.388	1036.05
446.599	1012.22
446.81	990.52
447.021	965.33
447.232	1026.55
447.443	1086.81
447.653	1058.13
447.864	1098.63
448.075	1078.87
448.286	1102.31
448.496	1095.92
448.707	1113.35
448.918	1055.42
449.129	1124.01
449.339	1044.57
449.55	1078.87
449.761	1072.47
449.971	1112.19
450.182	1058.52
450.393	1129.24
450.603	1083.9
450.814	1155.59
451.024	1138.35
451.235	1216.04
451.446	1204.03
451.656	1232.12
451.867	1144.35
452.077	1153.46
452.288	1212.36
452.498	1197.05
452.709	1122.46
452.919	1124.59
453.13	1093.59
453.34	1131.56
453.55	1016.87
453.761	1131.37
453.971	1124.4
454.182	1121.68
454.392	1137.38
454.602	1232.12
454.813	1169.73
455.023	1146.87
455.233	1095.92
455.444	1167.8
455.654	1042.25
455.864	1135.05
456.075	1138.15
456.285	1157.14
456.495	1160.24
456.705	1172.45
456.916	1212.94
457.126	1277.26
457.336	1224.95
457.546	1125.56
457.756	1158.3
457.967	1237.16
458.177	1185.81
458.387	1187.17
458.597	1157.72
458.807	1218.94
459.017	1123.62
459.227	1163.73
459.437	1133.11
459.647	1222.82
459.857	1206.93
460.068	1178.06
460.278	1240.45
460.488	1196.66
460.698	1242.19
460.908	1195.69
461.117	1198.21
461.327	1215.84
461.537	1284.62
461.747	1234.64
461.957	1275.91
462.167	1375.88
462.377	1293.15
462.587	1261.18
462.797	1323.96
463.007	1279.78
463.216	1313.3
463.426	1390.22
463.636	1336.55
463.846	1196.08
464.056	1256.53
464.265	1316.4
464.475	1250.33
464.685	1261.76
464.895	1284.82
465.104	1235.99
465.314	1303.03
465.524	1236.77
465.733	1230.76
465.943	1375.3
466.153	1358.83
466.362	1363.29
466.572	1313.69
466.782	1289.86
466.991	1301.67
467.201	1348.17
467.41	1255.95
467.62	1315.04
467.829	1326.28
468.039	1360.19
468.249	1314.27
468.458	1364.64
468.668	1353.99
468.877	1394.67
469.086	1408.62
469.296	1474.3
469.505	1407.27
469.715	1462.48
469.924	1403.39
470.134	1434.2
470.343	1421.99
470.552	1394.48
470.762	1378.79
470.971	1360.96
471.18	1402.04
471.39	1429.94
471.599	1384.99
471.808	1433.04
472.018	1394.87
472.227	1526.23
472.436	1549.09
472.645	1538.43
472.855	1508.6
473.064	1618.26
473.273	1604.7
473.482	1552.58
473.691	1620.78
473.901	1561.49
474.11	1521.19
474.319	1667.08
474.528	1581.83
474.737	1692.08
474.946	1640.93
475.155	1668.24
475.364	1722.88
475.573	1707.58
475.783	1718.04
475.992	1703.12
476.201	1707.38
476.41	1698.08
476.619	1657.59
476.828	1683.94
477.037	1651.78
477.245	1673.86
477.454	1722.69
477.663	1704.86
477.872	1737.99
478.081	1847.85
478.29	1773.84
478.499	1916.05
478.708	1889.12
478.917	1900.16
479.125	1796.31
479.334	1848.82
479.543	1838.16
479.752	1893.38
479.961	1904.81
480.169	1949.57
480.378	1915.66
480.587	2054.19
480.796	1968.36
481.004	1973.4
481.213	1979.21
481.422	1975.33
481.63	2002.85
481.839	2046.83
482.048	2092.94
482.256	2053.41
482.465	2084.22
482.674	2069.69
482.882	2106.11
483.091	2171.41
483.299	2069.88
483.508	2155.32
483.716	2127.43
483.925	2127.43
484.134	2106.11
484.342	2066.39
484.551	2141.18
484.759	2093.13
484.967	2177.99
485.176	2159.01
485.384	2201.24
485.593	2173.54
485.801	2137.31
486.01	2072.79
486.218	1979.79
486.426	1852.11
486.635	1859.47
486.843	1819.56
487.051	1893.96
487.26	1896.48
487.468	1965.45
487.676	2017.38
487.885	2024.16
488.093	2106.11
488.301	2157.84
488.509	2197.76
488.717	2236.7
488.926	2251.62
489.134	2202.41
489.342	2233.79
489.55	2172.76
489.758	2250.26
489.967	2271.57
490.175	2364.38
490.383	2349.85
490.591	2475.59
490.799	2367.28
491.007	2402.55
491.215	2397.7
491.423	2359.34
491.631	2397.51
491.839	2366.7
492.047	2406.62
492.255	2289.2
492.463	2282.62
492.671	2266.92
492.879	2371.35
493.087	2308.39
493.295	2356.43
493.503	2402.55
493.711	2491.67
493.919	2477.14
494.127	2485.66
494.334	2512.79
494.542	2429.09
494.75	2501.94
494.958	2478.5
495.166	2594.94
495.374	2571.3
495.581	2573.43
495.789	2569.17
495.997	2615.09
496.205	2531.58
496.412	2576.53
496.62	2526.93
496.828	2582.15
497.035	2585.06
497.243	2612.76
497.451	2572.27
497.658	2598.42
497.866	2574.21
498.074	2676.31
498.281	2566.46
498.489	2663.52
498.696	2552.31
498.904	2509.69
499.112	2481.21
499.319	2621.48
499.527	2557.74
499.734	2657.52
499.942	2559.87
500.149	2580.02
500.357	2620.12
500.564	2527.32
500.771	2576.92
500.979	2500.58
501.186	2487.6
501.394	2586.8
501.601	2486.63
501.808	2538.36
502.016	2492.25
502.223	2503.49
502.43	2506.59
502.638	2555.03
502.845	2511.24
503.052	2635.62
503.26	2565.29
503.467	2641.82
503.674	2595.71
503.881	2643.76
504.089	2704.4
504.296	2620.32
504.503	2544.76
504.71	2556.19
504.917	2549.99
505.125	2619.54
505.332	2619.16
505.539	2667.79
505.746	2751.87
505.953	2721.26
506.16	2747.8
506.367	2777.25
506.574	2874.51
506.781	2815.81
506.988	2738.89
507.195	2790.82
507.402	2764.08
507.609	2722.62
507.816	2711.19
508.023	2722.23
508.23	2677.28
508.437	2606.17
508.644	2718.55
508.851	2738.7
509.058	2776.67
509.265	2781.71
509.472	2763.88
509.679	2880.71
509.885	2784.81
510.092	2794.3
510.299	2822.01
510.506	2776.67
510.713	2739.86
510.92	2798.76
511.126	2837.12
511.333	2871.22
511.54	2863.66
511.746	2882.65
511.953	2878.97
512.16	2938.84
512.367	2838.67
512.573	2848.16
512.78	2872.96
512.987	2812.13
513.193	2777.83
513.4	2744.12
513.606	2786.94
513.813	2818.33
514.02	2798.95
514.226	2853.01
514.433	2838.48
514.639	2747.22
514.846	2818.52
515.052	2769.5
515.259	2779.38
515.465	2808.25
515.672	2812.9
515.878	2862.89
516.085	2869.67
516.291	2897.57
516.497	2858.63
516.704	2802.83
516.91	2707.31
517.117	2597.65
517.323	2530.81
517.529	2534.49
517.736	2518.21
517.942	2563.94
518.148	2567.62
518.354	2666.62
518.561	2687.55
518.767	2630.59
518.973	2637.37
519.179	2720.49
519.386	2677.28
519.592	2663.72
519.798	2717.97
520.004	2882.85
520.21	2842.74
520.417	2894.08
520.623	2932.45
520.829	2920.43
521.035	2943.1
521.241	2892.92
521.447	2920.24
521.653	3073.49
521.859	2955.11
522.065	2968.68
522.271	3087.25
522.477	3024.28
522.683	3086.28
522.889	3018.66
523.095	3015.18
523.301	2985.53
523.507	2933.61
523.713	3004.33
523.919	2964.22
524.125	3065.55
524.331	3074.27
524.537	3141.3
524.742	3164.36
524.948	3188.58
525.154	3189.16
525.36	3209.5
525.566	3136.27
525.772	3188.39
525.977	3073.11
526.183	3158.74
526.389	3191.29
526.595	3069.04
526.8	3031.64
527.006	2944.84
527.212	2864.63
527.417	2847.78
527.623	2875.87
527.829	2927.21
528.034	3040.17
528.24	3013.24
528.446	3055.86
528.651	3171.14
528.857	3206.79
529.062	3208.92
529.268	3252.32
529.473	3284.48
529.679	3300.56
529.884	3388.14
530.09	3343.77
530.295	3255.03
530.501	3297.27
530.706	3289.52
530.912	3250.58
531.117	3316.06
531.323	3297.27
531.528	3428.24
531.733	3415.26
531.939	3302.89
532.144	3394.92
532.35	3356.36
532.555	3420.69
532.76	3285.84
532.966	3336.02
533.171	3265.11
533.376	3175.4
533.581	3186.84
533.787	3227.72
533.992	3313.35
534.197	3293.2
534.402	3293.2
534.607	3349.97
534.813	3439.68
535.018	3286.61
535.223	3378.64
535.428	3361.4
535.633	3410.23
535.838	3471.64
536.043	3452.08
536.249	3537.91
536.454	3411
536.659	3524.73
536.864	3450.72
537.069	3446.46
537.274	3401.7
537.479	3368.38
537.684	3428.05
537.889	3351.52
538.094	3491.41
538.299	3422.63
538.504	3398.02
538.708	3416.81
538.913	3521.63
539.118	3491.6
539.323	3486.37
539.528	3415.46
539.733	3426.69
539.938	3465.83
540.142	3433.67
540.347	3375.54
540.552	3307.35
540.757	3347.84
540.962	3340.09
541.166	3295.14
541.371	3282.93
541.576	3372.64
541.781	3244.38
541.985	3441.23
542.19	3393.56
542.395	3546.62
542.599	3521.44
542.804	3500.32
543.008	3535.19
543.213	3457.11
543.418	3438.13
543.622	3527.25
543.827	3400.93
544.031	3530.16
544.236	3542.75
544.44	3557.28
544.645	3604.17
544.849	3495.28
545.054	3525.89
545.258	3656.28
545.463	3594.67
545.667	3425.34
545.872	3574.52
546.076	3596.42
546.281	3563.09
546.485	3498.96
546.689	3540.23
546.894	3594.09
547.098	3528.99
547.302	3537.32
547.507	3498.96
547.711	3574.72
547.915	3579.56
548.119	3467.57
548.324	3471.64
548.528	3570.26
548.732	3482.88
548.936	3566.39
549.141	3543.33
549.345	3482.3
549.549	3493.34
549.753	3557.09
549.957	3607.07
550.161	3612.89
550.366	3544.49
550.57	3476.1
550.774	3517.17
550.978	3519.31
551.182	3516.98
551.386	3525.51
551.59	3538.49
551.794	3505.94
551.998	3561.35
552.202	3537.91
552.406	3488.31
552.61	3613.47
552.814	3600.68
553.018	3579.37
553.222	3503.22
553.426	3529.19
553.63	3594.29
553.833	3543.91
554.037	3433.09
554.241	3489.66
554.445	3550.69
554.649	3586.15
554.853	3496.64
555.056	3594.09
555.26	3580.92
555.464	3575.49
555.668	3605.52
555.871	3590.41
556.075	3611.34
556.279	3538.1
556.483	3476.87
556.686	3491.21
556.89	3529.96
557.094	3505.55
557.297	3446.84
557.501	3497.61
557.704	3367.99
557.908	3490.44
558.112	3434.64
558.315	3496.06
558.519	3430.96
558.722	3397.24
558.926	3380.78
559.129	3312
559.333	3307.35
559.536	3340.28
559.74	3281.97
559.943	3292.04
560.147	3271.89
560.35	3309.09
560.553	3319.94
560.757	3268.6
560.96	3403.06
561.164	3330.98
561.367	3459.63
561.57	3393.76
561.774	3393.95
561.977	3308.31
562.18	3340.67
562.384	3443.55
562.587	3331.95
562.79	3323.43
562.993	3324.59
563.197	3336.21
563.4	3380.78
563.603	3392.59
563.806	3438.71
564.009	3295.91
564.212	3333.5
564.416	3233.53
564.619	3297.08
564.822	3219
565.025	3337.18
565.228	3237.02
565.431	3311.41
565.634	3159.13
565.837	3220.93
566.04	3175.99
566.243	3180.83
566.446	3093.64
566.649	3206.98
566.852	3092.29
567.055	3118.25
567.258	3180.83
567.461	3255.03
567.664	3181.41
567.867	3134.91
568.07	3132.39
568.273	3144.4
568.475	3229.85
568.678	3120.77
568.881	3107.59
569.084	3091.9
569.287	2994.83
569.489	3045.98
569.692	3100.81
569.895	3096.36
570.098	3035.13
570.3	2997.16
570.503	2947.94
570.706	2995.03
570.909	2951.43
571.111	2917.91
571.314	2885.17
571.516	2975.46
571.719	2944.07
571.922	2924.11
572.124	2917.14
572.327	3002.58
572.529	2932.45
572.732	2933.22
572.935	3022.54
573.137	3046.56
573.34	2986.5
573.542	3014.01
573.745	3044.62
573.947	3002
574.15	2997.74
574.352	3001.61
574.554	3061.67
574.757	2929.35
574.959	2941.94
575.162	2966.16
575.364	2914.81
575.566	3030.87
575.769	2930.9
575.971	2955.5
576.173	2826.66
576.376	2877.42
576.578	2940.97
576.78	2968.68
576.982	2811.55
577.185	2908.42
577.387	2849.91
577.589	2841
577.791	2915.78
577.993	2961.7
578.196	2904.35
578.398	2897.38
578.6	2853.59
578.802	2829.95
579.004	2791.98
579.206	2803.41
579.408	2887.69
579.61	2806.9
579.812	2894.47
580.014	2834.02
580.216	2808.64
580.418	2851.26
580.62	2850.88
580.822	2840.42
581.024	2878.97
581.226	2907.26
581.428	2868.7
581.63	2941.55
581.832	2801.86
582.034	2918.69
582.236	2793.14
582.438	2901.06
582.64	2915.78
582.841	2921.6
583.043	2968.68
583.245	2898.54
583.447	2901.25
583.649	2886.72
583.85	2864.05
584.052	2875.1
584.254	2842.35
584.456	2880.13
584.657	2831.7
584.859	2908.03
585.061	2782.1
585.262	2811.35
585.464	2730.17
585.666	2828.21
585.867	2774.15
586.069	2809.22
586.27	2796.24
586.472	2785.78
586.674	2724.55
586.875	2762.53
587.077	2744.9
587.278	2769.7
587.48	2755.75
587.681	2862.31
587.883	2818.52
588.084	2714.29
588.285	2767.95
588.487	2698.01
588.688	2715.45
588.89	2627.87
589.091	2575.37
589.292	2586.8
589.494	2515.31
589.695	2415.91
589.896	2391.31
590.098	2393.63
590.299	2463.77
590.5	2453.7
590.702	2471.33
590.903	2515.69
591.104	2586.41
591.305	2608.31
591.507	2658.87
591.708	2689.1
591.909	2599.2
592.11	2694.33
592.311	2671.86
592.512	2634.27
592.714	2565.88
592.915	2613.73
593.116	2605.21
593.317	2672.44
593.518	2648.8
593.719	2621.87
593.92	2646.09
594.121	2657.32
594.322	2627.49
594.523	2623.81
594.724	2594.55
594.925	2644.34
595.126	2614.31
595.327	2613.73
595.528	2676.7
595.729	2630.59
595.929	2595.71
596.13	2625.36
596.331	2680.96
596.532	2631.36
596.733	2732.11
596.934	2673.6
597.135	2661.2
597.335	2624.58
597.536	2564.13
597.737	2651.32
597.938	2586.8
598.138	2605.59
598.339	2628.07
598.54	2672.24
598.74	2594.94
598.941	2605.4
599.142	2674.18
599.342	2623.61
599.543	2565.1
599.744	2589.12
599.944	2606.17
600.145	2625.36
600.345	2563.16
600.546	2641.05
600.746	2613.34
600.947	2708.67
601.147	2610.44
601.348	2672.24
601.548	2586.99
601.749	2586.8
601.949	2548.05
602.15	2536.43
602.35	2507.36
602.551	2611.41
602.751	2549.79
602.951	2553.48
603.152	2464.74
603.352	2609.66
603.552	2593.97
603.753	2588.93
603.953	2595.52
604.153	2606.17
604.354	2612.96
604.554	2601.14
604.754	2618.38
604.954	2556.38
605.155	2644.34
605.355	2576.34
605.555	2642.41
605.755	2642.79
605.955	2609.86
606.155	2597.07
606.356	2563.94
606.556	2584.48
606.756	2619.93
606.956	2528.68
607.156	2688.32
607.356	2542.04
607.556	2566.26
607.756	2572.85
607.956	2606.95
608.156	2596.1
608.356	2498.45
608.556	2603.46
608.756	2529.64
608.956	2514.34
609.156	2546.11
609.356	2512.98
609.556	2454.28
609.755	2523.25
609.955	2462.22
610.155	2473.46
610.355	2502.71
610.555	2488.96
610.755	2434.51
610.954	2396.54
611.154	2478.11
611.354	2514.53
611.554	2423.86
611.753	2471.52
611.953	2420.37
