Data from gum_old_FLMT105791__16__15-42-38-249.txt Node

Date: Mon Mar 20 15:42:38 GMT 2023
User: antho
Spectrometer: FLMT10579
Trigger mode: 0
Integration Time (sec): 1.000000E-1
Scans to average: 10
Electric dark correction enabled: true
Nonlinearity correction enabled: false
Boxcar width: 0
XAxis mode: Wavelengths
Number of Pixels in Spectrum: 3648
>>>>>Begin Spectral Data<<<<<
345.248	-174.53
345.464	-174.53
345.681	-174.53
345.898	-172.02
346.114	-170.08
346.331	-41.24
346.548	19.79
346.764	-0.55
346.981	-7.72
347.197	-12.76
347.414	13.59
347.631	-10.62
347.847	48.28
348.064	-4.42
348.28	33.16
348.497	-44.92
348.713	7.39
348.93	33.16
349.146	30.64
349.363	8.75
349.579	41.88
349.796	21.93
350.012	-16.82
350.229	40.72
350.445	41.49
350.661	1.97
350.878	25.41
351.094	22.12
351.311	33.36
351.527	25.03
351.743	13.79
351.96	67.46
352.176	59.9
352.392	56.41
352.609	48.28
352.825	20.38
353.041	25.99
353.257	11.08
353.474	44.79
353.69	44.98
353.906	46.53
354.122	25.41
354.339	84.31
354.555	32.78
354.771	10.88
354.987	92.26
355.203	83.92
355.42	24.25
355.636	33.94
355.852	10.11
356.068	32.97
356.284	5.46
356.5	92.84
356.716	74.43
356.932	6.62
357.148	66.29
357.364	53.7
357.58	82.18
357.796	82.37
358.012	55.44
358.228	58.54
358.444	-39.1
358.66	86.25
358.876	62.42
359.092	31.61
359.308	44.4
359.524	38.2
359.74	20.76
359.956	41.11
360.172	28.51
360.388	87.02
360.604	26.58
360.819	128.87
361.035	72.69
361.251	65.71
361.467	-4.23
361.683	82.57
361.898	72.69
362.114	72.69
362.33	70.17
362.546	101.36
362.762	73.07
362.977	69.78
363.193	41.69
363.409	107.17
363.624	22.12
363.84	27.74
364.056	43.43
364.271	69.59
364.487	61.26
364.703	45.95
364.918	30.26
365.134	64.36
365.35	70.75
365.565	175.95
365.781	70.17
365.996	136.43
366.212	105.62
366.427	118.41
366.643	58.16
366.858	50.6
367.074	41.11
367.289	129.07
367.505	183.7
367.72	52.73
367.936	93.81
368.151	113.96
368.367	88.77
368.582	92.64
368.798	59.9
369.013	131.59
369.228	99.42
369.444	71.53
369.659	111.44
369.874	96.91
370.09	145.73
370.305	30.26
370.52	98.07
370.736	121.51
370.951	74.24
371.166	133.14
371.381	184.48
371.597	103.11
371.812	70.75
372.027	51.96
372.242	95.55
372.458	160.07
372.673	93.42
372.888	76.76
373.103	102.33
373.318	163.17
373.533	109.89
373.749	104.85
373.964	30.45
374.179	115.51
374.394	51.57
374.609	123.45
374.824	36.26
375.039	148.64
375.254	68.62
375.469	144.37
375.684	90.9
375.899	140.89
376.114	102.14
376.329	99.42
376.544	131.78
376.759	128.68
376.974	80.82
377.189	96.32
377.404	87.22
377.619	148.25
377.834	61.26
378.049	93.03
378.264	76.17
378.478	125.77
378.693	90.51
378.908	136.24
379.123	113.37
379.338	182.54
379.553	134.69
379.767	91.67
379.982	107.56
380.197	128.29
380.412	106.21
380.626	137.79
380.841	214.7
381.056	145.73
381.271	211.02
381.485	84.7
381.7	64.36
381.915	114.15
382.129	123.64
382.344	108.14
382.559	71.91
382.773	132.17
382.988	81.41
383.202	116.47
383.417	80.05
383.632	192.23
383.846	83.73
384.061	93.61
384.275	79.86
384.49	144.18
384.704	120.74
384.919	137.01
385.133	142.82
385.348	142.63
385.562	96.52
385.777	167.04
385.991	127.91
386.206	129.65
386.42	120.16
386.634	151.16
386.849	137.4
387.063	160.07
387.277	110.47
387.492	119.77
387.706	99.23
387.92	110.86
388.135	162.2
388.349	174.4
388.563	166.46
388.778	159.68
388.992	159.29
389.206	144.18
389.42	211.22
389.635	144.37
389.849	175.76
390.063	229.62
390.277	178.86
390.491	231.95
390.706	208.89
390.92	210.25
391.134	170.92
391.348	229.04
391.562	151.16
391.776	210.05
391.99	181.77
392.205	213.35
392.419	151.54
392.633	196.49
392.847	230.79
393.061	131.01
393.275	217.22
393.489	127.32
393.703	159.68
393.917	145.54
394.131	101.17
394.345	140.11
394.559	200.56
394.773	135.85
394.986	196.49
395.2	207.34
395.414	225.75
395.628	160.84
395.842	244.74
396.056	213.93
396.27	148.25
396.484	224
396.697	195.33
396.911	227.3
397.125	156.97
397.339	209.28
397.553	144.57
397.766	222.45
397.98	214.51
398.194	251.9
398.408	217.8
398.621	255.78
398.835	307.51
399.049	282.71
399.262	357.3
399.476	339.67
399.69	293.17
399.903	386.17
400.117	322.43
400.331	328.63
400.544	290.85
400.758	448.17
400.971	332.7
401.185	356.72
401.398	303.44
401.612	377.84
401.826	392.95
402.039	376.29
402.253	332.31
402.466	389.46
402.68	356.72
402.893	390.24
403.106	366.99
403.32	367.57
403.533	379.58
403.747	332.31
403.96	359.63
404.174	387.14
404.387	326.3
404.6	371.45
404.814	397.41
405.027	388.88
405.24	384.81
405.454	352.07
405.667	417.17
405.88	325.92
406.094	372.22
406.307	390.43
406.52	395.47
406.733	352.26
406.947	299.37
407.16	431.31
407.373	402.83
407.586	379.2
407.799	351.88
408.012	435.58
408.226	415.62
408.439	442.36
408.652	373.77
408.865	412.13
409.078	448.17
409.291	453.21
409.504	378.42
409.717	457.47
409.93	462.89
410.143	416.98
410.357	345.68
410.57	356.14
410.783	372.8
410.996	401.86
411.209	398.57
411.421	470.26
411.634	404.19
411.847	419.11
412.06	465.99
412.273	472.39
412.486	461.93
412.699	556.28
412.912	474.33
413.125	483.82
413.338	471.42
413.55	491.76
413.763	428.21
413.976	444.88
414.189	452.63
414.402	458.44
414.615	513.46
414.827	452.43
415.04	507.07
415.253	493.89
415.466	509.2
415.678	553.76
415.891	483.04
416.104	476.46
416.316	477.81
416.529	458.05
416.742	539.81
416.954	545.24
417.167	507.07
417.38	540.97
417.592	518.11
417.805	485.37
418.017	433.25
418.23	509.97
418.442	465.22
418.655	496.22
418.868	509.59
419.08	573.91
419.293	569.26
419.505	538.07
419.718	526.44
419.93	532.64
420.142	494.28
420.355	557.44
420.567	544.07
420.78	537.68
420.992	520.44
421.205	577.98
421.417	495.06
421.629	544.07
421.842	507.07
422.054	532.84
422.266	604.91
422.479	596
422.691	502.23
422.903	554.54
423.115	509.2
423.328	525.67
423.54	536.32
423.752	533.03
423.964	500.87
424.177	580.69
424.389	505.91
424.601	660.9
424.813	534.39
425.025	625.45
425.238	587.67
425.45	551.82
425.662	534.58
425.874	836.44
426.086	564.61
426.298	576.62
426.51	575.07
426.722	585.34
426.934	561.51
427.146	584.57
427.358	527.8
427.57	596.39
427.782	544.07
427.994	534.19
428.206	552.21
428.418	536.13
428.63	612.27
428.842	639.98
429.054	578.56
429.266	586.7
429.478	543.49
429.69	546.98
429.902	503.39
430.114	561.51
430.325	503.19
430.537	485.18
430.749	484.4
430.961	389.27
431.173	434.22
431.384	478.01
431.596	418.53
431.808	518.31
432.02	588.06
432.231	649.47
432.443	708.18
432.655	653.54
432.867	612.27
433.078	631.84
433.29	699.65
433.502	664.39
433.713	709.73
433.925	669.62
434.136	713.8
434.348	571.39
434.56	563.84
434.771	708.95
434.983	581.27
435.194	644.05
435.406	659.16
435.617	704.88
435.829	760.88
436.04	727.94
436.252	703.92
436.463	759.91
436.675	764.17
436.886	779.28
437.098	790.91
437.309	798.27
437.521	780.06
437.732	734.72
437.943	736.66
438.155	732.2
438.366	663.42
438.578	750.8
438.789	716.32
439	704.5
439.211	677.76
439.423	699.27
439.634	705.85
439.845	781.61
440.057	762.04
440.268	818.03
440.479	739.95
440.69	786.84
440.902	729.49
441.113	754.68
441.324	742.28
441.535	794.2
441.746	868.79
441.957	757.58
442.168	792.85
442.38	832.37
442.591	883.52
442.802	793.81
443.013	852.91
443.224	868.21
443.435	804.08
443.646	817.65
443.857	837.21
444.068	818.81
444.279	806.6
444.49	917.23
444.701	864.14
444.912	970.9
445.123	936.41
445.334	882.74
445.545	883.33
445.756	873.83
445.967	835.47
446.178	871.89
446.388	871.31
446.599	882.94
446.81	908.13
447.021	843.61
447.232	909.09
447.443	929.44
447.653	876.16
447.864	951.91
448.075	907.35
448.286	977.29
448.496	929.63
448.707	969.54
448.918	893.79
449.129	971.29
449.339	918.78
449.55	955.98
449.761	912.39
449.971	974.58
450.182	935.83
450.393	958.89
450.603	911.03
450.814	1016.62
451.024	994.54
451.235	1029.41
451.446	1072.81
451.656	1029.41
451.867	997.64
452.077	970.71
452.288	1063.7
452.498	1012.75
452.709	960.63
452.919	967.99
453.13	937.19
453.34	981.75
453.55	913.55
453.761	970.12
453.971	988.92
454.182	989.5
454.392	1007.52
454.602	1065.25
454.813	1012.56
455.023	980.78
455.233	939.32
455.444	992.21
455.654	887.39
455.864	983.3
456.075	982.72
456.285	958.31
456.495	985.82
456.705	1013.52
456.916	1091.41
457.126	1090.83
457.336	1034.25
457.546	936.22
457.756	1028.44
457.967	1065.84
458.177	1020.11
458.387	1036.19
458.597	990.66
458.807	1005.97
459.017	987.56
459.227	1049.37
459.437	1024.37
459.647	1050.92
459.857	1052.85
460.068	1007.71
460.278	1062.93
460.488	1044.14
460.698	1088.7
460.908	1055.18
461.117	994.92
461.327	1043.36
461.537	1084.05
461.747	1082.69
461.957	1090.64
462.167	1196.42
462.377	1127.25
462.587	1098.39
462.797	1134.81
463.007	1117.95
463.216	1141.2
463.426	1176.27
463.636	1151.47
463.846	1056.92
464.056	1076.69
464.265	1130.93
464.475	1053.24
464.685	1104.39
464.895	1141.2
465.104	1108.46
465.314	1171.04
465.524	1070.68
465.733	1035.42
465.943	1191.19
466.153	1187.12
466.362	1170.46
466.572	1170.27
466.782	1100.13
466.991	1149.34
467.201	1171.43
467.41	1042.39
467.62	1157.87
467.829	1147.21
468.039	1169.1
468.249	1130.93
468.458	1161.16
468.668	1205.53
468.877	1190.8
469.086	1224.71
469.296	1232.85
469.505	1186.73
469.715	1201.07
469.924	1217.54
470.134	1239.24
470.343	1263.07
470.552	1228.78
470.762	1175.88
470.971	1170.07
471.18	1207.47
471.39	1236.72
471.599	1184.8
471.808	1230.33
472.018	1267.91
472.227	1285.74
472.436	1340.96
472.645	1311.31
472.855	1293.3
473.064	1368.28
473.273	1365.56
473.482	1330.49
473.691	1372.15
473.901	1350.26
474.11	1323.13
474.319	1431.82
474.528	1344.83
474.737	1433.57
474.946	1438.02
475.155	1404.7
475.364	1468.06
475.573	1449.26
475.783	1460.5
475.992	1448.87
476.201	1471.35
476.41	1469.8
476.619	1400.63
476.828	1434.34
477.037	1422.72
477.245	1425.24
477.454	1518.82
477.663	1456.04
477.872	1499.25
478.081	1587.21
478.29	1489.95
478.499	1619.95
478.708	1571.32
478.917	1601.55
479.125	1517.07
479.334	1541.1
479.543	1598.83
479.752	1598.25
479.961	1630.22
480.169	1631.77
480.378	1642.23
480.587	1766.43
480.796	1699.2
481.004	1675.17
481.213	1725.74
481.422	1717.6
481.63	1747.05
481.839	1720.31
482.048	1798.78
482.256	1731.36
482.465	1831.33
482.674	1790.06
482.882	1798.59
483.091	1836.95
483.299	1794.13
483.508	1836.76
483.716	1852.45
483.925	1826.29
484.134	1749.18
484.342	1796.65
484.551	1860.78
484.759	1820.48
484.967	1897.4
485.176	1887.32
485.384	1874.73
485.593	1908.05
485.801	1897.59
486.01	1761
486.218	1747.44
486.426	1616.27
486.635	1617.63
486.843	1597.87
487.051	1647.85
487.26	1623.83
487.468	1746.28
487.676	1803.24
487.885	1768.75
488.093	1850.9
488.301	1911.54
488.509	1908.83
488.717	1964.63
488.926	1963.08
489.134	1888.29
489.342	1908.05
489.55	1867.76
489.758	1902.82
489.967	1956.88
490.175	2071.38
490.383	2029.15
490.591	2141.91
490.799	2040.38
491.007	2094.05
491.215	2114.2
491.423	2059.57
491.631	2050.85
491.839	2085.91
492.047	2067.7
492.255	1971.6
492.463	1977.03
492.671	1945.25
492.879	2048.52
493.087	2029.15
493.295	2013.26
493.503	2077
493.711	2169.61
493.919	2136.29
494.127	2174.65
494.334	2184.53
494.542	2034.38
494.75	2140.36
494.958	2157.99
495.166	2244.98
495.374	2242.08
495.581	2260.87
495.789	2247.31
495.997	2270.17
496.205	2179.88
496.412	2195.19
496.62	2188.6
496.828	2216.69
497.035	2233.16
497.243	2276.56
497.451	2248.86
497.658	2284.12
497.866	2266.29
498.074	2317.44
498.281	2261.64
498.489	2352.7
498.696	2255.64
498.904	2206.23
499.112	2205.26
499.319	2289.16
499.527	2215.92
499.734	2353.48
499.942	2253.51
500.149	2231.81
500.357	2296.71
500.564	2205.84
500.771	2243.24
500.979	2214.37
501.186	2165.16
501.394	2246.73
501.601	2164.96
501.808	2228.13
502.016	2152.56
502.223	2210.49
502.43	2194.99
502.638	2191.31
502.845	2190.15
503.052	2330.04
503.26	2262.81
503.467	2308.72
503.674	2317.06
503.881	2301.17
504.089	2340.11
504.296	2317.83
504.503	2214.95
504.71	2282.37
504.917	2214.76
505.125	2267.26
505.332	2330.23
505.539	2305.43
505.746	2409.09
505.953	2405.6
506.16	2404.24
506.367	2483.29
506.574	2469.92
506.781	2460.82
506.988	2337.21
507.195	2403.27
507.402	2397.65
507.609	2448.42
507.816	2322.87
508.023	2349.02
508.23	2339.92
508.437	2316.86
508.644	2334.69
508.851	2407.92
509.058	2436.02
509.265	2390.49
509.472	2446.28
509.679	2490.85
509.885	2427.88
510.092	2456.75
510.299	2438.53
510.506	2415.09
510.713	2411.02
510.92	2400.37
511.126	2445.51
511.333	2474.18
511.54	2513.32
511.746	2509.06
511.953	2528.05
512.16	2553.62
512.367	2469.73
512.573	2470.5
512.78	2493.95
512.987	2448.8
513.193	2442.41
513.4	2327.52
513.606	2409.28
513.813	2462.56
514.02	2408.7
514.226	2480.97
514.433	2451.13
514.639	2372.27
514.846	2417.61
515.052	2362.97
515.259	2433.11
515.465	2437.18
515.672	2445.7
515.878	2506.35
516.085	2468.18
516.291	2516.81
516.497	2450.93
516.704	2424.59
516.91	2356.19
517.117	2274.04
517.323	2151.4
517.529	2171.94
517.736	2144.23
517.942	2170.97
518.148	2241.3
518.354	2282.76
518.561	2333.72
518.767	2273.46
518.973	2317.44
519.179	2340.89
519.386	2300.39
519.592	2311.63
519.798	2317.25
520.004	2486.39
520.21	2461.98
520.417	2496.27
520.623	2540.06
520.829	2558.08
521.035	2508.28
521.241	2538.7
521.447	2550.33
521.653	2672.39
521.859	2526.11
522.065	2643.33
522.271	2750.08
522.477	2615.43
522.683	2748.92
522.889	2653.01
523.095	2621.43
523.301	2586.56
523.507	2537.15
523.713	2592.95
523.919	2567.76
524.125	2688.86
524.331	2671.42
524.537	2781.47
524.742	2796.58
524.948	2766.74
525.154	2826.22
525.36	2872.53
525.566	2776.43
525.772	2822.74
525.977	2762.48
526.183	2810.72
526.389	2838.62
526.595	2678.01
526.8	2692.15
527.006	2585.59
527.212	2515.84
527.417	2542.96
527.623	2517.78
527.829	2616.39
528.034	2628.02
528.24	2677.43
528.446	2681.69
528.651	2816.92
528.857	2823.9
529.062	2885.12
529.268	2883.77
529.473	2926.78
529.679	2875.05
529.884	3006.99
530.09	2959.33
530.295	2911.67
530.501	2933.37
530.706	2924.65
530.912	2950.03
531.117	2993.04
531.323	2934.92
531.528	3013.96
531.733	3031.21
531.939	2972.11
532.144	3039.54
532.35	2990.52
532.555	3027.72
532.76	2963.98
532.966	2949.45
533.171	2892.87
533.376	2888.42
533.581	2852.38
533.787	2925.42
533.992	2971.15
534.197	2972.89
534.402	2951.58
534.607	2977.15
534.813	3052.91
535.018	2985.68
535.223	3004.86
535.428	3034.89
535.633	3063.18
535.838	3082.74
536.043	3097.66
536.249	3218.75
536.454	3058.53
536.659	3182.91
536.864	3129.83
537.069	3061.82
537.274	3045.74
537.479	3035.28
537.684	3002.73
537.889	2986.45
538.094	3131.96
538.299	3051.94
538.504	3079.64
538.708	3088.75
538.913	3157.92
539.118	3085.84
539.323	3080.81
539.528	3049.23
539.733	3059.88
539.938	3047.87
540.142	3075.19
540.347	2979.48
540.552	2941.12
540.757	2960.3
540.962	3020.75
541.166	2942.28
541.371	2905.66
541.576	2974.63
541.781	2867.49
541.985	3052.33
542.19	3000.21
542.395	3124.79
542.599	3116.46
542.804	3060.85
543.008	3105.22
543.213	3030.05
543.418	3002.15
543.622	3053.1
543.827	2964.17
544.031	3077.71
544.236	3077.51
544.44	3101.93
544.645	3189.11
544.849	3068.41
545.054	3107.16
545.258	3154.82
545.463	3170.71
545.667	3028.3
545.872	3101.15
546.076	3144.94
546.281	3143.39
546.485	3069.18
546.689	3142.22
546.894	3153.07
547.098	3146.68
547.302	3062.21
547.507	3129.24
547.711	3128.66
547.915	3134.67
548.119	3013.77
548.324	3036.83
548.528	3133.31
548.732	3029.85
548.936	3083.13
549.141	3071.12
549.345	3076.93
549.549	3159.47
549.753	3126.14
549.957	3232.51
550.161	3166.83
550.366	3169.16
550.57	3100.96
550.774	3128.28
550.978	3142.03
551.182	3115.88
551.386	3108.51
551.59	3110.84
551.794	3101.73
551.998	3109.09
552.202	3136.22
552.406	3064.73
552.61	3156.56
552.814	3130.6
553.018	3183.49
553.222	3137.77
553.426	3095.14
553.63	3198.22
553.833	3136.22
554.037	3072.86
554.241	3141.06
554.445	3107.93
554.649	3157.72
554.853	3096.11
555.056	3195.89
555.26	3190.47
555.464	3141.84
555.668	3176.52
555.871	3193.37
556.075	3218.75
556.279	3130.02
556.483	3090.88
556.686	3123.43
556.89	3154.43
557.094	3073.06
557.297	3013.77
557.501	3112.97
557.704	2980.83
557.908	3079.26
558.112	3025.2
558.315	3073.64
558.519	3074.61
558.722	3025.01
558.926	2999.24
559.129	2931.43
559.333	2919.42
559.536	2957.39
559.74	2895.2
559.943	2898.49
560.147	2919.8
560.35	2912.25
560.553	2966.88
560.757	2918.25
560.96	3001.37
561.164	2924.45
561.367	3064.34
561.57	3015.51
561.774	2950.8
561.977	3003.5
562.18	2898.1
562.384	3029.85
562.587	2938.6
562.79	2955.26
562.993	2928.33
563.197	2972.7
563.4	2999.24
563.603	3027.33
563.806	3055.23
564.009	2968.63
564.212	3026.17
564.416	2874.47
564.619	2924.84
564.822	2836.1
565.025	2990.13
565.228	2881.05
565.431	2933.75
565.634	2821.19
565.837	2855.09
566.04	2828.94
566.243	2802.78
566.446	2755.12
566.649	2835.72
566.852	2779.92
567.055	2820.02
567.258	2766.94
567.461	2878.73
567.664	2849.67
567.867	2796.39
568.07	2842.11
568.273	2847.73
568.475	2924.84
568.678	2805.1
568.881	2768.49
569.084	2768.68
569.287	2640.23
569.489	2713.07
569.692	2753.96
569.895	2777.21
570.098	2709.78
570.3	2671.81
570.503	2607.68
570.706	2666.58
570.909	2660.57
571.111	2570.09
571.314	2614.07
571.516	2594.5
571.719	2608.45
571.922	2566.8
572.124	2541.8
572.327	2593.53
572.529	2566.21
572.732	2624.14
572.935	2646.81
573.137	2734.39
573.34	2605.35
573.542	2672.58
573.745	2637.13
573.947	2659.79
574.15	2629.18
574.352	2647.2
574.554	2685.95
574.757	2602.45
574.959	2583.26
575.162	2618.91
575.364	2573.38
575.566	2663.67
575.769	2517.78
575.971	2550.71
576.173	2456.36
576.376	2522.62
576.578	2564.08
576.78	2610.78
576.982	2461.59
577.185	2514.29
577.387	2476.32
577.589	2516.03
577.791	2534.44
577.993	2536.38
578.196	2484.26
578.398	2513.52
578.6	2502.47
578.802	2407.54
579.004	2435.63
579.206	2468.37
579.408	2476.9
579.61	2431.56
579.812	2544.71
580.014	2442.22
580.216	2420.32
580.418	2508.87
580.62	2443.57
580.822	2396.88
581.024	2464.69
581.226	2477.09
581.428	2434.47
581.63	2571.25
581.832	2468.37
582.034	2511.58
582.236	2502.47
582.438	2524.95
582.64	2547.03
582.841	2547.81
583.043	2587.91
583.245	2513.71
583.447	2537.35
583.649	2482.32
583.85	2498.21
584.052	2560.79
584.254	2464.11
584.456	2578.61
584.657	2454.42
584.859	2501.5
585.061	2453.07
585.262	2506.93
585.464	2451.32
585.666	2492.98
585.867	2420.71
586.069	2500.15
586.27	2465.47
586.472	2421.1
586.674	2399.98
586.875	2438.53
587.077	2380.99
587.278	2424.59
587.48	2411.22
587.681	2507.9
587.883	2408.31
588.084	2344.18
588.285	2374.99
588.487	2352.32
588.688	2411.8
588.89	2286.83
589.091	2257.77
589.292	2243.43
589.494	2188.99
589.695	2143.85
589.896	2073.71
590.098	2072.35
590.299	2100.83
590.5	2099.86
590.702	2125.83
590.903	2162.64
591.104	2216.31
591.305	2243.04
591.507	2267.84
591.708	2288.77
591.909	2239.17
592.11	2318.61
592.311	2260.29
592.512	2217.66
592.714	2177.75
592.915	2193.06
593.116	2200.03
593.317	2244.59
593.518	2217.28
593.719	2260.09
593.92	2268.62
594.121	2271.52
594.322	2241.3
594.523	2240.14
594.724	2192.48
594.925	2248.86
595.126	2214.56
595.327	2182.98
595.528	2215.14
595.729	2193.06
595.929	2220.18
596.13	2219.99
596.331	2250.99
596.532	2230.45
596.733	2315.51
596.934	2275.98
597.135	2268.23
597.335	2281.02
597.536	2220.57
597.737	2244.98
597.938	2202.36
598.138	2223.86
598.339	2264.16
598.54	2254.48
598.74	2238.01
598.941	2226.38
599.142	2250.6
599.342	2227.16
599.543	2178.53
599.744	2216.69
599.944	2182.79
600.145	2216.69
600.345	2228.13
600.546	2262.03
600.746	2266.68
600.947	2300.39
601.147	2210.49
601.348	2237.62
601.548	2180.27
601.749	2206.43
601.949	2099.09
602.15	2196.35
602.35	2180.08
602.551	2213.98
602.751	2151.98
602.951	2151.98
603.152	2108.58
603.352	2230.26
603.552	2168.84
603.753	2238.98
603.953	2206.23
604.153	2187.63
604.354	2201.19
604.554	2188.79
604.754	2178.33
604.954	2160.9
605.155	2173.1
605.355	2181.82
605.555	2230.45
605.755	2261.06
605.955	2173.1
606.155	2233.36
606.356	2176.39
606.556	2235.29
606.756	2182.01
606.956	2101.22
607.156	2242.66
607.356	2136.48
607.556	2180.85
607.756	2182.4
607.956	2220.96
608.156	2191.89
608.356	2104.51
608.556	2176.01
608.756	2131.83
608.956	2121.56
609.156	2145.59
609.356	2083.59
609.556	2081.07
609.755	2122.34
609.955	2089.98
610.155	2142.49
610.355	2102
610.555	2055.11
610.755	2068.28
610.954	2017.13
611.154	2105.48
611.354	2082.43
611.554	2052.98
611.753	2077.2
611.953	2032.25
612.153	2116.33
612.352	2064.99
