Data from gum_old_FLMT105791__82__15-44-10-256.txt Node

Date: Mon Mar 20 15:44:10 GMT 2023
User: antho
Spectrometer: FLMT10579
Trigger mode: 0
Integration Time (sec): 1.000000E-1
Scans to average: 10
Electric dark correction enabled: true
Nonlinearity correction enabled: false
Boxcar width: 0
XAxis mode: Wavelengths
Number of Pixels in Spectrum: 3648
>>>>>Begin Spectral Data<<<<<
345.248	-167.43
345.464	-167.43
345.681	-167.43
345.898	-174.99
346.114	-165.49
346.331	-41.69
346.548	34.84
346.764	-22.51
346.981	-11.85
347.197	2.29
347.414	20.89
347.631	-16.69
347.847	94.9
348.064	6.75
348.28	24.77
348.497	-54.48
348.713	-37.23
348.93	11.98
349.146	35.81
349.363	-5.65
349.579	36.78
349.796	-14.95
350.012	-1.19
350.229	49.37
350.445	19.15
350.661	-7.39
350.878	7.14
351.094	32.71
351.311	4.04
351.527	42.59
351.743	11.21
351.96	67.78
352.176	66.62
352.392	42.79
352.609	63.9
352.825	2.49
353.041	53.05
353.257	25.35
353.474	21.09
353.69	45.69
353.906	32.52
354.122	9.46
354.339	95.29
354.555	48.79
354.771	12.17
354.987	77.27
355.203	96.07
355.42	9.27
355.636	7.33
355.852	14.69
356.068	16.05
356.284	-19.21
356.5	94.71
356.716	25.35
356.932	32.52
357.148	36.2
357.364	32.13
357.58	79.21
357.796	88.51
358.012	88.9
358.228	33.68
358.444	-32.97
358.66	86.96
358.876	58.48
359.092	-22.51
359.308	24.77
359.524	58.87
359.74	35.42
359.956	36.78
360.172	36.97
360.388	79.6
360.604	34.84
360.819	100.52
361.035	52.09
361.251	79.99
361.467	-6.23
361.683	79.6
361.898	27.48
362.114	68.75
362.33	58.29
362.546	79.4
362.762	31.16
362.977	29.22
363.193	28.06
363.409	92.97
363.624	11.21
363.84	10.43
364.056	28.45
364.271	43.37
364.487	61.77
364.703	25.54
364.918	12.95
365.134	35.23
365.35	48.4
365.565	141.4
365.781	43.37
365.996	52.47
366.212	100.52
366.427	39.1
366.643	21.09
366.858	62.16
367.074	14.31
367.289	125.13
367.505	148.77
367.72	10.82
367.936	52.09
368.151	103.62
368.367	88.51
368.582	78.05
368.798	47.44
369.013	112.73
369.228	69.91
369.444	67.59
369.659	117.96
369.874	104.78
370.09	120.87
370.305	-2.55
370.52	45.69
370.736	96.65
370.951	56.74
371.166	115.44
371.381	125.52
371.597	77.85
371.812	34.45
372.027	31.55
372.242	81.92
372.458	142.57
372.673	48.21
372.888	52.86
373.103	79.99
373.318	141.4
373.533	79.4
373.749	87.74
373.964	-27.93
374.179	103.43
374.394	26.12
374.609	94.52
374.824	23.02
375.039	77.85
375.254	36.59
375.469	102.07
375.684	72.43
375.899	107.3
376.114	74.95
376.329	57.12
376.544	94.52
376.759	113.31
376.974	50.92
377.189	61.19
377.404	68.94
377.619	135.98
377.834	42.4
378.049	32.71
378.264	24.96
378.478	96.07
378.693	69.33
378.908	127.84
379.123	68.94
379.338	129.78
379.553	114.47
379.767	74.17
379.982	93.94
380.197	91.8
380.412	84.83
380.626	100.91
380.841	171.24
381.056	109.05
381.271	177.44
381.485	47.63
381.7	63.9
381.915	101.1
382.129	54.41
382.344	78.44
382.559	86.96
382.773	100.52
382.988	21.86
383.202	109.05
383.417	26.51
383.632	150.12
383.846	86.38
384.061	80.95
384.275	67.59
384.49	100.52
384.704	112.15
384.919	99.36
385.133	59.45
385.348	135.59
385.562	58.09
385.777	154
385.991	78.82
386.206	77.08
386.42	77.27
386.634	113.89
386.849	117.96
387.063	125.71
387.277	60.61
387.492	51.5
387.706	77.47
387.92	67.78
388.135	122.8
388.349	122.03
388.563	109.43
388.778	138.88
388.992	115.44
389.206	148.18
389.42	177.25
389.635	104.98
389.849	147.99
390.063	149.35
390.277	148.96
390.491	191.78
390.706	150.51
390.92	168.14
391.134	128.23
391.348	171.43
391.562	106.72
391.776	140.24
391.99	144.7
392.205	175.7
392.419	126.48
392.633	112.15
392.847	188.29
393.061	102.65
393.275	190.03
393.489	93.94
393.703	103.04
393.917	134.43
394.131	81.34
394.345	87.54
394.559	141.6
394.773	93.35
394.986	150.12
395.2	136.75
395.414	174.73
395.628	129.2
395.842	155.35
396.056	182.87
396.27	98.97
396.484	164.27
396.697	160.78
396.911	169.3
397.125	99.36
397.339	161.17
397.553	132.3
397.766	169.11
397.98	173.95
398.194	208.63
398.408	161.94
398.621	220.26
398.835	233.82
399.049	219.29
399.262	253.2
399.476	263.08
399.69	228.4
399.903	302.02
400.117	224.71
400.331	258.04
400.544	225.49
400.758	352.2
400.971	278.96
401.185	299.5
401.398	188.29
401.612	304.34
401.826	290.01
402.039	302.99
402.253	237.31
402.466	268.5
402.68	283.61
402.893	271.6
403.106	256.3
403.32	267.53
403.533	270.05
403.747	244.48
403.96	266.56
404.174	308.22
404.387	250.1
404.6	272.76
404.814	311.51
405.027	270.63
405.24	288.46
405.454	285.94
405.667	318.88
405.88	243.7
406.094	283.23
406.307	334.18
406.52	292.72
406.733	227.81
406.947	222
407.16	330.69
407.373	315.78
407.586	264.82
407.799	278.77
408.012	305.12
408.226	293.3
408.439	352.01
408.652	265.21
408.865	305.89
409.078	331.08
409.291	292.91
409.504	293.49
409.717	336.7
409.93	358.98
410.143	331.66
410.357	247.38
410.57	240.02
410.783	281.68
410.996	299.69
411.209	269.86
411.421	339.03
411.634	319.84
411.847	309.96
412.06	343.29
412.273	337.28
412.486	351.43
412.699	403.93
412.912	356.27
413.125	375.06
413.338	347.55
413.55	367.12
413.763	372.35
413.976	354.72
414.189	313.84
414.402	338.44
414.615	399.67
414.827	314.81
415.04	365.96
415.253	356.08
415.466	399.09
415.678	443.65
415.891	364.99
416.104	350.65
416.316	383.59
416.529	330.69
416.742	397.15
416.954	396.76
417.167	368.86
417.38	386.11
417.592	398.7
417.805	342.51
418.017	311.32
418.23	395.6
418.442	332.05
418.655	347.36
418.868	374.09
419.08	377.97
419.293	417.69
419.505	380.68
419.718	422.34
419.93	403.16
420.142	366.73
420.355	424.47
420.567	429.7
420.78	399.09
420.992	396.76
421.205	424.86
421.417	365.76
421.629	402.96
421.842	376.03
422.054	350.46
422.266	435.9
422.479	436.29
422.691	394.05
422.903	446.36
423.115	370.8
423.328	375.84
423.54	404.71
423.752	390.76
423.964	387.27
424.177	403.35
424.389	403.93
424.601	533.35
424.813	452.56
425.025	443.46
425.238	458.18
425.45	396.96
425.662	400.06
425.874	698.81
426.086	428.92
426.298	438.61
426.51	407.22
426.722	418.27
426.934	413.81
427.146	473.29
427.358	386.11
427.57	453.34
427.782	406.84
427.994	395.21
428.206	378.74
428.418	362.86
428.63	435.71
428.842	491.12
429.054	467.67
429.266	471.55
429.478	389.01
429.69	411.1
429.902	378.94
430.114	439.58
430.325	423.5
430.537	354.14
430.749	358.98
430.961	308.61
431.173	326.04
431.384	377.58
431.596	277.03
431.808	370.99
432.02	425.44
432.231	465.74
432.443	514.37
432.655	489.18
432.867	450.04
433.078	478.72
433.29	514.37
433.502	498.29
433.713	544.59
433.925	501.58
434.136	538.39
434.348	425.44
434.56	401.8
434.771	555.83
434.983	401.8
435.194	446.36
435.406	495.96
435.617	529.09
435.829	575.59
436.04	530.06
436.252	548.85
436.463	569.97
436.675	578.69
436.886	563
437.098	578.11
437.309	612.4
437.521	561.64
437.732	557.18
437.943	552.92
438.155	531.8
438.366	516.89
438.578	596.71
438.789	512.82
439	529.48
439.211	528.7
439.423	519.21
439.634	557.18
439.845	580.43
440.057	568.62
440.268	604.27
440.479	554.67
440.69	559.51
440.902	560.67
441.113	534.52
441.324	569.78
441.535	612.79
441.746	634.3
441.957	560.28
442.168	581.02
442.38	618.41
442.591	648.05
442.802	585.08
443.013	627.71
443.224	647.86
443.435	613.76
443.646	613.95
443.857	614.73
444.068	584.12
444.279	575.98
444.49	686.41
444.701	636.81
444.912	732.53
445.123	706.56
445.334	652.7
445.545	651.54
445.756	631.58
445.967	586.05
446.178	643.79
446.388	669.75
446.599	675.18
446.81	658.71
447.021	611.43
447.232	692.61
447.443	673.63
447.653	646.31
447.864	696.88
448.075	689.71
448.286	731.75
448.496	667.04
448.707	716.64
448.918	662.2
449.129	774.96
449.339	650.96
449.55	676.92
449.761	695.91
449.971	690.87
450.182	687
450.393	706.56
450.603	672.27
450.814	742.02
451.024	746.09
451.235	770.31
451.446	797.24
451.656	799.95
451.867	726.52
452.077	751.51
452.288	743.18
452.498	754.81
452.709	720.9
452.919	727.1
453.13	678.08
453.34	748.03
453.55	656.58
453.761	753.84
453.971	699.98
454.182	738.14
454.392	720.32
454.602	805.57
454.813	759.46
455.023	768.18
455.233	693.2
455.444	744.73
455.654	680.02
455.864	706.76
456.075	725.55
456.285	706.37
456.495	716.06
456.705	728.84
456.916	782.51
457.126	806.34
457.336	768.76
457.546	685.25
457.756	759.07
457.967	822.23
458.177	762.17
458.387	782.51
458.597	704.82
458.807	729.81
459.017	721.68
459.227	730.2
459.437	704.05
459.647	780.19
459.857	743.18
460.068	744.34
460.278	775.93
460.488	774.57
460.698	875.12
460.908	743.96
461.117	728.84
461.327	772.05
461.537	798.4
461.747	790.07
461.957	822.62
462.167	893.14
462.377	811.38
462.587	802.08
462.797	854.2
463.007	799.95
463.216	863.31
463.426	895.27
463.636	878.03
463.846	755.39
464.056	777.86
464.265	856.72
464.475	771.66
464.685	820.68
464.895	847.42
465.104	803.24
465.314	835.99
465.524	796.85
465.733	807.51
465.943	893.53
466.153	920.85
466.362	883.07
466.572	854.2
466.782	864.27
466.991	815.26
467.201	887.72
467.41	775.15
467.62	811.19
467.829	824.17
468.039	884.62
468.249	855.36
468.458	855.36
468.668	898.95
468.877	917.55
469.086	914.07
469.296	940.61
469.505	894.3
469.715	947.59
469.924	911.94
470.134	951.85
470.343	953.59
470.552	893.34
470.762	888.88
470.971	872.61
471.18	897.99
471.39	885.01
471.599	886.17
471.808	942.16
472.018	900.89
472.227	978.97
472.436	988.08
472.645	990.21
472.855	938.09
473.064	1041.36
473.273	1010.94
473.482	992.53
473.691	993.7
473.901	1010.36
474.11	940.03
474.319	1064.61
474.528	990.79
474.737	1077.78
474.946	1034.77
475.155	1052.79
475.364	1101.42
475.573	1022.18
475.783	1096.19
475.992	1087.28
476.201	1123.31
476.41	1081.08
476.619	1040
476.828	1064.22
477.037	1036.32
477.245	1065
477.454	1102.58
477.663	1062.28
477.872	1123.9
478.081	1198.68
478.29	1103.16
478.499	1252.54
478.708	1139.01
478.917	1236.08
479.125	1151.79
479.334	1157.99
479.543	1191.9
479.752	1196.55
479.961	1210.5
480.169	1245.57
480.378	1209.73
480.587	1338.57
480.796	1256.22
481.004	1227.55
481.213	1253.12
481.422	1278.12
481.63	1280.06
481.839	1288.97
482.048	1340.7
482.256	1289.94
482.465	1346.9
482.674	1361.24
482.882	1364.14
483.091	1419.36
483.299	1301.17
483.508	1370.15
483.716	1379.45
483.925	1367.82
484.134	1324.42
484.342	1344.38
484.551	1391.65
484.759	1392.43
484.967	1417.81
485.176	1373.44
485.384	1399.79
485.593	1421.68
485.801	1394.75
486.01	1314.54
486.218	1283.93
486.426	1200.62
486.635	1184.34
486.843	1194.03
487.051	1234.33
487.26	1222.9
487.468	1281.61
487.676	1317.45
487.885	1317.45
488.093	1321.52
488.301	1382.16
488.509	1415.87
488.717	1441.83
488.926	1434.28
489.134	1415.68
489.342	1402.12
489.55	1378.48
489.758	1432.15
489.967	1414.32
490.175	1546.85
490.383	1486.01
490.591	1625.51
490.799	1500.54
491.007	1562.73
491.215	1568.16
491.423	1499.18
491.631	1517.78
491.839	1547.43
492.047	1541.42
492.255	1484.27
492.463	1468.57
492.671	1417.03
492.879	1544.52
493.087	1522.05
493.295	1531.93
493.503	1556.73
493.711	1580.75
493.919	1610.59
494.127	1587.53
494.334	1604
494.542	1517.59
494.75	1596.25
494.958	1564.67
495.166	1637.13
495.374	1641.2
495.581	1658.06
495.789	1642.17
495.997	1713.27
496.205	1602.26
496.412	1581.14
496.62	1623.96
496.828	1604.78
497.035	1617.18
497.243	1637.13
497.451	1647.79
497.658	1646.04
497.866	1627.25
498.074	1702.42
498.281	1617.18
498.489	1693.32
498.696	1626.48
498.904	1587.53
499.112	1584.05
499.319	1706.69
499.527	1642.75
499.734	1698.94
499.942	1620.86
500.149	1636.74
500.357	1683.24
500.564	1618.53
500.771	1634.03
500.979	1626.48
501.186	1612.53
501.394	1595.86
501.601	1602.64
501.808	1644.88
502.016	1605.74
502.223	1613.69
502.43	1614.46
502.638	1617.76
502.845	1604
503.052	1698.55
503.26	1617.37
503.467	1789.61
503.674	1670.07
503.881	1728.97
504.089	1794.26
504.296	1748.92
504.503	1638.88
504.71	1674.53
504.917	1654.76
505.125	1692.54
505.332	1749.51
505.539	1703.97
505.746	1786.12
505.953	1773.34
506.16	1755.9
506.367	1819.45
506.574	1811.7
506.781	1855.1
506.988	1780.31
507.195	1807.63
507.402	1749.12
507.609	1855.68
507.816	1750.67
508.023	1762.68
508.23	1730.71
508.437	1703.39
508.644	1761.52
508.851	1772.56
509.058	1786.51
509.265	1764.62
509.472	1816.93
509.679	1900.82
509.885	1814.02
510.092	1794.84
510.299	1853.16
510.506	1812.09
510.713	1844.83
510.92	1794.07
511.126	1861.49
511.333	1869.63
511.54	1870.02
511.746	1932.98
511.953	1889.2
512.16	1918.26
512.367	1898.69
512.573	1867.3
512.78	1852.38
512.987	1850.64
513.193	1853.74
513.4	1775.08
513.606	1826.42
513.813	1839.02
514.02	1829.14
514.226	1949.06
514.433	1910.12
514.639	1817.32
514.846	1841.34
515.052	1821.19
515.259	1862.27
515.465	1821.77
515.672	1893.85
515.878	1931.24
516.085	1879.7
516.291	1936.47
516.497	1892.3
516.704	1868.27
516.91	1782.25
517.117	1737.3
517.323	1669.29
517.529	1700.29
517.736	1701.84
517.942	1675.3
518.148	1745.44
518.354	1765.78
518.561	1760.16
518.767	1749.31
518.973	1818.67
519.179	1827.59
519.386	1784.77
519.592	1797.36
519.798	1821.19
520.004	1914.77
520.21	1853.93
520.417	1937.83
520.623	1977.55
520.829	1995.95
521.035	1945.38
521.241	1947.71
521.447	1969.6
521.653	2089.34
521.859	2005.83
522.065	2020.56
522.271	2142.62
522.477	2051.56
522.683	2085.27
522.889	2022.69
523.095	2044
523.301	2034.7
523.507	1951.2
523.713	2004.48
523.919	1947.71
524.125	2081.2
524.331	2067.83
524.537	2158.89
524.742	2149.79
524.948	2144.36
525.154	2172.65
525.36	2287.54
525.566	2144.56
525.772	2222.25
525.977	2132.35
526.183	2122.08
526.389	2220.31
526.595	2111.62
526.8	2096.89
527.006	2027.34
527.212	2000.6
527.417	1958.17
527.623	1928.72
527.829	2008.55
528.034	2054.27
528.24	2064.93
528.446	2087.21
528.651	2210.82
528.857	2161.61
529.062	2239.69
529.268	2211.79
529.473	2255.38
529.679	2256.15
529.884	2326.29
530.09	2258.09
530.295	2266.42
530.501	2243.75
530.706	2284.64
530.912	2283.86
531.117	2236.78
531.323	2309.82
531.528	2329.58
531.733	2342.18
531.939	2287.73
532.144	2347.6
532.35	2332.49
532.555	2388.1
532.76	2319.32
532.966	2283.47
533.171	2289.67
533.376	2205.39
533.581	2179.04
533.787	2235.23
533.992	2300.91
534.197	2347.99
534.402	2287.15
534.607	2293.16
534.813	2395.65
535.018	2271.85
535.223	2296.07
535.428	2359.42
535.633	2393.13
535.838	2393.91
536.043	2371.82
536.249	2522.17
536.454	2426.46
536.659	2459.2
536.864	2412.9
537.069	2388.87
537.274	2421.42
537.479	2382.09
537.684	2367.56
537.889	2283.86
538.094	2458.04
538.299	2370.47
538.504	2377.83
538.708	2395.85
538.913	2455.13
539.118	2385.77
539.323	2417.16
539.528	2378.21
539.733	2377.83
539.938	2428.59
540.142	2397.4
540.347	2378.6
540.552	2341.98
540.757	2330.75
540.962	2334.62
541.166	2283.28
541.371	2305.56
541.576	2311.37
541.781	2251.5
541.985	2371.63
542.19	2376.86
542.395	2418.32
542.599	2494.66
542.804	2399.53
543.008	2484.78
543.213	2442.93
543.418	2361.55
543.622	2433.63
543.827	2363.3
544.031	2466.95
544.236	2467.73
544.44	2468.5
544.645	2573.9
544.849	2476.06
545.054	2535.54
545.258	2565.18
545.463	2508.8
545.667	2457.26
545.872	2509.77
546.076	2465.21
546.281	2512.87
546.485	2440.99
546.689	2501.24
546.894	2556.07
547.098	2496.79
547.302	2485.94
547.507	2513.84
547.711	2510.35
547.915	2533.41
548.119	2430.33
548.324	2455.33
548.528	2541.93
548.732	2510.93
548.936	2509.58
549.141	2560.92
549.345	2560.72
549.549	2487.29
549.753	2551.04
549.957	2598.31
550.161	2615.94
550.366	2550.84
550.57	2543.68
550.774	2527.01
550.978	2563.82
551.182	2557.82
551.386	2474.7
551.59	2494.27
551.794	2487.49
551.998	2574.09
552.202	2498.53
552.406	2485.94
552.61	2571.57
552.814	2538.83
553.018	2572.93
553.222	2496.21
553.426	2503.57
553.63	2620.98
553.833	2489.81
554.037	2462.69
554.241	2532.83
554.445	2584.94
554.649	2515.97
554.853	2498.34
555.056	2569.06
555.26	2558.01
555.464	2554.52
555.668	2527.4
555.871	2564.02
556.075	2556.46
556.279	2515
556.483	2488.26
556.686	2479.54
556.89	2501.24
557.094	2508.8
557.297	2389.65
557.501	2506.09
557.704	2379.38
557.908	2493.88
558.112	2449.32
558.315	2509.58
558.519	2433.24
558.722	2464.24
558.926	2416.96
559.129	2347.6
559.333	2310.21
559.536	2352.83
559.74	2352.64
559.943	2322.61
560.147	2313.12
560.35	2313.5
560.553	2310.98
560.757	2248.21
560.96	2384.8
561.164	2329
561.367	2454.16
561.57	2422.58
561.774	2395.07
561.977	2366.2
562.18	2326.87
562.384	2453.2
562.587	2349.93
562.79	2330.75
562.993	2355.35
563.197	2352.64
563.4	2451.65
563.603	2447.77
563.806	2445.25
564.009	2356.52
564.212	2394.3
564.416	2271.07
564.619	2344.89
564.822	2312.53
565.025	2383.83
565.228	2339.08
565.431	2381.9
565.634	2251.12
565.837	2285.99
566.04	2257.7
566.243	2239.49
566.446	2174.2
566.649	2233.49
566.852	2173.42
567.055	2248.21
567.258	2264.87
567.461	2317.38
567.664	2267.2
567.867	2221.09
568.07	2246.08
568.273	2238.52
568.475	2295.29
568.678	2185.05
568.881	2204.62
569.084	2232.71
569.287	2108.71
569.489	2122.27
569.692	2236.59
569.895	2226.12
570.098	2110.84
570.3	2144.75
570.503	2093.02
570.706	2083.91
570.909	2069.77
571.111	2000.8
571.314	2039.93
571.516	2074.23
571.719	2067.64
571.922	2029.47
572.124	2047.1
572.327	2090.89
572.529	2019.98
572.732	2042.06
572.935	2082.17
573.137	2177.49
573.34	2054.66
573.542	2127.12
573.745	2094.38
573.947	2113.56
574.15	2047.1
574.352	2057.56
574.554	2118.59
574.757	2041.68
574.959	2025.59
575.162	2059.31
575.364	1996.92
575.566	2128.47
575.769	1962.82
575.971	1975.61
576.173	1924.07
576.376	1981.23
576.578	2029.28
576.78	2020.75
576.982	1904.7
577.185	1992.08
577.387	1947.32
577.589	1931.82
577.791	1990.33
577.993	1997.89
578.196	1951.97
578.398	1966.89
578.6	1972.12
578.802	1891.72
579.004	1923.88
579.206	1906.05
579.408	1950.42
579.61	1904.89
579.812	1992.27
580.014	1917.1
580.216	1882.8
580.418	1906.83
580.62	1882.61
580.822	1879.9
581.024	1927.56
581.226	1962.82
581.428	1886.1
581.63	1982
581.832	1848.9
582.034	1977.74
582.236	1900.05
582.438	1955.85
582.64	1985.49
582.841	1984.13
583.043	2047.29
583.245	1968.63
583.447	1952.94
583.649	1961.66
583.85	1933.37
584.052	2004.09
584.254	1927.95
584.456	1920
584.657	1861.49
584.859	1924.07
585.061	1909.54
585.262	1928.33
585.464	1820.22
585.666	1952.55
585.867	1844.83
586.069	1926.01
586.27	1880.87
586.472	1918.65
586.674	1847.74
586.875	1844.83
587.077	1855.29
587.278	1886.68
587.48	1868.85
587.681	1994.98
587.883	1889.97
588.084	1802.59
588.285	1816.15
588.487	1861.49
588.688	1865.75
588.89	1761.32
589.091	1737.88
589.292	1738.27
589.494	1715.41
589.695	1657.86
589.896	1590.63
590.098	1593.34
590.299	1662.51
590.5	1597.61
590.702	1676.66
590.903	1693.51
591.104	1758.81
591.305	1759.19
591.507	1753.19
591.708	1798.52
591.909	1734.01
592.11	1813.64
592.311	1769.07
592.512	1730.52
592.714	1700.87
592.915	1719.09
593.116	1724.71
593.317	1738.46
593.518	1743.69
593.719	1747.57
593.92	1769.46
594.121	1782.25
594.322	1730.52
594.523	1746.41
594.724	1699.91
594.925	1718.89
595.126	1790.97
595.327	1728.97
595.528	1786.7
595.729	1746.41
595.929	1733.62
596.13	1747.76
596.331	1713.86
596.532	1737.49
596.733	1809.18
596.934	1789.42
597.135	1772.37
597.335	1778.18
597.536	1720.06
597.737	1720.06
597.938	1681.89
598.138	1751.06
598.339	1757.64
598.54	1747.76
598.74	1720.06
598.941	1709.01
599.142	1778.76
599.342	1739.82
599.543	1705.33
599.744	1715.79
599.944	1672.78
600.145	1728.19
600.345	1718.12
600.546	1786.9
600.746	1779.34
600.947	1793.68
601.147	1715.99
601.348	1789.42
601.548	1696.81
601.749	1759.19
601.949	1652.63
602.15	1673.94
602.35	1676.07
602.551	1757.64
602.751	1649.14
602.951	1676.27
603.152	1613.88
603.352	1753.57
603.552	1688.67
603.753	1751.44
603.953	1742.34
604.153	1720.25
604.354	1715.41
604.554	1716.18
604.754	1751.83
604.954	1642.36
605.155	1718.89
605.355	1708.82
605.555	1707.27
605.755	1768.88
605.955	1687.12
606.155	1725.29
606.356	1710.76
606.556	1733.23
606.756	1683.44
606.956	1643.33
607.156	1708.43
607.356	1660.58
607.556	1697.97
607.756	1665.23
607.956	1740.98
608.156	1680.92
608.356	1653.02
608.556	1715.21
608.756	1649.14
608.956	1647.4
609.156	1680.72
609.356	1633.84
609.556	1610.01
609.755	1654.57
609.955	1588.89
610.155	1619.31
610.355	1651.08
610.555	1647.79
610.755	1637.91
610.954	1528.63
611.154	1617.37
611.354	1619.69
611.554	1606.52
611.753	1620.08
611.953	1556.53
612.153	1629.58
612.352	1620.28
612.552	1528.25
612.752	1523.01
612.951	1579.2
613.151	1560.41
613.351	1541.23
613.55	1559.63
613.75	1575.33
613.949	1548.2
614.149	1549.75
614.348	1538.71
