Data from gum_old_FLMT105791__195__15-48-22-249.txt Node

Date: Mon Mar 20 15:48:22 GMT 2023
User: antho
Spectrometer: FLMT10579
Trigger mode: 0
Integration Time (sec): 1.000000E-1
Scans to average: 10
Electric dark correction enabled: true
Nonlinearity correction enabled: false
Boxcar width: 0
XAxis mode: Wavelengths
Number of Pixels in Spectrum: 3648
>>>>>Begin Spectral Data<<<<<
345.248	-169.85
345.464	-169.85
345.681	-169.85
345.898	-211.89
346.114	-187.87
346.331	-36.55
346.548	34.75
346.764	8.98
346.981	-8.65
347.197	-41.4
347.414	34.16
347.631	-26.67
347.847	59.16
348.064	-20.47
348.28	39.98
348.497	-58.64
348.713	15.37
348.93	42.88
349.146	33.78
349.363	14.21
349.579	39.78
349.796	28.35
350.012	12.46
350.229	47.15
350.445	12.08
350.661	-6.72
350.878	15.56
351.094	41.33
351.311	19.83
351.527	39.78
351.743	-1.68
351.96	65.94
352.176	57.22
352.392	33
352.609	58.19
352.825	-21.44
353.041	18.47
353.257	18.08
353.474	8.98
353.69	43.46
353.906	11.3
354.122	-12.53
354.339	90.93
354.555	2.97
354.771	10.14
354.987	86.67
355.203	78.53
355.42	29.13
355.636	10.14
355.852	21.38
356.068	14.01
356.284	-13.89
356.5	91.71
356.716	42.88
356.932	47.15
357.148	74.08
357.364	30.48
357.58	66.52
357.796	59.74
358.012	65.94
358.228	52.76
358.444	-36.75
358.66	80.28
358.876	30.29
359.092	16.73
359.308	31.45
359.524	51.99
359.74	16.53
359.956	-7.88
360.172	30.1
360.388	69.43
360.604	27.19
360.819	128.13
361.035	25.06
361.251	54.7
361.467	13.24
361.683	94.61
361.898	53.54
362.114	75.82
362.33	53.73
362.546	75.82
362.762	34.55
362.977	66.33
363.193	13.05
363.409	67.29
363.624	23.9
363.84	-0.52
364.056	25.06
364.271	58
364.487	41.14
364.703	25.64
364.918	24.86
365.134	38.04
365.35	39.98
365.565	140.14
365.781	29.9
365.996	67.29
366.212	103.53
366.427	69.43
366.643	45.21
366.858	46.56
367.074	21.38
367.289	112.44
367.505	161.65
367.72	-16.99
367.936	35.13
368.151	93.06
368.367	72.91
368.582	69.62
368.798	44.82
369.013	92.87
369.228	61.29
369.444	78.34
369.659	116.31
369.874	63.42
370.09	103.72
370.305	-13.5
370.52	38.23
370.736	108.56
370.951	38.43
371.166	98.29
371.381	130.07
371.597	87.44
371.812	18.47
372.027	26.8
372.242	70.01
372.458	129.29
372.673	58.96
372.888	69.23
373.103	93.64
373.318	173.47
373.533	73.3
373.749	77.18
373.964	5.1
374.179	120.58
374.394	43.46
374.609	113.6
374.824	29.9
375.039	123.09
375.254	47.53
375.469	106.63
375.684	61.87
375.899	112.24
376.114	70.2
376.329	58.19
376.544	102.56
376.759	100.81
376.974	33.97
377.189	83.57
377.404	65.36
377.619	101.78
377.834	17.31
378.049	7.04
378.264	53.93
378.478	76.4
378.693	47.34
378.908	102.94
379.123	61.48
379.338	95.19
379.553	54.51
379.767	95.39
379.982	71.36
380.197	109.14
380.412	73.11
380.626	100.23
380.841	179.28
381.056	108.18
381.271	148.67
381.485	76.59
381.7	35.33
381.915	92.48
382.129	33.39
382.344	87.83
382.559	51.02
382.773	112.83
382.988	12.85
383.202	82.99
383.417	45.21
383.632	165.14
383.846	46.56
384.061	86.86
384.275	73.49
384.49	99.26
384.704	102.36
384.919	113.79
385.133	73.3
385.348	108.56
385.562	62.64
385.777	132.59
385.991	83.57
386.206	83.96
386.42	67.29
386.634	135.49
386.849	112.44
387.063	98.88
387.277	59.93
387.492	88.99
387.706	74.46
387.92	73.3
388.135	119.03
388.349	112.24
388.563	95.97
388.778	108.18
388.992	112.05
389.206	118.44
389.42	168.04
389.635	101.78
389.849	127.36
390.063	134.72
390.277	138.59
390.491	158.74
390.706	128.71
390.92	158.74
391.134	112.83
391.348	154.87
391.562	80.28
391.776	136.08
391.99	101.78
392.205	155.45
392.419	82.02
392.633	127.94
392.847	168.62
393.061	112.05
393.275	166.3
393.489	124.26
393.703	103.14
393.917	137.04
394.131	54.7
394.345	129.49
394.559	134.33
394.773	112.63
394.986	159.91
395.2	112.24
395.414	181.8
395.628	128.91
395.842	160.1
396.056	132.98
396.27	96.55
396.484	145.18
396.697	131.23
396.911	163.01
397.125	126.39
397.339	144.21
397.553	85.89
397.766	209.31
397.98	136.27
398.194	167.85
398.408	166.49
398.621	185.67
398.835	175.21
399.049	204.08
399.262	231.59
399.476	200.79
399.69	234.89
399.903	307.15
400.117	189.94
400.331	211.06
400.544	187.22
400.758	319.94
400.971	211.64
401.185	263.17
401.398	208.15
401.612	272.09
401.826	226.36
402.039	258.14
402.253	209.89
402.466	260.65
402.68	215.51
402.893	255.42
403.106	262.01
403.32	212.02
403.533	238.57
403.747	235.85
403.96	249.22
404.174	271.5
404.387	197.3
404.6	217.26
404.814	295.14
405.027	217.06
405.24	212.41
405.454	224.42
405.667	305.8
405.88	166.49
406.094	254.65
406.307	292.04
406.52	243.6
406.733	204.08
406.947	209.7
407.16	336.02
407.373	307.93
407.586	229.85
407.799	226.36
408.012	286.23
408.226	261.62
408.439	308.51
408.652	211.06
408.865	274.99
409.078	309.29
409.291	284.49
409.504	224.23
409.717	312.97
409.93	313.94
410.143	269.37
410.357	204.86
410.57	190.71
410.783	229.66
410.996	262.4
411.209	272.28
411.421	317.81
411.634	306.96
411.847	256.2
412.06	312.19
412.273	317.23
412.486	292.04
412.699	381.94
412.912	318
413.125	337.77
413.338	324.2
413.55	347.65
413.763	306.38
413.976	303.47
414.189	285.84
414.402	305.8
414.615	338.15
414.827	251.94
415.04	349
415.253	333.12
415.466	344.93
415.678	402.28
415.891	327.88
416.104	304.25
416.316	290.88
416.529	318.2
416.742	353.46
416.954	367.41
417.167	334.08
417.38	319.94
417.592	391.24
417.805	275.77
418.017	276.15
418.23	325.17
418.442	318
418.655	318.2
418.868	332.15
419.08	360.43
419.293	399.96
419.505	377.87
419.718	331.76
419.93	386.2
420.142	346.29
420.355	369.73
420.567	387.95
420.78	384.65
420.992	339.9
421.205	397.05
421.417	316.07
421.629	339.9
421.842	331.18
422.054	305.02
422.266	403.45
422.479	417.01
422.691	345.52
422.903	383.68
423.115	341.25
423.328	335.63
423.54	349
423.752	341.06
423.964	323.43
424.177	385.43
424.389	351.72
424.601	467
424.813	377.87
425.025	421.08
425.238	423.21
425.45	368.38
425.662	370.7
425.874	679.73
426.086	373.8
426.298	423.01
426.51	381.94
426.722	398.8
426.934	396.28
427.146	415.85
427.358	355.4
427.57	388.92
427.782	378.65
427.994	354.62
428.206	360.43
428.418	353.85
428.63	405.38
428.842	436.19
429.054	416.62
429.266	426.7
429.478	347.65
429.69	395.12
429.902	342.03
430.114	383.3
430.325	356.75
430.537	352.88
430.749	340.09
430.961	258.72
431.173	306.57
431.384	341.45
431.596	247.87
431.808	351.52
432.02	374.58
432.231	466.41
432.443	477.26
432.655	450.53
432.867	405
433.078	437.74
433.29	501.29
433.502	479.78
433.713	507.88
433.925	474.55
434.136	513.11
434.348	418.17
434.56	380.97
434.771	525.31
434.983	398.6
435.194	405.97
435.406	454.6
435.617	531.9
435.829	552.24
436.04	512.72
436.252	547.4
436.463	572.98
436.675	555.73
436.886	542.75
437.098	551.86
437.309	583.82
437.521	511.94
437.732	525.31
437.943	497.03
438.155	531.51
438.366	462.54
438.578	593.51
438.789	509.43
439	519.69
439.211	491.02
439.423	515.43
439.634	508.84
439.845	543.72
440.057	532.87
440.268	562.9
440.479	516.59
440.69	560.19
440.902	531.13
441.113	514.66
441.324	516.01
441.535	579.95
441.746	634.78
441.957	533.26
442.168	568.13
442.38	594.48
442.591	621.41
442.802	559.22
443.013	557.86
443.224	612.89
443.435	591.19
443.646	595.26
443.857	605.33
444.068	602.62
444.279	576.08
444.49	654.74
444.701	613.27
444.912	707.63
445.123	648.54
445.334	637.11
445.545	634.97
445.756	592.74
445.967	589.25
446.178	624.12
446.388	641.17
446.599	624.32
446.81	655.71
447.021	584.99
447.232	667.72
447.443	681.86
447.653	618.12
447.864	699.3
448.075	631.29
448.286	671.98
448.496	671.59
448.707	692.9
448.918	648.34
449.129	769.63
449.339	632.46
449.55	675.85
449.761	665.59
449.971	678.18
450.182	671.59
450.393	710.54
450.603	705.69
450.814	746.57
451.024	752.39
451.235	758.78
451.446	782.03
451.656	798.5
451.867	710.54
452.077	701.82
452.288	793.27
452.498	751.8
452.709	714.6
452.919	741.54
453.13	699.1
453.34	721.77
453.55	712.09
453.761	704.72
453.971	702.4
454.182	730.69
454.392	724.29
454.602	796.95
454.813	743.09
455.023	760.91
455.233	673.34
455.444	733.2
455.654	618.7
455.864	719.06
456.075	709.18
456.285	713.64
456.495	717.7
456.705	784.93
456.916	811.48
457.126	820.39
457.336	758.2
457.546	683.22
457.756	739.21
457.967	828.53
458.177	738.82
458.387	756.84
458.597	690
458.807	750.84
459.017	749.48
459.227	715.57
459.437	734.56
459.647	760.33
459.857	785.32
460.068	719.64
460.278	809.35
460.488	765.56
460.698	848.48
460.908	748.12
461.117	738.63
461.327	757.23
461.537	794.04
461.747	798.5
461.957	783.77
462.167	903.51
462.377	868.44
462.587	799.47
462.797	857.98
463.007	827.37
463.216	843.64
463.426	875.22
463.636	851.58
463.846	758.2
464.056	791.52
464.265	818.26
464.475	783
464.685	842.87
464.895	849.45
465.104	799.27
465.314	864.56
465.524	796.95
465.733	786.68
465.943	887.81
466.153	881.23
466.362	883.94
466.572	821.17
466.782	801.02
466.991	866.5
467.201	888.2
467.41	766.53
467.62	850.03
467.829	839.18
468.039	855.65
468.249	835.5
468.458	856.04
468.668	906.61
468.877	889.17
469.086	940.32
469.296	952.53
469.505	848.29
469.715	984.88
469.924	900.41
470.134	944.39
470.343	946.33
470.552	851.58
470.762	876.19
470.971	879.1
471.18	933.34
471.39	888.4
471.599	874.83
471.808	960.47
472.018	882.2
472.227	982.75
472.436	1014.14
472.645	969.77
472.855	962.21
473.064	1042.04
473.273	995.93
473.482	989.73
473.691	1035.45
473.901	1016.85
474.11	947.1
474.319	1085.63
474.528	1003.68
474.737	1100.36
474.946	1055.6
475.155	1039.13
475.364	1109.65
475.573	1076.52
475.783	1105.39
475.992	1065.29
476.201	1096.87
476.41	1060.44
476.619	1028.28
476.828	1069.55
477.037	1048.62
477.245	1070.91
477.454	1123.22
477.663	1101.13
477.872	1112.17
478.081	1195.68
478.29	1114.3
478.499	1247.99
478.708	1188.7
478.917	1230.36
479.125	1142.59
479.334	1178.05
479.543	1162.94
479.752	1193.55
479.961	1185.22
480.169	1217.77
480.378	1170.1
480.587	1337.31
480.796	1251.67
481.004	1246.05
481.213	1248.57
481.422	1238.88
481.63	1285.77
481.839	1308.83
482.048	1359.78
482.256	1310.57
482.465	1320.26
482.674	1323.16
482.882	1355.33
483.091	1396.98
483.299	1363.08
483.508	1407.83
483.716	1340.99
483.925	1389.62
484.134	1308.44
484.342	1335.37
484.551	1364.05
484.759	1377.61
484.967	1412.48
485.176	1399.31
485.384	1383.81
485.593	1425.85
485.801	1392.53
486.01	1319.29
486.218	1293.91
486.426	1208.27
486.635	1192.58
486.843	1193.74
487.051	1228.42
487.26	1230.36
487.468	1263.68
487.676	1327.81
487.885	1320.06
488.093	1402.41
488.301	1422.17
488.509	1443.48
488.717	1485.72
488.926	1451.62
489.134	1424.69
489.342	1418.29
489.55	1408.8
489.758	1441.74
489.967	1448.33
490.175	1550.43
490.383	1494.24
490.591	1599.64
490.799	1494.24
491.007	1573.29
491.215	1547.52
491.423	1531.44
491.631	1555.66
491.839	1526.41
492.047	1570.58
492.255	1473.71
492.463	1476.81
492.671	1450.65
492.879	1527.57
493.087	1502.77
493.295	1542.87
493.503	1593.64
493.711	1621.34
493.919	1655.63
494.127	1631.42
494.334	1637.81
494.542	1570.58
494.75	1625.99
494.958	1595.38
495.166	1708.53
495.374	1659.9
495.581	1682.37
495.789	1670.94
495.997	1755.22
496.205	1623.67
496.412	1634.13
496.62	1676.17
496.828	1661.64
497.035	1676.17
497.243	1715.89
497.451	1688.57
497.658	1697.1
497.866	1663.38
498.074	1750.76
498.281	1680.82
498.489	1782.35
498.696	1705.04
498.904	1653.89
499.112	1651.57
499.319	1749.41
499.527	1663.19
499.734	1754.45
499.942	1683.34
500.149	1687.99
500.357	1725
500.564	1683.53
500.771	1717.44
500.979	1669.58
501.186	1654.47
501.394	1692.45
501.601	1679.08
501.808	1714.73
502.016	1659.32
502.223	1649.82
502.43	1707.37
502.638	1678.3
502.845	1646.72
503.052	1745.53
503.26	1676.17
503.467	1808.89
503.674	1746.11
503.881	1755.03
504.089	1841.24
504.296	1773.24
504.503	1716.67
504.71	1702.52
504.917	1691.28
505.125	1732.55
505.332	1757.16
505.539	1769.56
505.746	1843.57
505.953	1867.4
506.16	1822.45
506.367	1907.7
506.574	1907.7
506.781	1916.22
506.988	1829.62
507.195	1867.21
507.402	1847.06
507.609	1898.4
507.816	1816.64
508.023	1834.08
508.23	1847.64
508.437	1758.9
508.644	1822.06
508.851	1869.53
509.058	1917.19
509.265	1885.81
509.472	1906.15
509.679	1995.08
509.885	1878.44
510.092	1906.73
510.299	1894.52
510.506	1882.51
510.713	1908.47
510.92	1922.81
511.126	1942.38
511.333	1976.87
511.54	1967.37
511.746	1976.29
511.953	2031.7
512.16	2027.05
512.367	1971.64
512.573	1965.82
512.78	1989.27
512.987	1976.09
513.193	1968.34
513.4	1876.7
513.606	1916.22
513.813	1969.7
514.02	1937.92
514.226	2004.77
514.433	2016.78
514.639	1877.86
514.846	1977.45
515.052	1914.67
515.259	1958.85
515.465	1936.57
515.672	1982.49
515.878	2077.42
516.085	2017.17
516.291	2055.34
516.497	2008.45
516.704	1985
516.91	1928.82
517.117	1855.97
517.323	1771.69
517.529	1808.5
517.736	1795.33
517.942	1818.58
518.148	1800.75
518.354	1908.86
518.561	1877.67
518.767	1888.71
518.973	1927.07
519.179	1976.09
519.386	1928.24
519.592	1908.47
519.798	1926.88
520.004	2083.23
520.21	2025.69
520.417	2103.97
520.623	2140.39
520.829	2137.68
521.035	2143.88
521.241	2157.83
521.447	2159.96
521.653	2278.53
521.859	2146.78
522.065	2190.96
522.271	2250.63
522.477	2258.19
522.683	2282.6
522.889	2227.96
523.095	2234.75
523.301	2188.44
523.507	2185.73
523.713	2208.2
523.919	2134.19
524.125	2281.44
524.331	2233.78
524.537	2352.74
524.742	2375.79
524.948	2371.34
525.154	2350.61
525.36	2458.91
525.566	2341.11
525.772	2380.64
525.977	2319.22
526.183	2365.72
526.389	2382.38
526.595	2302.36
526.8	2289.96
527.006	2193.67
527.212	2152.6
527.417	2131.28
527.623	2164.61
527.829	2215.56
528.034	2288.8
528.24	2299.84
528.446	2311.28
528.651	2411.64
528.857	2405.05
529.062	2480.22
529.268	2421.52
529.473	2465.5
529.679	2441.28
529.884	2573.03
530.09	2543.38
530.295	2492.43
530.501	2519.55
530.706	2526.53
530.912	2465.3
531.117	2533.89
531.323	2516.84
531.528	2595.31
531.733	2632.31
531.939	2515.29
532.144	2611.97
532.35	2566.05
532.555	2630.38
532.76	2510.45
532.966	2549.2
533.171	2510.83
533.376	2440.12
533.581	2427.91
533.787	2505.6
533.992	2575.16
534.197	2574.58
534.402	2505.8
534.607	2541.45
534.813	2646.07
535.018	2560.05
535.223	2590.47
535.428	2573.22
535.633	2622.05
535.838	2682.88
536.043	2663.31
536.249	2777.04
536.454	2657.7
536.659	2705.74
536.864	2672.81
537.069	2629.02
537.274	2655.76
537.479	2651.69
537.684	2626.5
537.889	2602.86
538.094	2716.98
538.299	2658.66
538.504	2672.23
538.708	2680.36
538.913	2725.7
539.118	2710.78
539.323	2728.8
539.528	2638.71
539.733	2652.85
539.938	2697.99
540.142	2673.2
540.347	2626.89
540.552	2590.47
540.757	2582.91
540.962	2599.57
541.166	2573.8
541.371	2520.91
541.576	2605.38
541.781	2511.22
541.985	2680.75
542.19	2627.28
542.395	2754.38
542.599	2750.5
542.804	2734.03
543.008	2727.44
543.213	2706.33
543.418	2623.98
543.622	2692.38
543.827	2633.67
544.031	2746.24
544.236	2778.01
544.44	2748.95
544.645	2868.1
544.849	2745.27
545.054	2771.04
545.258	2844.86
545.463	2791.19
545.667	2751.86
545.872	2796.42
546.076	2772.39
546.281	2806.69
546.485	2696.25
546.689	2790.8
546.894	2819.86
547.098	2809.98
547.302	2738.1
547.507	2774.91
547.711	2823.16
547.915	2856.87
548.119	2707.88
548.324	2729.58
548.528	2791.19
548.732	2767.36
548.936	2805.14
549.141	2806.69
549.345	2764.84
549.549	2782.47
549.753	2832.46
549.957	2883.41
550.161	2821.41
550.366	2809.98
550.57	2794.29
550.774	2795.84
550.978	2783.05
551.182	2846.99
551.386	2722.02
551.59	2771.81
551.794	2783.24
551.998	2849.89
552.202	2827.42
552.406	2753.6
552.61	2803.39
552.814	2836.91
553.018	2850.86
553.222	2767.94
553.426	2765.81
553.63	2834.78
553.833	2821.02
554.037	2717.95
554.241	2826.84
554.445	2803.01
554.649	2769.49
554.853	2773.94
555.056	2832.46
555.26	2868.49
555.464	2831.49
555.668	2839.82
555.871	2860.55
556.075	2868.88
556.279	2783.05
556.483	2765.81
556.686	2767.94
556.89	2753.99
557.094	2801.46
557.297	2658.28
557.501	2773.56
557.704	2667.58
557.908	2798.94
558.112	2698.96
558.315	2795.64
558.519	2720.28
558.722	2715.63
558.926	2654.01
559.129	2649.17
559.333	2602.86
559.536	2643.36
559.74	2606.35
559.943	2568.77
560.147	2569.73
560.35	2635.03
560.553	2644.71
560.757	2605.58
560.96	2679.2
561.164	2635.8
561.367	2770.46
561.57	2660.8
561.774	2672.03
561.977	2653.63
562.18	2600.93
562.384	2741.78
562.587	2627.28
562.79	2634.64
562.993	2622.05
563.197	2644.52
563.4	2674.94
563.603	2687.73
563.806	2711.94
564.009	2610.61
564.212	2653.63
564.416	2577.87
564.619	2611.2
564.822	2577.87
565.025	2648.78
565.228	2576.9
565.431	2610.42
565.634	2474.41
565.837	2531.95
566.04	2519.55
566.243	2502.12
566.446	2435.08
566.649	2557.53
566.852	2436.05
567.055	2506.96
567.258	2548.42
567.461	2594.53
567.664	2578.84
567.867	2476.35
568.07	2534.67
568.273	2547.65
568.475	2592.21
568.678	2512
568.881	2477.9
569.084	2454.07
569.287	2350.22
569.489	2436.05
569.692	2502.89
569.895	2490.3
570.098	2365.52
570.3	2413.19
570.503	2323.87
570.706	2347.89
570.909	2338.4
571.111	2327.94
571.314	2316.12
571.516	2309.92
571.719	2312.24
571.922	2320.96
572.124	2339.37
572.327	2337.62
572.529	2313.79
572.732	2312.63
572.935	2370.17
573.137	2450.19
573.34	2334.52
573.542	2389.36
573.745	2378.89
573.947	2348.86
574.15	2346.54
574.352	2311.86
574.554	2377.15
574.757	2292.87
574.959	2237.46
575.162	2316.51
575.364	2224.09
575.566	2345.57
575.769	2253.93
575.971	2247.53
576.173	2177.4
576.376	2228.16
576.578	2279.5
576.78	2310.69
576.982	2173.52
577.185	2230.68
577.387	2247.73
577.589	2195.03
577.791	2225.83
577.993	2267.68
578.196	2214.01
578.398	2245.4
578.6	2267.68
578.802	2112.88
579.004	2147.37
579.206	2138.26
579.408	2203.94
579.61	2150.27
579.812	2231.26
580.014	2169.06
580.216	2158.8
580.418	2211.5
580.62	2191.93
580.822	2119.66
581.024	2190.96
581.226	2206.65
581.428	2128.38
581.63	2270.2
581.832	2154.92
582.034	2257.61
582.236	2217.31
582.438	2244.43
582.64	2212.46
582.841	2273.49
583.043	2296.94
583.245	2236.49
583.447	2237.65
583.649	2208.2
583.85	2204.71
584.052	2236.3
584.254	2171
584.456	2227.19
584.657	2132.25
584.859	2171.78
585.061	2144.65
585.262	2170.23
585.464	2128.38
585.666	2150.47
585.867	2127.8
586.069	2167.32
586.27	2177.78
586.472	2123.92
586.674	2112.68
586.875	2071.8
587.077	2126.25
587.278	2133.03
587.48	2101.06
587.681	2238.43
587.883	2132.06
588.084	2063.67
588.285	2068.7
588.487	2028.99
588.688	2095.05
588.89	1973.38
589.091	1958.07
589.292	1949.74
589.494	1940.83
589.695	1851.32
589.896	1775.76
590.098	1804.05
590.299	1863.14
590.5	1823.23
590.702	1919.71
590.903	1923.39
591.104	1984.23
591.305	1963.89
591.507	2041.19
591.708	1990.24
591.909	1956.91
592.11	2049.91
592.311	2020.07
592.512	1958.85
592.714	1936.57
592.915	1920.29
593.116	1945.87
593.317	1978.42
593.518	1974.54
593.719	2002.05
593.92	2009.42
594.121	2042.16
594.322	1979.97
594.523	1992.75
594.724	1954.2
594.925	1960.79
595.126	1958.85
595.327	1959.24
595.528	1947.22
595.729	1968.73
595.929	1957.49
596.13	1948
596.331	1965.63
596.532	1938.31
596.733	2018.33
596.934	2019.1
597.135	2013.49
597.335	2028.6
597.536	1923.59
597.737	2003.6
597.938	1942.77
598.138	1991.98
598.339	1932.69
598.54	1993.72
598.74	1938.89
598.941	1972.99
599.142	2043.13
599.342	1958.46
599.543	1929.01
599.744	1940.06
599.944	1974.16
600.145	1941.8
600.345	1981.32
600.546	2044.29
600.746	2011.35
600.947	2015.04
601.147	1973.19
601.348	2005.93
601.548	1912.16
601.749	1941.02
601.949	1847.64
602.15	1881.74
602.35	1899.17
602.551	1953.42
602.751	1870.69
602.951	1912.74
603.152	1841.63
603.352	1966.41
603.552	1918.16
603.753	1984.04
603.953	1962.72
604.153	1971.06
604.354	1930.17
604.554	1938.12
604.754	1953.04
604.954	1881.16
605.155	1970.47
605.355	1893.17
605.555	1959.62
605.755	1990.82
605.955	1906.15
606.155	1960.21
606.356	1927.07
606.556	1961.17
606.756	1947.81
606.956	1861.39
607.156	1976.29
607.356	1869.14
607.556	1914.67
607.756	1929.59
607.956	1940.83
608.156	1915.45
608.356	1850.35
608.556	1967.37
608.756	1929.21
608.956	1822.45
609.156	1857.33
609.356	1868.56
609.556	1828.26
609.755	1884.84
609.955	1826.33
610.155	1851.51
610.355	1828.65
610.555	1816.25
610.755	1810.05
610.954	1782.73
611.154	1841.63
611.354	1878.25
611.554	1783.9
611.753	1830.39
611.953	1770.14
612.153	1843.76
612.352	1820.32
612.552	1742.05
612.752	1755.03
612.951	1803.46
613.151	1787.96
613.351	1773.43
613.55	1790.1
613.75	1780.99
613.949	1798.62
614.149	1774.6
614.348	1747.86
614.548	1726.16
