Data from gum_old_FLMT105791__187__15-48-14-249.txt Node

Date: Mon Mar 20 15:48:14 GMT 2023
User: antho
Spectrometer: FLMT10579
Trigger mode: 0
Integration Time (sec): 1.000000E-1
Scans to average: 10
Electric dark correction enabled: true
Nonlinearity correction enabled: false
Boxcar width: 0
XAxis mode: Wavelengths
Number of Pixels in Spectrum: 3648
>>>>>Begin Spectral Data<<<<<
345.248	-163.1
345.464	-163.1
345.681	-163.1
345.898	-190.42
346.114	-193.91
346.331	-33.87
346.548	47.31
346.764	6.62
346.981	-14.31
347.197	-24.96
347.414	25.8
347.631	-8.49
347.847	33.36
348.064	-25.35
348.28	29.68
348.497	-41.24
348.713	5.46
348.93	26.58
349.146	11.66
349.363	2.74
349.579	25.41
349.796	19.79
350.012	13.01
350.229	52.93
350.445	31.42
350.661	2.94
350.878	20.18
351.094	28.51
351.311	38.2
351.527	35.1
351.743	0.23
351.96	40.14
352.176	37.04
352.392	34.13
352.609	64.55
352.825	23.28
353.041	13.79
353.257	16.11
353.474	3.71
353.69	20.96
353.906	46.73
354.122	-9.27
354.339	78.69
354.555	41.11
354.771	49.44
354.987	93.42
355.203	75.59
355.42	10.11
355.636	-2.49
355.852	-5.97
356.068	19.79
356.284	22.7
356.5	87.99
356.716	51.96
356.932	32.97
357.148	46.73
357.364	33.36
357.58	81.21
357.796	78.11
358.012	67.84
358.228	34.33
358.444	-34.26
358.66	63.97
358.876	51.76
359.092	1.97
359.308	32.78
359.524	47.11
359.74	21.34
359.956	22.12
360.172	57.19
360.388	77.72
360.604	19.99
360.819	119.77
361.035	41.88
361.251	54.86
361.467	1.19
361.683	79.27
361.898	57.96
362.114	68.62
362.33	29.68
362.546	91.48
362.762	47.69
362.977	39.56
363.193	35.29
363.409	44.21
363.624	22.51
363.84	12.24
364.056	26.19
364.271	63.97
364.487	57.38
364.703	46.73
364.918	14.37
365.134	28.9
365.35	26.58
365.565	129.65
365.781	43.63
365.996	63.19
366.212	106.21
366.427	61.45
366.643	32.19
366.858	47.69
367.074	-4.62
367.289	108.34
367.505	148.83
367.72	20.76
367.936	16.31
368.151	70.56
368.367	76.37
368.582	62.61
368.798	41.3
369.013	101.94
369.228	48.66
369.444	82.96
369.659	105.04
369.874	88.96
370.09	106.21
370.305	-7.52
370.52	48.08
370.736	111.05
370.951	46.34
371.166	117.83
371.381	93.42
371.597	90.32
371.812	48.66
372.027	37.04
372.242	78.69
372.458	148.64
372.673	77.72
372.888	56.22
373.103	75.01
373.318	143.6
373.533	92.45
373.749	74.04
373.964	-6.56
374.179	72.69
374.394	48.86
374.609	86.83
374.824	15.14
375.039	104.07
375.254	22.7
375.469	120.74
375.684	106.59
375.899	118.22
376.114	70.75
376.329	81.21
376.544	84.7
376.759	75.01
376.974	45.76
377.189	60.09
377.404	49.24
377.619	119.38
377.834	38.01
378.049	44.59
378.264	33.55
378.478	97.1
378.693	57.58
378.908	103.88
379.123	86.83
379.338	116.28
379.553	85.86
379.767	81.6
379.982	102.91
380.197	91.29
380.412	70.75
380.626	111.44
380.841	160.84
381.056	110.27
381.271	147.47
381.485	52.34
381.7	38.2
381.915	95.16
382.129	47.5
382.344	67.07
382.559	55.06
382.773	101.56
382.988	26.96
383.202	87.41
383.417	48.66
383.632	149.41
383.846	56.8
384.061	63.39
384.275	59.9
384.49	89.35
384.704	94
384.919	84.89
385.133	96.52
385.348	118.61
385.562	48.28
385.777	134.49
385.991	91.48
386.206	70.94
386.42	52.73
386.634	137.98
386.849	125
387.063	118.41
387.277	83.15
387.492	80.44
387.706	46.34
387.92	65.71
388.135	89.35
388.349	113.57
388.563	106.98
388.778	94.19
388.992	124.03
389.206	124.81
389.42	193.78
389.635	74.24
389.849	116.09
390.063	150.57
390.277	123.06
390.491	191.45
390.706	143.02
390.92	137.4
391.134	129.46
391.348	149.22
391.562	60.68
391.776	111.05
391.99	113.76
392.205	172.47
392.419	96.52
392.633	123.64
392.847	174.79
393.061	86.25
393.275	179.25
393.489	90.9
393.703	100.01
393.917	112.79
394.131	72.49
394.345	121.9
394.559	164.52
394.773	112.6
394.986	131.01
395.2	126.94
395.414	158.32
395.628	112.41
395.842	161.62
396.056	125.19
396.27	105.82
396.484	144.76
396.697	133.91
396.911	151.35
397.125	114.54
397.339	157.55
397.553	126.74
397.766	187
397.98	181.57
398.194	174.6
398.408	148.64
398.621	213.35
398.835	207.92
399.049	191.65
399.262	241.64
399.476	212.96
399.69	211.8
399.903	267.4
400.117	187.58
400.331	212.38
400.544	174.99
400.758	319.52
400.971	206.95
401.185	236.99
401.398	168.79
401.612	281.55
401.826	237.18
402.039	237.57
402.253	184.67
402.466	232.92
402.68	219.74
402.893	260.62
403.106	225.55
403.32	223.23
403.533	239.5
403.747	225.17
403.96	256.17
404.174	256.17
404.387	204.63
404.6	254.81
404.814	290.07
405.027	244.35
405.24	228.85
405.454	209.86
405.667	268.57
405.88	172.47
406.094	260.82
406.307	287.36
406.52	234.27
406.733	205.21
406.947	176.73
407.16	299.57
407.373	291.43
407.586	221.68
407.799	213.93
408.012	269.73
408.226	247.45
408.439	316.62
408.652	219.35
408.865	277.87
409.078	299.18
409.291	259.85
409.504	243.96
409.717	281.93
409.93	299.57
410.143	291.43
410.357	209.09
410.57	195.52
410.783	233.89
410.996	274.96
411.209	252.87
411.421	301.7
411.634	290.85
411.847	245.9
412.06	280
412.273	286
412.486	282.13
412.699	370.09
412.912	292.4
413.125	310.42
413.338	317
413.55	343.93
413.763	307.7
413.976	326.5
414.189	269.53
414.402	297.05
414.615	371.83
414.827	259.07
415.04	323.59
415.253	323.78
415.466	372.61
415.678	382.1
415.891	337.93
416.104	285.62
416.316	313.52
416.529	270.89
416.742	392.18
416.954	345.1
417.167	333.47
417.38	331.92
417.592	383.46
417.805	289.49
418.017	290.65
418.23	342.96
418.442	323.59
418.655	325.33
418.868	349.94
419.08	359.82
419.293	369.31
419.505	368.93
419.718	358.66
419.93	339.09
420.142	351.1
420.355	382.49
420.567	413.3
420.78	333.08
420.992	323.98
421.205	407.29
421.417	331.34
421.629	345.48
421.842	329.21
422.054	334.63
422.266	362.73
422.479	399.73
422.691	331.15
422.903	404.38
423.115	314.68
423.328	353.62
423.54	348.78
423.752	339.28
423.964	321.46
424.177	391.79
424.389	353.04
424.601	461.54
424.813	385.2
425.025	410.2
425.238	391.98
425.45	396.25
425.662	349.16
425.874	692.68
426.086	383.46
426.298	392.37
426.51	384.23
426.722	375.71
426.934	360.21
427.146	424.34
427.358	354.98
427.57	415.23
427.782	377.26
427.994	385.59
428.206	360.21
428.418	345.1
428.63	412.33
428.842	421.63
429.054	373.38
429.266	421.05
429.478	348.78
429.69	356.33
429.902	307.9
430.114	383.85
430.325	367.57
430.537	305.77
430.749	316.62
430.961	240.09
431.173	314.68
431.384	345.68
431.596	277.48
431.808	335.02
432.02	408.65
432.231	435.19
432.443	490.79
432.655	430.54
432.867	418.91
433.078	449.14
433.29	494.09
433.502	449.33
433.713	491.38
433.925	443.13
434.136	517.72
434.348	397.99
434.56	375.51
434.771	511.72
434.983	346.06
435.194	379.58
435.406	442.74
435.617	498.74
435.829	531.29
436.04	489.83
436.252	489.24
436.463	538.07
436.675	543.11
436.886	509.59
437.098	537.1
437.309	568.29
437.521	516.95
437.732	489.63
437.943	508.04
438.155	484.21
438.366	449.14
438.578	574.11
438.789	474.91
439	529.74
439.211	480.33
439.423	491.96
439.634	501.84
439.845	520.63
440.057	532.06
440.268	565.39
440.479	466.38
440.69	533.03
440.902	495.83
441.113	513.66
441.324	488.47
441.535	554.34
441.746	622.93
441.957	521.99
442.168	527.41
442.38	591.54
442.591	597.35
442.802	547.76
443.013	560.16
443.224	582.24
443.435	566.16
443.646	565
443.857	562.29
444.068	558.8
444.279	544.85
444.49	641.72
444.701	572.94
444.912	701.01
445.123	677.76
445.334	622.15
445.545	597.74
445.756	573.52
445.967	559.19
446.178	568.1
446.388	624.29
446.599	597.35
446.81	619.83
447.021	570.42
447.232	637.27
447.443	641.92
447.653	593.29
447.864	667.69
448.075	644.24
448.286	651.99
448.496	625.25
448.707	683.57
448.918	613.44
449.129	735.88
449.339	598.52
449.55	641.34
449.761	643.27
449.971	695.97
450.182	633.78
450.393	694.03
450.603	660.9
450.814	694.62
451.024	701.4
451.235	742.28
451.446	739.18
451.656	760.3
451.867	661.1
452.077	686.28
452.288	747.51
452.498	766.69
452.709	690.55
452.919	679.12
453.13	614.79
453.34	724.07
453.55	599.29
453.761	711.28
453.971	680.67
454.182	701.01
454.392	688.61
454.602	748.87
454.813	699.27
455.023	730.85
455.233	632.62
455.444	710.7
455.654	583.99
455.864	671.56
456.075	658.39
456.285	660.32
456.495	717.87
456.705	717.87
456.916	755.26
457.126	790.71
457.336	724.65
457.546	653.54
457.756	708.76
457.967	758.17
458.177	706.43
458.387	723.87
458.597	666.14
458.807	680.28
459.017	692.29
459.227	671.56
459.437	694.62
459.647	735.5
459.857	759.52
460.068	695
460.278	751.77
460.488	745.77
460.698	799.05
460.908	717.28
461.117	685.32
461.327	698.88
461.537	755.65
461.747	759.91
461.957	790.71
462.167	883.71
462.377	793.43
462.587	746.15
462.797	831.01
463.007	779.67
463.216	813.96
463.426	858.91
463.636	812.8
463.846	735.11
464.056	757.2
464.265	793.04
464.475	723.1
464.685	777.73
464.895	784.71
465.104	753.52
465.314	805.44
465.524	756.81
465.733	721.55
465.943	825.98
466.153	849.81
466.362	826.36
466.572	819.2
466.782	796.91
466.991	819.78
467.201	852.91
467.41	725.03
467.62	798.08
467.829	783.16
468.039	808.73
468.249	792.26
468.458	825.2
468.668	841.48
468.877	842.45
469.086	895.14
469.296	883.91
469.505	839.15
469.715	938.35
469.924	874.8
470.134	854.07
470.343	894.95
470.552	839.73
470.762	822.3
470.971	821.33
471.18	871.31
471.39	864.73
471.599	811.83
471.808	910.64
472.018	843.8
472.227	940.48
472.436	997.83
472.645	925.76
472.855	869.57
473.064	972.84
473.273	969.35
473.482	953.46
473.691	984.07
473.901	962.37
474.11	905.03
474.319	1012.36
474.528	950.75
474.737	1040.65
474.946	1015.66
475.155	1021.27
475.364	1062.15
475.573	978.46
475.783	1015.85
475.992	1036
476.201	1085.99
476.41	984.85
476.619	953.27
476.828	1036.19
477.037	988.53
477.245	1003.84
477.454	1048.98
477.663	1053.82
477.872	1058.47
478.081	1155.73
478.29	1051.69
478.499	1192.35
478.708	1114.85
478.917	1167.17
479.125	1097.42
479.334	1096.25
479.543	1121.63
479.752	1156.7
479.961	1162.71
480.169	1195.84
480.378	1157.48
480.587	1335.53
480.796	1213.08
481.004	1170.27
481.213	1219.67
481.422	1188.67
481.63	1219.67
481.839	1245.25
482.048	1302.4
482.256	1259.58
482.465	1256.68
482.674	1282.45
482.882	1292.52
483.091	1364.21
483.299	1259.2
483.508	1317.9
483.716	1285.35
483.925	1288.84
484.134	1257.26
484.342	1270.24
484.551	1332.43
484.759	1294.07
484.967	1345.03
485.176	1340.38
485.384	1354.13
485.593	1356.26
485.801	1335.73
486.01	1260.55
486.218	1219.67
486.426	1169.49
486.635	1157.28
486.843	1117.95
487.051	1172.4
487.26	1161.55
487.468	1225.29
487.676	1254.55
487.885	1278.38
488.093	1299.49
488.301	1316.16
488.509	1325.07
488.717	1394.82
488.926	1375.64
489.134	1358.39
489.342	1343.86
489.55	1305.11
489.758	1372.73
489.967	1372.93
490.175	1493.44
490.383	1388.42
490.591	1521.92
490.799	1420.78
491.007	1495.37
491.215	1477.35
491.423	1449.46
491.631	1457.98
491.839	1471.35
492.047	1485.3
492.255	1359.75
492.463	1391.72
492.671	1385.52
492.879	1447.32
493.087	1459.53
493.295	1466.7
493.503	1498.67
493.711	1550.79
493.919	1535.87
494.127	1550.79
494.334	1545.75
494.542	1484.14
494.75	1565.9
494.958	1510.29
495.166	1584.3
495.374	1571.52
495.581	1595.35
495.789	1555.44
495.997	1655.8
496.205	1535.48
496.412	1554.85
496.62	1548.27
496.828	1590.89
497.035	1566.09
497.243	1630.03
497.451	1618.21
497.658	1610.07
497.866	1590.5
498.074	1700.94
498.281	1599.03
498.489	1706.36
498.696	1602.52
498.904	1587.21
499.112	1557.95
499.319	1636.03
499.527	1630.42
499.734	1660.64
499.942	1573.84
500.149	1649.79
500.357	1660.64
500.564	1575.39
500.771	1625.77
500.979	1559.89
501.186	1569.19
501.394	1613.95
501.601	1605.42
501.808	1615.11
502.016	1585.08
502.223	1550.2
502.43	1582.17
502.638	1590.5
502.845	1612.2
503.052	1692.22
503.26	1597.67
503.467	1752.09
503.674	1686.02
503.881	1674.98
504.089	1709.46
504.296	1732.91
504.503	1590.5
504.71	1643.01
504.917	1586.82
505.125	1658.9
505.332	1686.41
505.539	1715.08
505.746	1770.11
505.953	1767.2
506.16	1770.3
506.367	1800.53
506.574	1818.74
506.781	1819.13
506.988	1758.87
507.195	1799.56
507.402	1789.87
507.609	1794.13
507.816	1735.43
508.023	1756.54
508.23	1713.92
508.437	1699.39
508.644	1765.07
508.851	1787.93
509.058	1788.32
509.265	1809.83
509.472	1853.03
509.679	1936.92
509.885	1838.31
510.092	1859.62
510.299	1807.31
510.506	1820.29
510.713	1810.6
510.92	1803.63
511.126	1851.48
511.333	1877.44
511.54	1870.27
511.746	1910.19
511.953	1924.52
512.16	1930.92
512.367	1850.51
512.573	1889.46
512.78	1889.84
512.987	1887.52
513.193	1843.73
513.4	1764.29
513.606	1862.91
513.813	1844.31
514.02	1868.53
514.226	1945.06
514.433	1915.22
514.639	1803.43
514.846	1874.54
515.052	1843.54
515.259	1895.07
515.465	1893.14
515.672	1897.4
515.878	2036.9
516.085	1920.84
516.291	1969.86
516.497	1900.89
516.704	1914.84
516.91	1816.99
517.117	1773.4
517.323	1672.85
517.529	1740.46
517.736	1710.43
517.942	1745.31
518.148	1767.98
518.354	1850.9
518.561	1821.64
518.767	1819.71
518.973	1874.34
519.179	1892.17
519.386	1850.32
519.592	1840.63
519.798	1874.92
520.004	2004.54
520.21	1984.78
520.417	1990.98
520.623	2092.31
520.829	2056.85
521.035	2054.53
521.241	2044.65
521.447	2113.62
521.653	2199.45
521.859	2068.67
522.065	2136.48
522.271	2208.17
522.477	2156.05
522.683	2247.11
522.889	2169.42
523.095	2155.28
523.301	2119.43
523.507	2111.3
523.713	2132.03
523.919	2099.48
524.125	2194.8
524.331	2188.79
524.537	2295.55
524.742	2262.22
524.948	2297.68
525.154	2295.74
525.36	2404.82
525.566	2263
525.772	2332.75
525.977	2239.94
526.183	2331.2
526.389	2380.8
526.595	2219.21
526.8	2220.18
527.006	2153.53
527.212	2113.62
527.417	2068.48
527.623	2090.95
527.829	2164
528.034	2180.08
528.24	2204.88
528.446	2237.23
528.651	2375.57
528.857	2371.69
529.062	2397.85
529.268	2399.79
529.473	2398.62
529.679	2434.85
529.884	2541.61
530.09	2445.7
530.295	2443.77
530.501	2484.84
530.706	2437.76
530.912	2418.77
531.117	2475.54
531.323	2446.87
531.528	2515.84
531.733	2554.2
531.939	2502.67
532.144	2538.7
532.35	2486.97
532.555	2566.8
532.76	2516.81
532.966	2504.8
533.171	2444.93
533.376	2397.27
533.581	2348.83
533.787	2410.44
533.992	2480.19
534.197	2491.82
534.402	2486.97
534.607	2501.12
534.813	2585.4
535.018	2494.92
535.223	2527.85
535.428	2518.17
535.633	2587.33
535.838	2589.08
536.043	2623.18
536.249	2676.84
536.454	2604.38
536.659	2658.24
536.864	2620.85
537.069	2568.93
537.274	2613.88
537.479	2578.42
537.684	2588.3
537.889	2506.15
538.094	2664.64
538.299	2601.28
538.504	2604.38
538.708	2597.41
538.913	2615.43
539.118	2630.34
539.323	2664.25
539.528	2589.85
539.733	2603.61
539.938	2606.13
540.142	2617.75
540.347	2566.8
540.552	2548.97
540.757	2555.95
540.962	2571.25
541.166	2495.69
541.371	2506.54
541.576	2536.76
541.781	2446.87
541.985	2606.9
542.19	2583.85
542.395	2717.53
542.599	2752.21
542.804	2655.34
543.008	2706.1
543.213	2627.44
543.418	2589.08
543.622	2693.51
543.827	2574.74
544.031	2722.57
544.236	2681.49
544.44	2679.56
544.645	2804.33
544.849	2682.27
545.054	2723.15
545.258	2803.75
545.463	2742.52
545.667	2621.24
545.872	2744.07
546.076	2690.02
546.281	2690.02
546.485	2705.13
546.689	2716.56
546.894	2707.26
547.098	2739.23
547.302	2678.59
547.507	2720.05
547.711	2748.92
547.915	2757.44
548.119	2630.93
548.324	2674.52
548.528	2727.41
548.732	2707.84
548.936	2745.62
549.141	2756.67
549.345	2674.91
549.549	2710.36
549.753	2735.55
549.957	2799.87
550.161	2805.1
550.366	2773.33
550.57	2720.44
550.774	2747.95
550.978	2744.46
551.182	2773.91
551.386	2702.61
551.59	2681.88
551.794	2699.32
551.998	2748.14
552.202	2710.56
552.406	2681.69
552.61	2783.4
552.814	2731.48
553.018	2799.49
553.222	2698.35
553.426	2667.35
553.63	2829.32
553.833	2710.94
554.037	2647.01
554.241	2730.12
554.445	2723.15
554.649	2747.17
554.853	2675.49
555.056	2748.92
555.26	2748.72
555.464	2728.57
555.668	2763.26
555.871	2805.49
556.075	2807.24
556.279	2724.31
556.483	2666.19
556.686	2695.06
556.89	2717.34
557.094	2719.86
557.297	2662.51
557.501	2685.37
557.704	2609.23
557.908	2700.67
558.112	2601.67
558.315	2736.71
558.519	2659.21
558.722	2628.41
558.926	2619.3
559.129	2517.39
559.333	2509.83
559.536	2528.24
559.74	2533.86
559.943	2500.53
560.147	2520.68
560.35	2557.3
560.553	2549.75
560.757	2499.18
560.96	2613.49
561.164	2547.61
561.367	2631.12
561.57	2567.76
561.774	2586.17
561.977	2544.51
562.18	2534.44
562.384	2674.33
562.587	2568.73
562.79	2524.56
562.993	2523.4
563.197	2539.67
563.4	2605.55
563.603	2609.03
563.806	2660.96
564.009	2535.41
564.212	2544.51
564.416	2481.16
564.619	2523.59
564.822	2422.07
565.025	2583.85
565.228	2501.5
565.431	2516.81
565.634	2381.38
565.837	2442.6
566.04	2421.49
566.243	2394.94
566.446	2331.78
566.649	2454.42
566.852	2376.73
567.055	2383.7
567.258	2422.84
567.461	2480.19
567.664	2499.76
567.867	2392.04
568.07	2392.81
568.273	2410.64
568.475	2490.46
568.678	2379.83
568.881	2398.62
569.084	2342.24
569.287	2266.1
569.489	2287.02
569.692	2348.25
569.895	2367.82
570.098	2275.59
570.3	2245.95
570.503	2219.99
570.706	2222.31
570.909	2265.32
571.111	2163.03
571.314	2213.79
571.516	2207.59
571.719	2220.57
571.922	2196.35
572.124	2200.81
572.327	2215.53
572.529	2213.21
572.732	2180.46
572.935	2230.06
573.137	2288.38
573.34	2213.79
573.542	2313.18
573.745	2248.47
573.947	2249.05
574.15	2253.12
574.352	2206.23
574.554	2268.62
574.757	2166.13
574.959	2150.05
575.162	2158.18
575.364	2145.2
575.566	2247.89
575.769	2113.81
575.971	2144.04
576.173	2012.87
576.376	2126.6
576.578	2131.83
576.78	2201.39
576.982	2074.87
577.185	2085.33
577.387	2071.38
577.589	2082.04
577.791	2149.85
577.993	2109.36
578.196	2077.39
578.398	2101.8
578.6	2108.39
578.802	2020.43
579.004	1989.62
579.206	2038.06
579.408	2066.15
579.61	2013.45
579.812	2096.38
580.014	1996.21
580.216	2036.12
580.418	2052.59
580.62	2038.45
580.822	1995.63
581.024	2057.05
581.226	2066.73
581.428	2021.01
581.63	2135.9
581.832	1974.9
582.034	2108.2
582.236	2026.82
582.438	2075.84
582.64	2091.73
582.841	2128.15
583.043	2138.42
583.245	2071.19
583.447	2082.62
583.649	2076.03
583.85	2031.67
584.052	2098.12
584.254	2018.68
584.456	2090.76
584.657	1996.6
584.859	2012.29
585.061	2018.88
585.262	1979.55
585.464	1977.22
585.666	2014.23
585.867	1938.47
586.069	2055.5
586.27	1963.47
586.472	1984.78
586.674	1953.2
586.875	1965.99
587.077	1941.96
587.278	1999.31
587.48	1965.21
587.681	2090.95
587.883	2023.72
588.084	1921.62
588.285	1905.73
588.487	1937.12
588.688	1958.43
588.89	1857.1
589.091	1835.98
589.292	1819.13
589.494	1768.36
589.695	1734.84
589.896	1662.19
590.098	1664.71
590.299	1748.02
590.5	1686.8
590.702	1703.46
590.903	1784.25
591.104	1867.37
591.305	1839.66
591.507	1881.12
591.708	1863.11
591.909	1819.32
592.11	1926.46
592.311	1883.64
592.512	1839.66
592.714	1801.88
592.915	1813.7
593.116	1808.47
593.317	1841.6
593.518	1815.06
593.719	1838.11
593.92	1837.53
594.121	1892.17
594.322	1830.56
594.523	1835.4
594.724	1775.14
594.925	1826.49
595.126	1835.59
595.327	1821.84
595.528	1813.89
595.729	1793.55
595.929	1798.39
596.13	1799.17
596.331	1843.54
596.532	1819.71
596.733	1884.42
596.934	1898.17
597.135	1843.92
597.335	1855.94
597.536	1785.03
597.737	1802.08
597.938	1788.51
598.138	1840.82
598.339	1797.81
598.54	1791.81
598.74	1799.36
598.941	1810.99
599.142	1858.07
599.342	1853.22
599.543	1787.74
599.744	1756.35
599.944	1738.53
600.145	1792.78
600.345	1794.33
600.546	1856.52
600.746	1832.88
600.947	1882.48
601.147	1785.22
601.348	1842.57
601.548	1755.58
601.749	1787.74
601.949	1721.67
602.15	1736.01
602.35	1744.53
602.551	1813.12
602.751	1702.3
602.951	1743.18
603.152	1703.85
603.352	1795.68
603.552	1731.36
603.753	1825.91
603.953	1837.14
604.153	1783.48
604.354	1794.52
604.554	1725.16
604.754	1772.04
604.954	1751.31
605.155	1788.13
605.355	1762.55
605.555	1795.68
605.755	1815.44
605.955	1738.14
606.155	1812.54
606.356	1765.07
606.556	1783.09
606.756	1788.13
606.956	1688.35
607.156	1853.81
607.356	1689.7
607.556	1741.04
607.756	1749.96
607.956	1796.65
608.156	1766.23
608.356	1691.83
608.556	1747.44
608.756	1706.56
608.956	1698.42
609.156	1724.58
609.356	1658.31
609.556	1662.96
609.755	1700.16
609.955	1654.05
610.155	1706.75
610.355	1701.91
610.555	1647.85
610.755	1654.25
610.954	1601.16
611.154	1678.27
611.354	1696.87
611.554	1630.42
611.753	1670.52
611.953	1584.5
612.153	1683.31
612.352	1692.22
612.552	1571.71
612.752	1601.93
612.951	1641.07
613.151	1660.45
613.351	1596.51
613.55	1636.03
613.75	1623.05
613.949	1576.55
614.149	1638.75
614.348	1580.62
614.548	1587.6
