Data from gum_old_FLMT105791__191__15-48-18-249.txt Node

Date: Mon Mar 20 15:48:18 GMT 2023
User: antho
Spectrometer: FLMT10579
Trigger mode: 0
Integration Time (sec): 1.000000E-1
Scans to average: 10
Electric dark correction enabled: true
Nonlinearity correction enabled: false
Boxcar width: 0
XAxis mode: Wavelengths
Number of Pixels in Spectrum: 3648
>>>>>Begin Spectral Data<<<<<
345.248	-182.49
345.464	-182.49
345.681	-182.49
345.898	-189.47
346.114	-186.56
346.331	-53.26
346.548	36.63
346.764	-5.99
346.981	1.37
347.197	-16.65
347.414	17.07
347.631	-14.71
347.847	62.21
348.064	2.34
348.28	16.1
348.497	-25.75
348.713	-19.36
348.93	41.87
349.146	37.02
349.363	8.35
349.579	46.13
349.796	-9.48
350.012	10.09
350.229	64.92
350.445	29.27
350.661	3.5
350.878	16.1
351.094	47.48
351.311	51.75
351.527	29.47
351.743	0.4
351.96	56.78
352.176	66.47
352.392	53.68
352.609	17.26
352.825	-34.08
353.041	32.76
353.257	11.64
353.474	48.07
353.69	25.78
353.906	68.22
354.122	-17.23
354.339	100.38
354.555	27.92
354.771	31.6
354.987	109.1
355.203	94.18
355.42	7.77
355.636	12.8
355.852	8.93
356.068	47.48
356.284	-28.46
356.5	92.05
356.716	44.58
356.932	33.53
357.148	60.66
357.364	16.29
357.58	68.02
357.796	79.84
358.012	75.38
358.228	44.58
358.444	-39.9
358.66	99.21
358.876	33.53
359.092	1.76
359.308	38.38
359.524	57.75
359.74	19.2
359.956	31.02
360.172	44
360.388	77.71
360.604	1.95
360.819	116.46
361.035	40.51
361.251	67.25
361.467	13.77
361.683	73.64
361.898	63.18
362.114	72.87
362.33	68.6
362.546	74.61
362.762	61.82
362.977	36.63
363.193	32.18
363.409	47.1
363.624	6.02
363.84	28.11
364.056	31.79
364.271	57.95
364.487	94.56
364.703	44.97
364.918	7.96
365.134	16.68
365.35	21.33
365.565	163.54
365.781	55.04
365.996	80.03
366.212	134.86
366.427	46.71
366.643	29.27
366.858	30.82
367.074	28.69
367.289	101.35
367.505	143.97
367.72	31.98
367.936	39.35
368.151	96.5
368.367	84.1
368.582	58.72
368.798	34.7
369.013	120.53
369.228	64.15
369.444	65.89
369.659	122.46
369.874	78.29
370.09	119.36
370.305	14.16
370.52	44.19
370.736	114.52
370.951	66.28
371.166	103.67
371.381	126.73
371.597	112.97
371.812	42.06
372.027	39.93
372.242	68.99
372.458	138.16
372.673	48.45
372.888	59.88
373.103	88.95
373.318	139.13
373.533	103.67
373.749	85.26
373.964	24.04
374.179	109.87
374.394	15.9
374.609	106.77
374.824	23.65
375.039	99.8
375.254	36.05
375.469	98.25
375.684	88.17
375.899	102.12
376.114	82.75
376.329	82.36
376.544	101.93
376.759	108.51
376.974	21.91
377.189	67.44
377.404	35.28
377.619	96.31
377.834	1.95
378.049	24.82
378.264	25.98
378.478	108.32
378.693	65.12
378.908	113.16
379.123	88.75
379.338	142.42
379.553	108.71
379.767	93.21
379.982	104.45
380.197	118.4
380.412	77.13
380.626	112.58
380.841	170.13
381.056	101.15
381.271	166.45
381.485	61.05
381.7	53.49
381.915	101.93
382.129	68.99
382.344	76.74
382.559	98.83
382.773	111.61
382.988	-0.57
383.202	89.33
383.417	60.47
383.632	173.23
383.846	83.52
384.061	61.43
384.275	66.08
384.49	99.41
384.704	121.3
384.919	91.85
385.133	86.62
385.348	129.44
385.562	57.56
385.777	117.81
385.991	84.1
386.206	76.93
386.42	98.83
386.634	147.46
386.849	128.47
387.063	105.8
387.277	57.75
387.492	77.9
387.706	58.72
387.92	59.5
388.135	123.63
388.349	113.36
388.563	99.21
388.778	106
388.992	121.5
389.206	126.34
389.42	200.16
389.635	94.37
389.849	154.24
390.063	148.81
390.277	133.12
390.491	200.16
390.706	163.54
390.92	136.8
391.134	126.34
391.348	175.36
391.562	65.5
391.776	144.16
391.99	124.98
392.205	162.18
392.419	136.61
392.633	121.88
392.847	180.59
393.061	104.25
393.275	167.99
393.489	104.83
393.703	127.89
393.917	119.75
394.131	68.22
394.345	157.73
394.559	146.88
394.773	93.6
394.986	143.39
395.2	142.81
395.414	153.85
395.628	120.33
395.842	180.01
396.056	146.68
396.27	93.4
396.484	155.79
396.697	136.03
396.911	166.83
397.125	133.9
397.339	145.33
397.553	116.07
397.766	190.08
397.98	170.9
398.194	186.98
398.408	139.51
398.621	184.27
398.835	203.26
399.049	178.65
399.262	249.95
399.476	237.36
399.69	234.84
399.903	286.18
400.117	202.87
400.331	234.64
400.544	199.96
400.758	354.77
400.971	236.97
401.185	277.27
401.398	200.93
401.612	281.92
401.826	255.96
402.039	251.89
402.253	201.13
402.466	277.46
402.68	255.76
402.893	271.26
403.106	269.52
403.32	242.39
403.533	255.37
403.747	239.1
403.96	259.44
404.174	259.25
404.387	211.59
404.6	250.92
404.814	310.01
405.027	248.21
405.24	244.33
405.454	226.31
405.667	282.11
405.88	204.42
406.094	279.4
406.307	297.22
406.52	253.44
406.733	238.52
406.947	192.79
407.16	325.32
407.373	311.56
407.586	260.41
407.799	245.49
408.012	312.92
408.226	292.57
408.439	323.77
408.652	256.54
408.865	315.44
409.078	340.24
409.291	304.59
409.504	271.26
409.717	317.18
409.93	322.8
410.143	256.92
410.357	224.57
410.57	215.46
410.783	230.58
410.996	272.81
411.209	276.49
411.421	351.28
411.634	310.59
411.847	296.26
412.06	293.54
412.273	315.24
412.486	334.42
412.699	412.5
412.912	301.87
413.125	352.25
413.338	335.78
413.55	341.01
413.763	328.03
413.976	342.17
414.189	313.11
414.402	299.74
414.615	411.92
414.827	317.37
415.04	347.99
415.253	355.35
415.466	375.89
415.678	400.1
415.891	337.33
416.104	328.03
416.316	342.75
416.529	321.64
416.742	386.74
416.954	402.62
417.167	362.52
417.38	354.19
417.592	392.35
417.805	317.76
418.017	283.27
418.23	361.16
418.442	338.88
418.655	333.07
418.868	366.97
419.08	381.7
419.293	395.65
419.505	366.97
419.718	379.57
419.93	403.79
420.142	340.62
420.355	395.07
420.567	424.9
420.78	371.82
420.992	342.17
421.205	464.43
421.417	342.75
421.629	385.77
421.842	333.84
422.054	365.81
422.266	424.13
422.479	411.34
422.691	354.19
422.903	405.92
423.115	375.3
423.328	376.47
423.54	370.46
423.752	372.59
423.964	394.68
424.177	409.99
424.389	394.29
424.601	501.05
424.813	401.85
425.025	429.75
425.238	423.74
425.45	395.45
425.662	387.7
425.874	729.67
426.086	408.82
426.298	425.68
426.51	435.95
426.722	420.25
426.934	382.09
427.146	432.46
427.358	366.2
427.57	444.47
427.782	390.22
427.994	378.4
428.206	374.53
428.418	377.82
428.63	455.71
428.842	461.13
429.054	427.81
429.266	445.83
429.478	366.2
429.69	407.85
429.902	352.83
430.114	436.92
430.325	394.68
430.537	331.91
430.749	329.58
430.961	281.72
431.173	335.2
431.384	383.83
431.596	267.58
431.808	369.3
432.02	404.75
432.231	467.72
432.443	528.17
432.655	497.75
432.867	426.07
433.078	479.73
433.29	526.43
433.502	496.98
433.713	511.51
433.925	538.83
434.136	532.43
434.348	436.53
434.56	409.21
434.771	556.26
434.983	377.44
435.194	450.67
435.406	488.65
435.617	531.08
435.829	581.45
436.04	520.81
436.252	555.1
436.463	558.78
436.675	563.05
436.886	578.35
437.098	582.03
437.309	607.99
437.521	520.61
437.732	563.43
437.943	543.28
438.155	533.21
438.366	474.31
438.578	598.31
438.789	540.76
439	560.91
439.211	506.67
439.423	535.34
439.634	526.81
439.845	568.08
440.057	545.8
440.268	619.43
440.479	547.35
440.69	585.52
440.902	542.51
441.113	539.6
441.324	531.27
441.535	614.58
441.746	653.33
441.957	545.61
442.168	597.92
442.38	600.63
442.591	632.79
442.802	577.19
443.013	609.16
443.224	645.97
443.435	604.31
443.646	605.48
443.857	590.75
444.068	604.51
444.279	571.57
444.49	706.61
444.701	661.86
444.912	757.18
445.123	680.65
445.334	650.43
445.545	663.6
445.756	651.01
445.967	610.32
446.178	623.49
446.388	654.69
446.599	671.93
446.81	659.92
447.021	612.26
447.232	690.53
447.443	684.91
447.653	652.17
447.864	691.31
448.075	693.63
448.286	726.76
448.496	703.9
448.707	719.4
448.918	665.15
449.129	771.52
449.339	687.04
449.55	705.64
449.761	663.79
449.971	745.36
450.182	707.39
450.393	724.44
450.603	688.79
450.814	762.8
451.024	758.92
451.235	788.95
451.446	815.3
451.656	803.49
451.867	712.62
452.077	738
452.288	814.14
452.498	790.5
452.709	725.6
452.919	751.56
453.13	694.99
453.34	739.94
453.55	661.86
453.761	725.99
453.971	729.86
454.182	743.04
454.392	756.41
454.602	809.3
454.813	773.65
455.023	790.31
455.233	707.97
455.444	747.49
455.654	672.32
455.864	708.55
456.075	760.47
456.285	709.91
456.495	736.64
456.705	769
456.916	812.4
457.126	851.73
457.336	769.58
457.546	722.5
457.756	747.69
457.967	839.33
458.177	750.79
458.387	790.89
458.597	727.73
458.807	755.44
459.017	755.44
459.227	733.16
459.437	714.94
459.647	824.41
459.857	762.02
460.068	766.67
460.278	854.64
460.488	810.46
460.698	854.25
460.908	784.69
461.117	754.66
461.327	756.79
461.537	836.42
461.747	806.78
461.957	810.46
462.167	955.96
462.377	854.25
462.587	818.02
462.797	845.53
463.007	798.06
463.216	860.25
463.426	895.13
463.636	852.31
463.846	781.98
464.056	812.4
464.265	841.27
464.475	796.12
464.685	845.72
464.895	861.03
465.104	829.25
465.314	880.79
465.524	810.07
465.733	794.38
465.943	926.32
466.153	928.26
466.362	891.06
466.572	881.76
466.782	844.56
466.991	884.86
467.201	905.78
467.41	774.23
467.62	873.82
467.829	857.54
468.039	868
468.249	877.3
468.458	891.25
468.668	894.93
468.877	922.83
469.086	978.25
469.296	971.46
469.505	921.09
469.715	999.17
469.924	927.48
470.134	950.73
470.343	970.3
470.552	930.97
470.762	886.22
470.971	904.62
471.18	921.09
471.39	944.34
471.599	887.77
471.808	957.51
472.018	947.63
472.227	999.17
472.436	1041.79
472.645	981.54
472.855	959.45
473.064	1060.2
473.273	1028.62
473.482	1039.47
473.691	1072.41
473.901	1039.08
474.11	1009.25
474.319	1100.5
474.528	1025.13
474.737	1097.59
474.946	1085.19
475.155	1088.88
475.364	1134.02
475.573	1064.66
475.783	1098.76
475.992	1143.9
476.201	1123.56
476.41	1096.63
476.619	1052.26
476.828	1094.49
477.037	1092.94
477.245	1108.83
477.454	1143.71
477.663	1102.24
477.872	1166.18
478.081	1218.49
478.29	1154.56
478.499	1279.91
478.708	1222.56
478.917	1284.37
479.125	1191.95
479.334	1170.64
479.543	1203.77
479.752	1185.94
479.961	1221.01
480.169	1274.87
480.378	1212.29
480.587	1373.49
480.796	1281.85
481.004	1291.73
481.213	1297.93
481.422	1295.02
481.63	1281.27
481.839	1339.2
482.048	1389.18
482.256	1330.28
482.465	1361.28
482.674	1386.47
482.882	1363.61
483.091	1432.39
483.299	1361.87
483.508	1435.68
483.716	1355.08
483.925	1410.88
484.134	1327.18
484.342	1416.89
484.551	1429.1
484.759	1401.39
484.967	1455.45
485.176	1444.4
485.384	1441.5
485.593	1430.26
485.801	1425.61
486.01	1361.28
486.218	1335.71
486.426	1209.19
486.635	1209.77
486.843	1216.55
487.051	1249.3
487.26	1253.95
487.468	1329.12
487.676	1342.88
487.885	1360.32
488.093	1403.13
488.301	1480.05
488.509	1470.36
488.717	1501.94
488.926	1448.66
489.134	1493.03
489.342	1473.85
489.55	1447.89
489.758	1472.3
489.967	1480.44
490.175	1628.66
490.383	1564.53
490.591	1620.91
490.799	1526.74
491.007	1630.4
491.215	1597.66
491.423	1569.17
491.631	1583.12
491.839	1521.32
492.047	1600.95
492.255	1530.04
492.463	1503.69
492.671	1523.64
492.879	1570.14
493.087	1534.11
493.295	1552.71
493.503	1614.32
493.711	1651.32
493.919	1626.52
494.127	1651.13
494.334	1658.3
494.542	1575.18
494.75	1652.1
494.958	1614.32
495.166	1722.62
495.374	1708.87
495.581	1698.79
495.789	1708.09
495.997	1743.55
496.205	1658.49
496.412	1653.84
496.62	1657.72
496.828	1690.65
497.035	1663.34
497.243	1739.29
497.451	1693.95
497.658	1751.3
497.866	1704.22
498.074	1780.55
498.281	1714.1
498.489	1774.93
498.696	1702.67
498.904	1696.85
499.112	1664.11
499.319	1762.15
499.527	1716.04
499.734	1762.53
499.942	1729.21
500.149	1715.45
500.357	1763.7
500.564	1692.01
500.771	1770.09
500.979	1673.22
501.186	1662.56
501.394	1710.42
501.601	1708.67
501.808	1694.72
502.016	1680
502.223	1709.25
502.43	1734.25
502.638	1673.02
502.845	1693.37
503.052	1777.65
503.26	1725.92
503.467	1850.11
503.674	1793.73
503.881	1763.7
504.089	1851.66
504.296	1797.22
504.503	1714.29
504.71	1777.26
504.917	1711.19
505.125	1804.58
505.332	1800.32
505.539	1836.55
505.746	1901.06
505.953	1874.33
506.16	1856.31
506.367	1915.4
506.574	1966.36
506.781	1948.92
506.988	1844.49
507.195	1883.63
507.402	1869.29
507.609	1890.99
507.816	1874.52
508.023	1850.5
508.23	1879.95
508.437	1791.6
508.644	1886.34
508.851	1905.33
509.058	1867.55
509.265	1873.55
509.472	1917.34
509.679	2022.74
509.885	1885.76
510.092	1928.77
510.299	1882.46
510.506	1868.13
510.713	1945.63
510.92	1920.44
511.126	1956.67
511.333	2010.72
511.54	1988.25
511.746	2041.14
511.953	2006.27
512.16	2052.57
512.367	1967.13
512.573	1967.52
512.78	2004.72
512.987	1954.93
513.193	1977.21
513.4	1874.52
513.606	1966.94
513.813	1999.1
514.02	1976.63
514.226	2037.27
514.433	2020.99
514.639	1912.88
514.846	1948.73
515.052	1950.86
515.259	1939.62
515.465	1960.74
515.672	2007.82
515.878	2070.4
516.085	1963.84
516.291	2071.17
516.497	2007.82
516.704	1971.59
516.91	1940.59
517.117	1866.58
517.323	1799.35
517.529	1804.77
517.736	1779.78
517.942	1779.39
518.148	1850.69
518.354	1898.93
518.561	1915.21
518.767	1890.41
518.973	1907.85
519.179	1952.79
519.386	1933.42
519.592	1949.89
519.798	1966.55
520.004	2057.61
520.21	2023.12
520.417	2089.19
520.623	2120.39
520.829	2116.32
521.035	2106.63
521.241	2125.04
521.447	2138.99
521.653	2246.13
521.859	2135.69
522.065	2203.89
522.271	2298.63
522.477	2228.3
522.683	2285.26
522.889	2199.24
523.095	2209.32
523.301	2185.29
523.507	2138.21
523.713	2205.63
523.919	2150.22
524.125	2281.39
524.331	2284.88
524.537	2312.78
524.742	2345.52
524.948	2329.05
525.154	2344.75
525.36	2480.56
525.566	2343.2
525.772	2423.79
525.977	2324.01
526.183	2372.26
526.389	2412.36
526.595	2288.75
526.8	2321.3
527.006	2189.75
527.212	2134.72
527.417	2102.37
527.623	2103.34
527.829	2197.11
528.034	2248.84
528.24	2234.12
528.446	2281.78
528.651	2404.61
528.857	2399.58
529.062	2483.66
529.268	2430.96
529.473	2471.46
529.679	2483.66
529.884	2546.44
530.09	2499.55
530.295	2462.16
530.501	2496.26
530.706	2490.44
530.912	2448.01
531.117	2511.37
531.323	2499.94
531.528	2562.32
531.733	2560
531.939	2535.78
532.144	2584.22
532.35	2495.48
532.555	2593.9
532.76	2492.57
532.966	2523.19
533.171	2497.42
533.376	2450.92
533.581	2405.58
533.787	2474.56
533.992	2520.09
534.197	2568.33
534.402	2516.02
534.607	2525.51
534.813	2629.75
535.018	2551.09
535.223	2550.7
535.428	2577.44
535.633	2610.57
535.838	2636.33
536.043	2626.45
536.249	2715
536.454	2627.03
536.659	2656.1
536.864	2621.61
537.069	2622.58
537.274	2637.11
537.479	2590.61
537.684	2583.44
537.889	2519.31
538.094	2693.3
538.299	2618.7
538.504	2661.52
538.708	2651.25
538.913	2685.74
539.118	2618.32
539.323	2654.55
539.528	2616.18
539.733	2629.17
539.938	2639.63
540.142	2614.25
540.347	2605.53
540.552	2564.65
540.757	2566.59
540.962	2602.43
541.166	2516.6
541.371	2547.02
541.576	2554.96
541.781	2492.77
541.985	2600.1
542.19	2632.27
542.395	2733.01
542.599	2695.04
542.804	2691.94
543.008	2700.85
543.213	2651.83
543.418	2584.99
543.622	2704.92
543.827	2606.5
544.031	2718.1
544.236	2719.45
544.44	2684
544.645	2804.7
544.849	2672.95
545.054	2712.28
545.258	2807.8
545.463	2778.35
545.667	2669.85
545.872	2758.4
546.076	2739.41
546.281	2714.22
546.485	2700.47
546.689	2771.57
546.894	2757.81
547.098	2752.39
547.302	2664.82
547.507	2783
547.711	2737.08
547.915	2764.01
548.119	2694.85
548.324	2710.54
548.528	2722.75
548.732	2721.2
548.936	2769.05
549.141	2735.53
549.345	2748.13
549.549	2731.08
549.753	2772.54
549.957	2817.88
550.161	2823.88
550.366	2771.96
550.57	2734.37
550.774	2766.15
550.978	2726.62
551.182	2782.61
551.386	2754.91
551.59	2720.61
551.794	2729.33
551.998	2767.11
552.202	2746.38
552.406	2702.4
552.61	2763.43
552.814	2758.78
553.018	2844.03
553.222	2752
553.426	2708.99
553.63	2822.91
553.833	2751.03
554.037	2645.83
554.241	2768.86
554.445	2796.95
554.649	2768.08
554.853	2725.85
555.056	2778.55
555.26	2803.54
555.464	2781.84
555.668	2821.56
555.871	2781.84
556.075	2818.84
556.279	2762.66
556.483	2700.27
556.686	2742.9
556.89	2742.9
557.094	2730.5
557.297	2655.13
557.501	2742.9
557.704	2578.6
557.908	2718.1
558.112	2672.37
558.315	2751.42
558.519	2684.58
558.722	2642.53
558.926	2629.36
559.129	2571.62
559.333	2531.9
559.536	2586.35
559.74	2556.9
559.943	2528.22
560.147	2550.89
560.35	2571.43
560.553	2582.86
560.757	2541.59
560.96	2621.22
561.164	2598.55
561.367	2698.92
561.57	2626.45
561.774	2618.51
561.977	2633.04
562.18	2551.67
562.384	2713.45
562.587	2555.54
562.79	2541.59
562.993	2547.99
563.197	2578.02
563.4	2671.79
563.603	2623.16
563.806	2718.87
564.009	2535.39
564.212	2609.4
564.416	2516.6
564.619	2556.51
564.822	2501.87
565.025	2589.25
565.228	2540.82
565.431	2537.91
565.634	2449.17
565.837	2498.97
566.04	2481.72
566.243	2475.14
566.446	2358.69
566.649	2495.87
566.852	2409.07
567.055	2469.91
567.258	2493.54
567.461	2515.63
567.664	2506.33
567.867	2426.51
568.07	2463.71
568.273	2451.89
568.475	2550.89
568.678	2438.33
568.881	2423.41
569.084	2411.98
569.287	2293.01
569.489	2305.03
569.692	2416.24
569.895	2405.58
570.098	2341.84
570.3	2324.21
570.503	2283.91
570.706	2301.73
570.909	2307.16
571.111	2250.39
571.314	2253.88
571.516	2234.31
571.719	2274.61
571.922	2222.68
572.124	2251.75
572.327	2292.82
572.529	2240.9
572.732	2266.66
572.935	2271.12
573.137	2394.54
573.34	2301.15
573.542	2357.34
573.745	2341.65
573.947	2332.15
574.15	2292.82
574.352	2249.62
574.554	2324.6
574.757	2271.7
574.959	2223.07
575.162	2231.79
575.364	2226.17
575.566	2315.88
575.769	2176.77
575.971	2249.42
576.173	2109.34
576.376	2216.68
576.578	2234.7
576.78	2288.95
576.982	2140.92
577.185	2194.59
577.387	2165.34
577.589	2193.43
577.791	2204.47
577.993	2188.39
578.196	2189.94
578.398	2197.11
578.6	2172.12
578.802	2108.95
579.004	2125.62
579.206	2093.45
579.408	2157.78
579.61	2088.42
579.812	2213.97
580.014	2086.48
580.216	2124.26
580.418	2118.45
580.62	2130.85
580.822	2062.65
581.024	2148.67
581.226	2167.47
581.428	2112.44
581.63	2226.75
581.832	2066.52
582.034	2186.07
582.236	2138.79
582.438	2192.65
582.64	2204.47
582.841	2202.15
583.043	2254.07
583.245	2163.4
583.447	2173.67
583.649	2135.11
583.85	2147.12
584.052	2171.54
584.254	2104.5
584.456	2146.35
584.657	2064.39
584.859	2137.24
585.061	2110.5
585.262	2089
585.464	2076.6
585.666	2155.45
585.867	2069.04
586.069	2133.37
586.27	2081.06
586.472	2070.01
586.674	2056.45
586.875	2016.34
587.077	2013.63
587.278	2080.28
587.48	2052.77
587.681	2181.22
587.883	2062.46
588.084	1983.6
588.285	1997.94
588.487	2013.24
588.688	2050.64
588.89	1930.9
589.091	1898.16
589.292	1920.24
589.494	1881.88
589.695	1806.32
589.896	1746.65
590.098	1744.9
590.299	1809.81
590.5	1776.87
590.702	1868.9
590.903	1859.41
591.104	1954.34
591.305	1915.79
591.507	1984.18
591.708	1979.53
591.909	1896.8
592.11	1997.36
592.311	1980.11
592.512	1906.68
592.714	1881.3
592.915	1878.2
593.116	1892.93
593.317	1890.6
593.518	1908.04
593.719	1902.81
593.92	1918.31
594.121	1959.96
594.322	1916.95
594.523	1958.61
594.724	1875.1
594.925	1912.69
595.126	1961.9
595.327	1922.76
595.528	1882.85
595.729	1907.65
595.929	1930.13
596.13	1908.43
596.331	1903.78
596.532	1889.83
596.733	1983.79
596.934	1969.46
597.135	1940.78
597.335	1942.14
597.536	1871.42
597.737	1906.1
597.938	1868.13
598.138	1933.03
598.339	1929.54
598.54	1912.69
598.74	1859.41
598.941	1903.39
599.142	1973.91
599.342	1897.58
599.543	1861.73
599.744	1887.89
599.944	1836.74
600.145	1861.54
600.345	1875.88
600.546	1899.13
600.746	1951.44
600.947	1946.4
601.147	1920.63
601.348	1939.62
601.548	1862.51
601.749	1912.11
601.949	1801.09
602.15	1856.7
602.35	1838.68
602.551	1877.81
602.751	1798.18
602.951	1822.79
603.152	1775.13
603.352	1900.87
603.552	1826.28
603.753	1891.57
603.953	1903.97
604.153	1902.61
604.354	1869.68
604.554	1891.57
604.754	1882.08
604.954	1851.46
605.155	1912.69
605.355	1832.86
605.555	1849.72
605.755	1932.26
605.955	1869.1
606.155	1898.35
606.356	1841.2
606.556	1880.91
606.756	1869.87
606.956	1808.45
607.156	1928.19
607.356	1808.07
607.556	1873.94
607.756	1868.9
607.956	1897.58
608.156	1848.56
608.356	1775.9
608.556	1845.65
608.756	1817.56
608.956	1751.49
609.156	1815.82
609.356	1766.99
609.556	1786.95
609.755	1802.25
609.955	1727.27
610.155	1769.12
610.355	1812.91
610.555	1754.01
610.755	1777.07
610.954	1693.56
611.154	1794.31
611.354	1786.56
611.554	1706.93
611.753	1773.38
611.953	1713.52
612.153	1789.47
612.352	1777.07
612.552	1731.54
612.752	1639.12
612.951	1717.78
613.151	1736.77
613.351	1656.94
613.55	1712.74
613.75	1750.13
613.949	1725.72
614.149	1729.02
614.348	1658.69
