Data from gum_old_FLMT105791__74__15-44-02-257.txt Node

Date: Mon Mar 20 15:44:02 GMT 2023
User: antho
Spectrometer: FLMT10579
Trigger mode: 0
Integration Time (sec): 1.000000E-1
Scans to average: 10
Electric dark correction enabled: true
Nonlinearity correction enabled: false
Boxcar width: 0
XAxis mode: Wavelengths
Number of Pixels in Spectrum: 3648
>>>>>Begin Spectral Data<<<<<
345.248	-156.22
345.464	-156.22
345.681	-156.22
345.898	-170.56
346.114	-173.47
346.331	-37.07
346.548	38.68
346.764	-26.41
346.981	-7.23
347.197	-29.51
347.414	12.92
347.631	-12.08
347.847	69.1
348.064	15.63
348.28	28.42
348.497	-32.61
348.713	-19.83
348.93	18.73
349.146	40.62
349.363	29.58
349.579	44.3
349.796	-7.43
350.012	8.46
350.229	31.52
350.445	24.54
350.661	7.1
350.878	34.81
351.094	80.92
351.311	33.07
351.527	34.42
351.743	18.73
351.96	47.02
352.176	54.96
352.392	43.72
352.609	56.51
352.825	9.82
353.041	28.61
353.257	36.36
353.474	12.72
353.69	42.75
353.906	31.13
354.122	-0.84
354.339	66.39
354.555	23.38
354.771	16.21
354.987	80.73
355.203	82.08
355.42	29.38
355.636	11.95
355.852	7.69
356.068	20.28
356.284	-6.46
356.5	88.67
356.716	45.85
356.932	10.2
357.148	71.23
357.364	12.34
357.58	52.25
357.796	76.85
358.012	81.89
358.228	56.9
358.444	-13.63
358.66	73.95
358.876	55.93
359.092	7.1
359.308	50.89
359.524	57.87
359.74	24.93
359.956	14.27
360.172	21.05
360.388	69.68
360.604	36.94
360.819	110.76
361.035	28.22
361.251	60.19
361.467	12.92
361.683	62.13
361.898	31.13
362.114	62.32
362.33	47.21
362.546	53.02
362.762	47.21
362.977	43.92
363.193	40.23
363.409	89.06
363.624	17.76
363.84	30.16
364.056	1.49
364.271	79.57
364.487	59.03
364.703	13.5
364.918	27.25
365.134	39.46
365.35	37.91
365.565	142.92
365.781	56.7
365.996	64.45
366.212	111.53
366.427	71.23
366.643	40.43
366.858	49.92
367.074	30.16
367.289	90.61
367.505	150.09
367.72	-0.45
367.936	45.85
368.151	74.53
368.367	82.47
368.582	71.04
368.798	26.48
369.013	100.3
369.228	66.58
369.444	84.6
369.659	131.88
369.874	66.2
370.09	144.66
370.305	6.91
370.52	42.17
370.736	114.25
370.951	80.34
371.166	118.9
371.381	137.69
371.597	84.99
371.812	29.58
372.027	29
372.242	89.06
372.458	147.76
372.673	60
372.888	82.28
373.103	100.88
373.318	129.55
373.533	71.82
373.749	51.67
373.964	-1.61
374.179	95.45
374.394	32.48
374.609	109.02
374.824	39.27
375.039	99.91
375.254	36.55
375.469	113.08
375.684	69.3
375.899	114.44
376.114	90.22
376.329	74.92
376.544	96.42
376.759	127.42
376.974	56.12
377.189	83.05
377.404	43.92
377.619	102.62
377.834	12.92
378.049	23.96
378.264	55.93
378.478	93.13
378.693	66.58
378.908	103.59
379.123	109.98
379.338	122
379.553	114.83
379.767	90.8
379.982	85.38
380.197	122
380.412	93.9
380.626	107.08
380.841	181.09
381.056	100.68
381.271	169.27
381.485	66.39
381.7	43.33
381.915	101.07
382.129	43.33
382.344	55.15
382.559	91.97
382.773	135.56
382.988	11.17
383.202	98.17
383.417	62.52
383.632	191.55
383.846	80.92
384.061	83.05
384.275	53.99
384.49	117.73
384.704	127.03
384.919	78.98
385.133	89.64
385.348	126.45
385.562	95.26
385.777	137.88
385.991	100.68
386.206	87.32
386.42	61.74
386.634	152.8
386.849	125.48
387.063	118.9
387.277	69.3
387.492	66.39
387.706	68.13
387.92	79.95
388.135	128.58
388.349	135.56
388.563	111.92
388.778	109.79
388.992	128.39
389.206	124.13
389.42	154.16
389.635	136.33
389.849	123.16
390.063	155.32
390.277	143.11
390.491	206.08
390.706	148.35
390.92	179.35
391.134	121.22
391.348	159.2
391.562	88.67
391.776	149.51
391.99	138.27
392.205	189.42
392.419	138.85
392.633	115.41
392.847	186.71
393.061	73.75
393.275	162.3
393.489	118.12
393.703	107.27
393.917	126.26
394.131	60
394.345	127.42
394.559	157.65
394.773	105.92
394.986	147.18
395.2	168.3
395.414	189.23
395.628	139.43
395.842	149.7
396.056	182.25
396.27	102.04
396.484	179.93
396.697	167.91
396.911	175.66
397.125	141.76
397.339	162.88
397.553	126.45
397.766	211.7
397.98	154.35
398.194	197.36
398.408	150.28
398.621	218.68
398.835	222.55
399.049	241.15
399.262	278.74
399.476	265.76
399.69	250.06
399.903	307.22
400.117	226.81
400.331	253.55
400.544	211.7
400.758	353.14
400.971	258.39
401.185	272.93
401.398	214.41
401.612	305.09
401.826	287.84
402.039	269.05
402.253	252.39
402.466	302.96
402.68	262.85
402.893	305.09
403.106	259.56
403.32	267.11
403.533	282.23
403.747	236.69
403.96	295.4
404.174	295.21
404.387	260.91
404.6	290.94
404.814	303.73
405.027	266.34
405.24	275.44
405.454	255.88
405.667	311.48
405.88	226.04
406.094	293.46
406.307	337.83
406.52	261.88
406.733	260.53
406.947	238.83
407.16	324.85
407.373	334.92
407.586	263.63
407.799	252.39
408.012	303.92
408.226	300.82
408.439	339.96
408.652	255.88
408.865	315.74
409.078	354.49
409.291	331.63
409.504	266.73
409.717	370.19
409.93	320.97
410.143	311.48
410.357	259.56
410.57	254.13
410.783	268.28
410.996	286.88
411.209	293.66
411.421	350.42
411.634	323.11
411.847	315.74
412.06	339.19
412.273	339.19
412.486	365.92
412.699	434.9
412.912	330.66
413.125	365.92
413.338	341.9
413.55	365.73
413.763	332.02
413.976	340.54
414.189	318.07
414.402	330.47
414.615	437.03
414.827	320.78
415.04	352.17
415.253	382
415.466	382
415.678	419.2
415.891	367.47
416.104	346.16
416.316	359.14
416.529	327.17
416.742	366.31
416.954	430.05
417.167	359.92
417.38	386.85
417.592	407.39
417.805	336.86
418.017	307.41
418.23	381.62
418.442	346.74
418.655	380.07
418.868	366.7
419.08	418.62
419.293	393.44
419.505	374.45
419.718	398.09
419.93	400.02
420.142	357.79
420.355	431.41
420.567	408.35
420.78	419.98
420.992	382.59
421.205	447.3
421.417	341.12
421.629	387.62
421.842	377.74
422.054	368.64
422.266	424.63
422.479	437.03
422.691	373.29
422.903	411.45
423.115	368.06
423.328	380.84
423.54	406.8
423.752	379.29
423.964	377.74
424.177	415.91
424.389	403.9
424.601	481.4
424.813	422.11
425.025	434.9
425.238	432.38
425.45	404.09
425.662	407
425.874	728.42
426.086	400.99
426.298	411.65
426.51	428.89
426.722	426.37
426.934	414.55
427.146	444.59
427.358	394.6
427.57	461.64
427.782	427.92
427.994	413.78
428.206	388.4
428.418	389.17
428.63	446.14
428.842	455.63
429.054	433.15
429.266	441.68
429.478	370.57
429.69	406.22
429.902	371.93
430.114	452.53
430.325	389.56
430.537	370.96
430.749	370.19
430.961	284.55
431.173	344.61
431.384	349.46
431.596	306.44
431.808	363.41
432.02	428.31
432.231	456.79
432.443	523.63
432.655	475
432.867	476.36
433.078	496.9
433.29	542.04
433.502	495.54
433.713	546.69
433.925	516.85
434.136	556.38
434.348	459.89
434.56	399.64
434.771	569.94
434.983	433.35
435.194	460.28
435.406	461.83
435.617	537.58
435.829	573.62
436.04	562.19
436.252	541.65
436.463	580.4
436.675	597.45
436.886	593.38
437.098	591.64
437.309	624.58
437.521	559.86
437.732	578.27
437.943	560.83
438.155	541.65
438.366	490.89
438.578	596.1
438.789	546.5
439	568.58
439.211	521.5
439.423	532.55
439.634	537.39
439.845	571.49
440.057	534.48
440.268	616.63
440.479	553.66
440.69	593
440.902	528.48
441.113	583.89
441.324	587.96
441.535	595.13
441.746	677.08
441.957	570.52
442.168	598.23
442.38	643.56
442.591	646.28
442.802	587.18
443.013	613.34
443.224	620.12
443.435	631.16
443.646	640.46
443.857	610.63
444.068	592.61
444.279	597.45
444.49	689.09
444.701	629.81
444.912	762.91
445.123	672.82
445.334	651.51
445.545	675.34
445.756	616.63
445.967	614.7
446.178	628.65
446.388	663.33
446.599	635.62
446.81	645.31
447.021	612.56
447.232	678.05
447.443	692
447.653	642.98
447.864	710.21
448.075	672.24
448.286	717.38
448.496	701.69
448.707	717.58
448.918	668.56
449.129	761.36
449.339	673.21
449.55	695.68
449.761	684.06
449.971	737.92
450.182	664.68
450.393	724.74
450.603	677.08
450.814	759.81
451.024	741.21
451.235	762.72
451.446	784.42
451.656	779.38
451.867	706.34
452.077	724.55
452.288	787.71
452.498	789.84
452.709	724.36
452.919	728.62
453.13	687.93
453.34	711.96
453.55	651.51
453.761	723.19
453.971	739.66
454.182	766.21
454.392	714.48
454.602	796.04
454.813	768.14
455.023	799.92
455.233	691.81
455.444	738.89
455.654	636.98
455.864	719.32
456.075	728.04
456.285	705.95
456.495	740.05
456.705	748.57
456.916	791.97
457.126	808.64
457.336	762.91
457.546	692.78
457.756	718.54
457.967	808.44
458.177	732.49
458.387	780.54
458.597	703.24
458.807	722.81
459.017	737.34
459.227	723
459.437	737.53
459.647	763.3
459.857	778.22
460.068	737.34
460.278	823.36
460.488	778.61
460.698	836.34
460.908	780.54
461.117	721.84
461.327	751.09
461.537	797.21
461.747	816.58
461.957	804.96
462.167	893.3
462.377	856.69
462.587	791.59
462.797	845.84
463.007	814.26
463.216	838.47
463.426	890.2
463.636	834.6
463.846	747.61
464.056	827.43
464.265	807.67
464.475	792.75
464.685	828.4
464.895	823.55
465.104	810.77
465.314	868.7
465.524	794.69
465.733	778.02
465.943	864.24
466.153	913.07
466.362	863.27
466.572	851.07
466.782	827.82
466.991	821.81
467.201	891.95
467.41	766.79
467.62	855.91
467.829	817.35
468.039	872.57
468.249	839.64
468.458	858.62
468.668	894.47
468.877	891.56
469.086	949.68
469.296	924.5
469.505	861.53
469.715	956.66
469.924	892.92
470.134	935.73
470.343	923.33
470.552	875.29
470.762	881.49
470.971	838.28
471.18	884.39
471.39	877.42
471.599	848.74
471.808	963.63
472.018	914.42
472.227	983.2
472.436	1012.07
472.645	959.18
472.855	944.07
473.064	1058.18
473.273	999.67
473.482	1006.84
473.691	1052.95
473.901	1002.38
474.11	951.23
474.319	1066.9
474.528	979.13
474.737	1064
474.946	1040.16
475.155	1059.35
475.364	1126.58
475.573	1060.51
475.783	1076.01
475.992	1101.58
476.201	1125.03
476.41	1112.04
476.619	1040.75
476.828	1075.04
477.037	1065.35
477.245	1069.03
477.454	1116.89
477.663	1084.34
477.872	1127.93
478.081	1202.91
478.29	1108.94
478.499	1218.02
478.708	1187.99
478.917	1233.52
479.125	1170.36
479.334	1176.17
479.543	1161.84
479.752	1209.11
479.961	1206.21
480.169	1250.38
480.378	1190.12
480.587	1345.32
480.796	1255.8
481.004	1239.34
481.213	1265.3
481.422	1276.92
481.63	1253.09
481.839	1313.35
482.048	1357.13
482.256	1321.49
482.465	1334.27
482.674	1311.02
482.882	1368.57
483.091	1415.45
483.299	1316.25
483.508	1353.07
483.716	1361.01
483.925	1331.37
484.134	1300.56
484.342	1338.92
484.551	1377.09
484.759	1346.09
484.967	1427.66
485.176	1419.52
485.384	1428.43
485.593	1385.42
485.801	1379.03
486.01	1336.79
486.218	1278.28
486.426	1217.64
486.635	1233.14
486.843	1182.18
487.051	1236.24
487.26	1237.01
487.468	1268.59
487.676	1325.17
487.885	1340.28
488.093	1369.92
488.301	1411.97
488.509	1372.25
488.717	1461.18
488.926	1466.02
489.134	1405.57
489.342	1448.39
489.55	1387.75
489.758	1441.41
489.967	1408.87
490.175	1592.34
490.383	1478.23
490.591	1577.43
490.799	1462.34
491.007	1573.55
491.215	1553.01
491.423	1515.62
491.631	1517.56
491.839	1533.83
492.047	1500.12
492.255	1450.71
492.463	1444.51
492.671	1434.83
492.879	1502.83
493.087	1489.85
493.295	1535.19
493.503	1537.51
493.711	1593.51
493.919	1589.63
494.127	1580.33
494.334	1575.1
494.542	1529.96
494.75	1586.92
494.958	1579.56
495.166	1636.91
495.374	1632.06
495.581	1619.08
495.789	1602.03
495.997	1698.71
496.205	1565.41
496.412	1571.61
496.62	1602.81
496.828	1618.89
497.035	1608.42
497.243	1656.09
497.451	1686.31
497.658	1683.79
497.866	1653.57
498.074	1736.69
498.281	1620.05
498.489	1713.82
498.696	1667.32
498.904	1614.24
499.112	1610.56
499.319	1683.02
499.527	1621.6
499.734	1712.08
499.942	1647.56
500.149	1650.08
500.357	1686.51
500.564	1624.89
500.771	1639.42
500.979	1606.49
501.186	1609.59
501.394	1631.87
501.601	1600.87
501.808	1661.12
502.016	1604.74
502.223	1602.61
502.43	1622.37
502.638	1612.88
502.845	1629.74
503.052	1721.96
503.26	1638.84
503.467	1769.04
503.674	1698.32
503.881	1701.81
504.089	1760.13
504.296	1732.62
504.503	1671.59
504.71	1675.85
504.917	1624.51
505.125	1692.9
505.332	1719.64
505.539	1767.69
505.746	1817.67
505.953	1749.09
506.16	1786.28
506.367	1822.13
506.574	1864.36
506.781	1849.45
506.988	1764.39
507.195	1795
507.402	1813.99
507.609	1832.98
507.816	1789.58
508.023	1768.07
508.23	1726.42
508.437	1694.45
508.644	1784.93
508.851	1810.31
509.058	1831.43
509.265	1800.23
509.472	1810.12
509.679	1913.58
509.885	1854.68
510.092	1836.27
510.299	1817.87
510.506	1800.82
510.713	1830.27
510.92	1789
511.126	1819.22
511.333	1891.88
511.54	1836.08
511.746	1899.24
511.953	1876.96
512.16	1920.55
512.367	1842.28
512.573	1847.9
512.78	1869.01
512.987	1864.17
513.193	1840.53
513.4	1778.92
513.606	1844.02
513.813	1835.88
514.02	1819.22
514.226	1908.15
514.433	1888.58
514.639	1840.15
514.846	1816.32
515.052	1787.64
515.259	1826.97
515.465	1871.53
515.672	1853.71
515.878	1952.33
516.085	1870.37
516.291	1925.78
516.497	1891.68
516.704	1853.13
516.91	1818.64
517.117	1748.89
517.323	1650.47
517.529	1701.42
517.736	1692.7
517.942	1697.94
518.148	1718.67
518.354	1793.07
518.561	1778.34
518.767	1801.4
518.973	1820.58
519.179	1829.88
519.386	1813.99
519.592	1785.51
519.798	1810.5
520.004	1929.66
520.21	1866.5
520.417	1926.56
520.623	1958.91
520.829	1991.85
521.035	1983.91
521.241	1955.23
521.447	2026.53
521.653	2093.57
521.859	2001.54
522.065	2051.33
522.271	2161.19
522.477	2055.21
522.683	2112.56
522.889	2060.82
523.095	2026.53
523.301	2024.21
523.507	1970.93
523.713	2012.78
523.919	1974.99
524.125	2101.71
524.331	2092.21
524.537	2155.95
524.742	2178.62
524.948	2197.8
525.154	2175.72
525.36	2282.67
525.566	2160.41
525.772	2255.93
525.977	2140.45
526.183	2196.84
526.389	2249.73
526.595	2128.64
526.8	2128.05
527.006	2025.37
527.212	1979.45
527.417	1973.64
527.623	1987.98
527.829	2052.69
528.034	2098.41
528.24	2093.57
528.446	2110.42
528.651	2205.17
528.857	2199.94
529.062	2234.03
529.268	2264.07
529.473	2263.68
529.679	2275.11
529.884	2364.43
530.09	2297
530.295	2294.87
530.501	2307.27
530.706	2306.11
530.912	2281.7
531.117	2324.51
531.323	2325.68
531.528	2344.08
531.733	2365.4
531.939	2353.96
532.144	2377.99
532.35	2306.11
532.555	2370.43
532.76	2337.69
532.966	2327.03
533.171	2312.5
533.376	2255.54
533.581	2213.88
533.787	2269.3
533.992	2310.56
534.197	2343.7
534.402	2330.52
534.607	2328.97
534.813	2435.53
535.018	2295.45
535.223	2384.19
535.428	2366.95
535.633	2386.51
535.838	2422.16
536.043	2415.77
536.249	2574.84
536.454	2412.28
536.659	2460.53
536.864	2402.59
537.069	2397.75
537.274	2414.22
537.479	2372.37
537.684	2390.39
537.889	2323.93
538.094	2474.28
538.299	2362.49
538.504	2409.18
538.708	2442.51
538.913	2459.17
539.118	2433.01
539.323	2444.83
539.528	2397.36
539.733	2429.91
539.938	2450.26
540.142	2446.38
540.347	2368.11
540.552	2372.37
540.757	2375.08
540.962	2388.06
541.166	2269.49
541.371	2320.25
541.576	2386.51
541.781	2284.99
541.985	2449.87
542.19	2420.42
542.395	2517.68
542.599	2492.49
542.804	2442.12
543.008	2510.71
543.213	2423.13
543.418	2410.93
543.622	2470.6
543.827	2451.42
544.031	2535.31
544.236	2520.78
544.44	2487.46
544.645	2602.74
544.849	2508.96
545.054	2549.46
545.258	2563.02
545.463	2584.52
545.667	2517.87
545.872	2557.01
546.076	2524.27
546.281	2523.49
546.485	2437.66
546.689	2552.75
546.894	2550.42
547.098	2485.91
547.302	2452.58
547.507	2486.68
547.711	2537.44
547.915	2559.34
548.119	2458.59
548.324	2468.86
548.528	2568.44
548.732	2502.37
548.936	2542.09
549.141	2529.69
549.345	2476.8
549.549	2507.22
549.753	2532.6
549.957	2589.37
550.161	2618.62
550.366	2574.06
550.57	2555.46
550.774	2552.75
550.978	2521.94
551.182	2572.51
551.386	2533.37
551.59	2517.49
551.794	2495.4
551.998	2531.44
552.202	2514.97
552.406	2519.04
552.61	2562.82
552.814	2564.57
553.018	2592.66
553.222	2510.71
553.426	2491.72
553.63	2582.78
553.833	2504.12
554.037	2450.26
554.241	2524.85
554.445	2504.31
554.649	2530.27
554.853	2527.76
555.056	2551.97
555.26	2549.84
555.464	2545.77
555.668	2549.07
555.871	2552.17
556.075	2553.52
556.279	2511.87
556.483	2497.14
556.686	2497.72
556.89	2487.84
557.094	2509.93
557.297	2431.66
557.501	2503.73
557.704	2414.8
557.908	2528.92
558.112	2423.71
558.315	2542.87
558.519	2456.07
558.722	2450.45
558.926	2467.5
559.129	2362.1
559.333	2357.84
559.536	2389.81
559.74	2375.66
559.943	2316.76
560.147	2342.34
560.35	2399.11
560.553	2390.97
560.757	2325.1
560.96	2454.52
561.164	2368.5
561.367	2493.66
561.57	2418.48
561.774	2392.71
561.977	2394.84
562.18	2363.65
562.384	2489.39
562.587	2370.63
562.79	2416.35
562.993	2316.18
563.197	2381.28
563.4	2461.69
563.603	2428.75
563.806	2493.66
564.009	2360.55
564.212	2417.32
564.416	2292.93
564.619	2367.14
564.822	2286.54
565.025	2415.96
565.228	2325.29
565.431	2342.53
565.634	2248.37
565.837	2271.62
566.04	2244.5
566.243	2253.22
566.446	2174.75
566.649	2270.27
566.852	2191.6
567.055	2254.38
567.258	2242.17
567.461	2329.36
567.664	2319.48
567.867	2193.74
568.07	2251.28
568.273	2265.42
568.475	2313.08
568.678	2209.82
568.881	2211.56
569.084	2205.75
569.287	2099.77
569.489	2148.2
569.692	2182.11
569.895	2236.17
570.098	2147.04
570.3	2190.05
570.503	2074.39
570.706	2138.9
570.909	2105
571.111	2041.26
571.314	2071.67
571.516	2102.09
571.719	2089.69
571.922	2055.59
572.124	2086.4
572.327	2137.55
572.529	2088.92
572.732	2074.19
572.935	2118.95
573.137	2190.64
573.34	2148.4
573.542	2186.37
573.745	2125.92
573.947	2126.12
574.15	2120.89
574.352	2079.04
574.554	2173.2
574.757	2081.17
574.959	2047.46
575.162	2068.57
575.364	2052.88
575.566	2163.7
575.769	2005.61
575.971	2033.12
576.173	1941.48
576.376	2040.48
576.578	2049.01
576.78	2086.98
576.982	1936.83
577.185	2005.22
577.387	1974.41
577.589	1994.76
577.791	2011.42
577.993	2065.86
578.196	2016.26
578.398	1989.33
578.6	2038.74
578.802	1921.33
579.004	1923.46
579.206	1915.32
579.408	1969.18
579.61	1934.11
579.812	1966.28
580.014	1893.81
580.216	1970.73
580.418	1910.48
580.62	1914.93
580.822	1879.86
581.024	1936.83
581.226	1942.45
581.428	1916.1
581.63	2008.9
581.832	1906.41
582.034	1990.11
582.236	1957.36
582.438	1979.84
582.64	1999.02
582.841	2015.1
583.043	2103.45
583.245	1998.44
583.447	2015.1
583.649	1945.93
583.85	1989.33
584.052	1998.63
584.254	1924.23
584.456	1974.22
584.657	1899.82
584.859	1965.89
585.061	1914.93
585.262	1948.26
585.464	1879.48
585.666	1957.75
585.867	1914.93
586.069	2002.31
586.27	1908.15
586.472	1897.69
586.674	1884.13
586.875	1905.25
587.077	1862.04
587.278	1932.18
587.48	1882.96
587.681	2005.22
587.883	1915.51
588.084	1824.26
588.285	1826.97
588.487	1852.16
588.688	1875.6
588.89	1808.95
589.091	1735.33
589.292	1779.7
589.494	1705.1
589.695	1658.61
589.896	1592.73
590.098	1636.71
590.299	1706.65
590.5	1666.74
590.702	1690.77
590.903	1738.62
591.104	1788.8
591.305	1773.11
591.507	1808.18
591.708	1790.35
591.909	1771.17
592.11	1851.38
592.311	1834.92
592.512	1761.87
592.714	1724.09
592.915	1726.61
593.116	1698.32
593.317	1740.95
593.518	1749.09
593.719	1768.85
593.92	1786.48
594.121	1771.37
594.322	1739.79
594.523	1777.37
594.724	1695.42
594.925	1732.23
595.126	1739.4
595.327	1742.5
595.528	1760.9
595.729	1745.21
595.929	1730.49
596.13	1713.24
596.331	1744.24
596.532	1749.86
596.733	1808.18
596.934	1792.29
597.135	1799.07
597.335	1761.1
597.536	1722.15
597.737	1768.85
597.938	1691.15
598.138	1718.28
598.339	1713.82
598.54	1699.1
598.74	1703.94
598.941	1721.19
599.142	1764.78
599.342	1729.32
599.543	1680.31
599.744	1690.96
599.944	1703.94
600.145	1716.34
600.345	1705.49
600.546	1795.78
600.746	1772.34
600.947	1826.39
601.147	1777.18
601.348	1765.55
601.548	1682.24
601.749	1672.75
601.949	1651.63
602.15	1693.48
602.35	1647.56
602.551	1696.19
602.751	1672.94
602.951	1671.59
603.152	1607.84
603.352	1755.87
603.552	1689.41
603.753	1705.69
603.953	1717.31
604.153	1717.7
604.354	1682.05
604.554	1675.27
604.754	1723.51
604.954	1685.73
605.155	1730.1
605.355	1726.42
605.555	1745.02
605.755	1786.28
605.955	1747.34
606.155	1753.35
606.356	1720.6
606.556	1768.27
606.756	1745.79
606.956	1658.61
607.156	1786.87
607.356	1698.9
607.556	1772.14
607.756	1706.27
607.956	1760.52
608.156	1730.1
608.356	1676.24
608.556	1743.47
608.756	1688.83
608.956	1663.06
609.156	1691.93
609.356	1634
609.556	1634.39
609.755	1664.61
609.955	1646.59
610.155	1671.78
610.355	1698.13
610.555	1640.2
610.755	1670.04
610.954	1603.19
611.154	1651.44
611.354	1688.44
611.554	1591.18
611.753	1619.47
611.953	1585.37
612.153	1648.92
612.352	1640.01
612.552	1573.55
612.752	1557.66
612.951	1580.33
613.151	1607.65
613.351	1580.33
613.55	1574.13
613.75	1616.56
613.949	1576.84
614.149	1595.25
614.348	1586.73
