Data from gum_old_FLMT105791__17__15-42-39-259.txt Node

Date: Mon Mar 20 15:42:39 GMT 2023
User: antho
Spectrometer: FLMT10579
Trigger mode: 0
Integration Time (sec): 1.000000E-1
Scans to average: 10
Electric dark correction enabled: true
Nonlinearity correction enabled: false
Boxcar width: 0
XAxis mode: Wavelengths
Number of Pixels in Spectrum: 3648
>>>>>Begin Spectral Data<<<<<
345.248	-163.07
345.464	-163.07
345.681	-163.07
345.898	-170.63
346.114	-152.61
346.331	-12.34
346.548	39.2
346.764	-9.62
346.981	-14.66
347.197	3.55
347.414	11.11
347.631	-29.38
347.847	44.05
348.064	-7.69
348.28	32.61
348.497	-60.97
348.713	4.13
348.93	40.56
349.146	49.47
349.363	34.75
349.579	31.26
349.796	18.08
350.012	30.87
350.229	46.18
350.445	49.66
350.661	30.68
350.878	24.28
351.094	47.73
351.311	44.43
351.527	48.5
351.743	13.63
351.96	69.81
352.176	55.67
352.392	61.68
352.609	46.76
352.825	-0.9
353.041	31.45
353.257	11.69
353.474	48.31
353.69	37.46
353.906	49.28
354.122	35.71
354.339	71.75
354.555	39.98
354.771	28.35
354.987	108.37
355.203	97.91
355.42	38.23
355.636	45.98
355.852	12.85
356.068	14.6
356.284	24.28
356.5	85.31
356.716	78.92
356.932	32.42
357.148	65.94
357.364	33.97
357.58	101.2
357.796	105.46
358.012	57.61
358.228	78.73
358.444	-9.04
358.66	98.1
358.876	51.41
359.092	10.72
359.308	55.48
359.524	57.41
359.74	34.36
359.956	45.98
360.172	51.41
360.388	82.99
360.604	32.81
360.819	117.86
361.035	60.9
361.251	82.99
361.467	38.43
361.683	98.1
361.898	65.16
362.114	99.65
362.33	58.38
362.546	86.09
362.762	55.86
362.977	63.23
363.193	33.97
363.409	99.07
363.624	36.68
363.84	31.84
364.056	56.25
364.271	66.13
364.487	67.1
364.703	63.03
364.918	37.85
365.134	58.77
365.35	56.64
365.565	160.68
365.781	98.49
365.996	83.18
366.212	160.49
366.427	98.49
366.643	89.96
366.858	71.75
367.074	25.06
367.289	122.13
367.505	149.25
367.72	39.4
367.936	55.28
368.151	119.61
368.367	116.51
368.582	107.59
368.798	83.18
369.013	154.67
369.228	80.66
369.444	67.68
369.659	132.98
369.874	123.87
370.09	140.92
370.305	12.46
370.52	75.04
370.736	142.47
370.951	111.47
371.166	144.21
371.381	143.24
371.597	134.91
371.812	76.98
372.027	68.26
372.242	103.91
372.458	157
372.673	95.58
372.888	73.49
373.103	124.84
373.318	162.81
373.533	112.83
373.749	134.72
373.964	35.91
374.179	136.46
374.394	49.28
374.609	138.98
374.824	67.1
375.039	122.13
375.254	57.8
375.469	144.6
375.684	126.58
375.899	143.63
376.114	88.8
376.329	107.59
376.544	140.53
376.759	128.91
376.974	71.36
377.189	102.56
377.404	101.39
377.619	140.92
377.834	71.36
378.049	86.67
378.264	89.38
378.478	129.68
378.693	93.26
378.908	155.84
379.123	129.29
379.338	169.01
379.553	141.11
379.767	149.64
379.982	135.49
380.197	119.8
380.412	116.89
380.626	116.51
380.841	192.65
381.056	162.04
381.271	202.34
381.485	122.71
381.7	99.84
381.915	137.63
382.129	117.48
382.344	103.72
382.559	114.96
382.773	155.06
382.988	62.84
383.202	94.81
383.417	74.46
383.632	172.31
383.846	108.18
384.061	104.88
384.275	79.89
384.49	109.53
384.704	138.59
384.919	133.36
385.133	128.52
385.348	160.87
385.562	112.44
385.777	162.23
385.991	119.99
386.206	106.82
386.42	104.49
386.634	181.02
386.849	164.94
387.063	159.71
387.277	132.39
387.492	120.96
387.706	132.01
387.92	137.24
388.135	162.81
388.349	155.64
388.563	172.69
388.778	150.99
388.992	160.68
389.206	173.08
389.42	213.57
389.635	179.09
389.849	200.4
390.063	210.28
390.277	191.1
390.491	232.56
390.706	186.26
390.92	206.41
391.134	177.15
391.348	233.53
391.562	155.84
391.776	180.44
391.99	166.11
392.205	238.18
392.419	135.49
392.633	185.87
392.847	216.67
393.061	158.94
393.275	221.13
393.489	148.67
393.703	104.69
393.917	150.8
394.131	95.19
394.345	155.64
394.559	208.34
394.773	164.17
394.986	197.3
395.2	192.65
395.414	226.36
395.628	206.41
395.842	224.04
396.056	244.96
396.27	169.21
396.484	232.37
396.697	205.44
396.911	200.21
397.125	132.98
397.339	180.64
397.553	173.08
397.766	240.12
397.98	219.77
398.194	256.78
398.408	234.89
398.621	276.93
398.835	303.09
399.049	303.67
399.262	339.32
399.476	335.63
399.69	323.43
399.903	371.87
400.117	330.79
400.331	327.3
400.544	305.41
400.758	418.95
400.971	363.15
401.185	366.05
401.398	323.62
401.612	370.9
401.826	379.62
402.039	380.97
402.253	368.96
402.466	389.3
402.68	354.23
402.893	395.7
403.106	364.5
403.32	364.89
403.533	425.34
403.747	328.47
403.96	375.16
404.174	422.05
404.387	346.1
404.6	382.91
404.814	428.05
405.027	374
405.24	405.97
405.454	354.82
405.667	419.91
405.88	328.47
406.094	387.95
406.307	416.23
406.52	385.23
406.733	326.33
406.947	318.2
407.16	436.38
407.373	420.88
407.586	360.05
407.799	370.51
408.012	441.23
408.226	410.61
408.439	444.91
408.652	388.14
408.865	438.13
409.078	469.9
409.291	444.13
409.504	386.98
409.717	450.33
409.93	459.05
410.143	427.08
410.357	354.82
410.57	356.56
410.783	404.03
410.996	393.57
411.209	401.7
411.421	460.41
411.634	475.52
411.847	432.9
412.06	474.36
412.273	508.46
412.486	488.7
412.699	546.63
412.912	450.53
413.125	479.78
413.338	459.63
413.55	505.36
413.763	481.53
413.976	502.45
414.189	477.07
414.402	457.89
414.615	564.84
414.827	461.76
415.04	510.2
415.253	509.43
415.466	537.71
415.678	536.36
415.891	493.15
416.104	479.59
416.316	503.61
416.529	495.86
416.742	535.58
416.954	554.96
417.167	523.57
417.38	499.35
417.592	547.79
417.805	469.71
418.017	452.46
418.23	520.66
418.442	484.24
418.655	501.29
418.868	523.96
419.08	526.28
419.293	571.62
419.505	560.19
419.718	524.34
419.93	570.84
420.142	521.63
420.355	535
420.567	542.56
420.78	553.41
420.992	543.53
421.205	587.89
421.417	538.1
421.629	551.66
421.842	551.66
422.054	540.43
422.266	600.87
422.479	597.97
422.691	515.43
422.903	565.03
423.115	499.35
423.328	540.23
423.54	528.41
423.752	559.41
423.964	535
424.177	584.21
424.389	548.76
424.601	646.41
424.813	571.04
425.025	604.36
425.238	597.58
425.45	533.26
425.662	542.17
425.874	851
426.086	553.99
426.298	568.13
426.51	559.03
426.722	561.93
426.934	575.88
427.146	595.84
427.358	539.65
427.57	625.67
427.782	557.09
427.994	559.61
428.206	531.13
428.418	545.66
428.63	611.72
428.842	661.13
429.054	589.25
429.266	609.01
429.478	533.64
429.69	553.21
429.902	512.72
430.114	564.45
430.325	558.64
430.537	490.63
430.749	487.34
430.961	429.8
431.173	438.13
431.384	483.08
431.596	428.63
431.808	527.06
432.02	581.5
432.231	666.36
432.443	706.47
432.655	637.69
432.867	642.92
433.078	674.11
433.29	702.79
433.502	688.06
433.713	708.6
433.925	702.2
434.136	729.72
434.348	610.76
434.56	610.95
434.771	742.31
434.983	544.88
435.194	641.76
435.406	657.26
435.617	760.91
435.829	773.7
436.04	757.62
436.252	761.1
436.463	784.93
436.675	820.78
436.886	800.82
437.098	790.55
437.309	826.2
437.521	753.16
437.732	741.54
437.943	761.1
438.155	755.1
438.366	689.03
438.578	793.46
438.789	731.07
439	743.47
439.211	734.95
439.423	710.92
439.634	744.44
439.845	758.97
440.057	769.05
440.268	798.88
440.479	770.98
440.69	797.92
440.902	791.52
441.113	772.73
441.324	768.85
441.535	833.76
441.746	891.5
441.957	821.17
442.168	825.04
442.38	833.76
442.591	879.29
442.802	815.74
443.013	848.87
443.224	891.88
443.435	872.31
443.646	873.67
443.857	818.07
444.068	854.49
444.279	833.76
444.49	956.79
444.701	854.1
444.912	967.44
445.123	947.1
445.334	921.33
445.545	930.44
445.756	893.05
445.967	826.98
446.178	841.7
446.388	889.95
446.599	906.03
446.81	910.87
447.021	845.19
447.232	934.31
447.443	928.11
447.653	896.73
447.864	999.99
448.075	948.65
448.286	978.49
448.496	930.63
448.707	970.35
448.918	923.46
449.129	1029.25
449.339	913.78
449.55	978.49
449.761	931.6
449.971	1003.48
450.182	908.93
450.393	1004.26
450.603	944.97
450.814	1024.21
451.024	1028.09
451.235	1063.74
451.446	1068.97
451.656	1107.72
451.867	1014.53
452.077	992.24
452.288	1050.95
452.498	1034.48
452.709	1000.96
452.919	1013.75
453.13	942.84
453.34	978.1
453.55	929.28
453.761	982.94
453.971	959.5
454.182	1030.02
454.392	1002.9
454.602	1065.09
454.813	1040.68
455.023	1029.83
455.233	972.68
455.444	997.28
455.654	916.68
455.864	1010.07
456.075	998.06
456.285	978.68
456.495	992.83
456.705	1031.19
456.916	1054.63
457.126	1113.53
457.336	1065.09
457.546	950.59
457.756	1025.18
457.967	1110.24
458.177	1040.49
458.387	1070.52
458.597	996.7
458.807	1055.99
459.017	1008.91
459.227	1020.53
459.437	1026.34
459.647	1063.93
459.857	1064.71
460.068	1030.02
460.278	1114.5
460.488	1065.87
460.698	1129.22
460.908	1076.52
461.117	1023.24
461.327	1063.16
461.537	1129.61
461.747	1100.36
461.957	1101.52
462.167	1207.69
462.377	1131.94
462.587	1110.82
462.797	1150.15
463.007	1124.19
463.216	1171.85
463.426	1191.61
463.636	1185.41
463.846	1066.64
464.056	1123.99
464.265	1132.71
464.475	1102.1
464.685	1120.5
464.895	1146.85
465.104	1104.42
465.314	1185.02
465.524	1110.24
465.733	1072.65
465.943	1196.07
466.153	1212.15
466.362	1180.37
466.572	1176.89
466.782	1167
466.991	1181.34
467.201	1223
467.41	1095.32
467.62	1179.21
467.829	1193.35
468.039	1183.86
468.249	1168.75
468.458	1218.93
468.668	1201.49
468.877	1248.18
469.086	1263.49
469.296	1292.75
469.505	1211.57
469.715	1300.11
469.924	1243.34
470.134	1266.2
470.343	1285.38
470.552	1237.14
470.762	1217.18
470.971	1210.6
471.18	1249.93
471.39	1254.58
471.599	1228.62
471.808	1273.76
472.018	1283.83
472.227	1387.49
472.436	1378.58
472.645	1332.85
472.855	1315.22
473.064	1431.86
473.273	1401.44
473.482	1384.19
473.691	1421.78
473.901	1395.24
474.11	1344.48
474.319	1430.11
474.528	1382.06
474.737	1489.21
474.946	1452.39
475.155	1440.38
475.364	1497.92
475.573	1465.57
475.783	1505.87
475.992	1510.71
476.201	1505.67
476.41	1508.39
476.619	1438.25
476.828	1522.53
477.037	1463.05
477.245	1475.06
477.454	1533.19
477.663	1525.44
477.872	1550.82
478.081	1644.59
478.29	1571.35
478.499	1650.4
478.708	1645.56
478.917	1690.9
479.125	1569.03
479.334	1627.74
479.543	1627.74
479.752	1657.18
479.961	1647.11
480.169	1701.94
480.378	1630.64
480.587	1773.24
480.796	1746.31
481.004	1733.52
481.213	1738.36
481.422	1775.37
481.63	1776.73
481.839	1769.75
482.048	1842.41
482.256	1771.3
482.465	1813.73
482.674	1817.99
482.882	1830.01
483.091	1905.76
483.299	1804.82
483.508	1874.57
483.716	1867.01
483.925	1886.39
484.134	1807.73
484.342	1813.34
484.551	1877.09
484.759	1867.21
484.967	1916.81
485.176	1929.21
485.384	1942.77
485.593	1936.18
485.801	1882.51
486.01	1829.81
486.218	1737.78
486.426	1673.65
486.635	1652.73
486.843	1610.49
487.051	1692.45
487.26	1674.82
487.468	1745.15
487.676	1830.39
487.885	1811.6
488.093	1868.95
488.301	1913.51
488.509	1925.33
488.717	1979.58
488.926	1962.14
489.134	1960.79
489.342	1962.92
489.55	1938.7
489.758	1982.68
489.967	1979.77
490.175	2102.61
490.383	2038.09
490.591	2128.38
490.799	2077.42
491.007	2135.55
491.215	2131.28
491.423	2127.22
491.631	2121.02
491.839	2103.77
492.047	2122.95
492.255	1986.36
492.463	1975.9
492.671	1988.88
492.879	2072.19
493.087	2038.09
493.295	2091.18
493.503	2116.37
493.711	2200.84
493.919	2188.63
494.127	2165.58
494.334	2194.25
494.542	2084.2
494.75	2238.62
494.958	2133.61
495.166	2278.73
495.374	2273.49
495.581	2270.2
495.789	2247.34
495.997	2314.76
496.205	2222.93
496.412	2238.23
496.62	2238.23
496.828	2256.25
497.035	2266.13
497.243	2309.92
497.451	2287.25
497.658	2285.31
497.866	2284.73
498.074	2363.39
498.281	2256.44
498.489	2326
498.696	2226.61
498.904	2208.78
499.112	2191.93
499.319	2321.35
499.527	2294.61
499.734	2339.37
499.942	2255.67
500.149	2261.29
500.357	2324.26
500.564	2244.63
500.771	2252.57
500.979	2237.65
501.186	2184.18
501.394	2259.16
501.601	2201.81
501.808	2249.47
502.016	2243.27
502.223	2176.04
502.43	2233.97
502.638	2186.5
502.845	2232.23
503.052	2361.65
503.26	2289.38
503.467	2388.58
503.674	2320.38
503.881	2352.35
504.089	2388.39
504.296	2363.59
504.503	2238.81
504.71	2235.13
504.917	2245.98
505.125	2287.25
505.332	2316.31
505.539	2330.65
505.746	2430.82
505.953	2400.98
506.16	2390.71
506.367	2448.45
506.574	2519.94
506.781	2482.16
506.988	2440.89
507.195	2452.32
507.402	2416.87
507.609	2430.24
507.816	2382.19
508.023	2390.71
508.23	2340.72
508.437	2300.04
508.644	2392.26
508.851	2404.66
509.058	2427.33
509.265	2440.31
509.472	2458.14
509.679	2537.77
509.885	2460.07
510.092	2459.69
510.299	2453.49
510.506	2425.2
510.713	2471.5
510.92	2442.64
511.126	2431.2
511.333	2513.35
511.54	2491.85
511.746	2538.73
511.953	2555.01
512.16	2603.45
512.367	2525.37
512.573	2501.15
512.78	2502.89
512.987	2471.12
513.193	2470.73
513.4	2378.89
513.606	2470.54
513.813	2503.67
514.02	2470.34
514.226	2548.62
514.433	2507.15
514.639	2407.57
514.846	2439.15
515.052	2424.62
515.259	2488.36
515.465	2492.04
515.672	2468.21
515.878	2568.38
516.085	2507.54
516.291	2503.47
516.497	2532.15
516.704	2460.65
516.91	2424.04
517.117	2288.61
517.323	2199.29
517.529	2200.26
517.736	2251.99
517.942	2261.48
518.148	2241.53
518.354	2338.59
518.561	2311.08
518.767	2350.02
518.973	2388.58
519.179	2371.14
519.386	2382.96
519.592	2392.84
519.798	2413.57
520.004	2554.23
520.21	2484.87
520.417	2569.35
520.623	2597.44
520.829	2594.73
521.035	2608.48
521.241	2599.38
521.447	2634.25
521.653	2706.91
521.859	2648.4
522.065	2644.91
522.271	2747.59
522.477	2687.92
522.683	2698.77
522.889	2729.77
523.095	2689.66
523.301	2676.88
523.507	2619.53
523.713	2678.43
523.919	2596.28
524.125	2748.18
524.331	2730.93
524.537	2825.67
524.742	2860.35
524.948	2809.01
525.154	2846.79
525.36	2898.33
525.566	2791.57
525.772	2923.71
525.977	2799.71
526.183	2879.15
526.389	2903.37
526.595	2811.14
526.8	2737.33
527.006	2642.78
527.212	2576.9
527.417	2547.07
527.623	2545.71
527.829	2651.5
528.034	2719.31
528.24	2726.86
528.446	2774.14
528.651	2859
528.857	2879.73
529.062	2974.47
529.268	2920.42
529.473	2930.1
529.679	2951.03
529.884	3027.17
530.09	3027.95
530.295	2959.17
530.501	3010.7
530.706	2977.96
530.912	2954.52
531.117	2998.69
531.323	2988.42
531.528	3014.19
531.733	3038.21
531.939	3008.96
532.144	3079.29
532.35	3025.04
532.555	3107.96
532.76	3017.29
532.966	2996.75
533.171	2897.94
533.376	2906.85
533.581	2860.94
533.787	2959.17
533.992	2979.51
534.197	2993.27
534.402	3047.9
534.607	3047.9
534.813	3102.35
535.018	3022.33
535.223	3074.06
535.428	3041.12
535.633	3148.84
535.838	3186.04
536.043	3124.04
536.249	3220.92
536.454	3109.32
536.659	3193.02
536.864	3127.14
537.069	3137.8
537.274	3113.97
537.479	3103.9
537.684	3092.27
537.889	3056.62
538.094	3164.15
538.299	3133.73
538.504	3116.49
538.708	3136.25
538.913	3177.13
539.118	3171.9
539.323	3144
539.528	3098.47
539.733	3094.79
539.938	3122.49
540.142	3144
540.347	3076.38
540.552	3035.7
540.757	2997.72
540.962	3063.6
541.166	2960.13
541.371	2979.9
541.576	3021.94
541.781	2969.82
541.985	3076.38
542.19	3071.93
542.395	3153.11
542.599	3189.34
542.804	3126.76
543.008	3190.5
543.213	3112.42
543.418	3069.02
543.622	3166.28
543.827	3078.71
544.031	3124.82
544.236	3181.78
544.44	3134.7
544.645	3236.22
544.849	3131.99
545.054	3217.43
545.258	3222.66
545.463	3253.47
545.667	3161.24
545.872	3193.02
546.076	3173.06
546.281	3158.92
546.485	3158.53
546.689	3230.99
546.894	3204.64
547.098	3215.3
547.302	3154.85
547.507	3191.28
547.711	3192.83
547.915	3218.98
548.119	3117.65
548.324	3131.02
548.528	3197.67
548.732	3165.12
548.936	3231.57
549.141	3206
549.345	3179.65
549.549	3191.28
549.753	3220.53
549.957	3282.72
550.161	3265.09
550.366	3219.95
550.57	3176.55
550.774	3215.49
550.978	3187.59
551.182	3226.92
551.386	3204.26
551.59	3222.27
551.794	3169.96
551.998	3249.4
552.202	3215.88
552.406	3144
552.61	3218.21
552.814	3200.96
553.018	3228.67
553.222	3204.45
553.426	3190.5
553.63	3269.55
553.833	3214.14
554.037	3111.26
554.241	3223.05
554.445	3203.87
554.649	3219.17
554.853	3161.83
555.056	3227.12
555.26	3247.66
555.464	3204.84
555.668	3201.16
555.871	3242.62
556.075	3239.71
556.279	3186.82
556.483	3154.08
556.686	3119.98
556.89	3163.57
557.094	3190.89
557.297	3078.9
557.501	3197.48
557.704	3082
557.908	3160.86
558.112	3078.9
558.315	3176.74
558.519	3117.26
558.722	3063.6
558.926	3064.95
559.129	2985.52
559.333	2984.16
559.536	3011.28
559.74	2973.89
559.943	2963.62
560.147	2970.21
560.35	2975.25
560.553	3027.17
560.757	2949.67
560.96	3035.11
561.164	3001.21
561.367	3107.38
561.57	2996.95
561.774	3032.21
561.977	3021.94
562.18	2984.55
562.384	3067.66
562.587	2992.3
562.79	2972.73
562.993	2982.8
563.197	2980.48
563.4	3113.78
563.603	3067.86
563.806	3090.72
564.009	3019.23
564.212	3003.53
564.416	2922.55
564.619	3005.47
564.822	2927.78
565.025	3032.21
565.228	2943.47
565.431	2959.17
565.634	2847.37
565.837	2907.82
566.04	2884.77
566.243	2865.59
566.446	2805.33
566.649	2889.22
566.852	2784.79
567.055	2834.39
567.258	2840.21
567.461	2891.55
567.664	2929.33
567.867	2810.56
568.07	2865.39
568.273	2881.67
568.475	2898.91
568.678	2836.14
568.881	2828
569.084	2793.71
569.287	2659.25
569.489	2757.09
569.692	2808.62
569.895	2794.29
570.098	2672.61
570.3	2696.25
570.503	2654.79
570.706	2661.76
570.909	2672.81
571.111	2591.82
571.314	2596.86
571.516	2608.68
571.719	2645.3
571.922	2638.71
572.124	2592.4
572.327	2661.18
572.529	2600.73
572.732	2585.82
572.935	2649.36
573.137	2737.52
573.34	2622.82
573.542	2717.37
573.745	2657.7
573.947	2645.88
574.15	2672.81
574.352	2643.36
574.554	2737.71
574.757	2606.74
574.959	2598.6
575.162	2652.08
575.364	2590.66
575.566	2678.23
575.769	2610.03
575.971	2601.12
576.173	2456.78
576.376	2586.2
576.578	2596.28
576.78	2662.93
576.982	2532.34
577.185	2555.2
577.387	2551.13
577.589	2533.12
577.791	2612.75
577.993	2618.17
578.196	2572.64
578.398	2547.26
578.6	2546.68
578.802	2486.62
579.004	2471.12
579.206	2513.93
579.408	2569.35
579.61	2481.97
579.812	2555.78
580.014	2527.5
580.216	2474.41
580.418	2509.48
580.62	2505.8
580.822	2458.91
581.024	2518.97
581.226	2548.62
581.428	2478.09
581.63	2630.76
581.832	2496.11
582.034	2538.93
582.236	2513.16
582.438	2580
582.64	2549.39
582.841	2581.94
583.043	2648.01
583.245	2524.98
583.447	2530.98
583.649	2498.05
583.85	2532.15
584.052	2560.24
584.254	2504.83
584.456	2588.14
584.657	2487.97
584.859	2503.47
585.061	2485.84
585.262	2491.27
585.464	2474.41
585.666	2488.75
585.867	2442.25
586.069	2521.3
586.27	2455.81
586.472	2438.18
586.674	2437.6
586.875	2407.37
587.077	2433.53
587.278	2432.95
587.48	2416.29
587.681	2547.45
587.883	2450.39
588.084	2395.17
588.285	2434.11
588.487	2385.29
588.688	2406.6
588.89	2291.51
589.091	2270.98
589.292	2277.56
589.494	2200.65
589.695	2122.57
589.896	2085.95
590.098	2094.28
590.299	2146.59
590.5	2127.41
590.702	2150.27
590.903	2207.81
591.104	2271.94
591.305	2256.83
591.507	2307.59
591.708	2329.68
591.909	2237.07
592.11	2362.62
592.311	2338.21
592.512	2276.79
592.714	2184.95
592.915	2235.52
593.116	2266.33
593.317	2302.17
593.518	2292.09
593.719	2275.82
593.92	2282.99
594.121	2338.98
594.322	2287.64
594.523	2263.61
594.724	2249.47
594.925	2276.21
595.126	2285.31
595.327	2296.36
595.528	2271.56
595.729	2263.81
595.929	2241.14
596.13	2262.26
596.331	2305.27
596.532	2333.17
596.733	2345.96
596.934	2349.64
597.135	2340.34
597.335	2329.29
597.536	2262.26
597.737	2276.01
597.938	2262.26
598.138	2299.65
598.339	2287.25
598.54	2351.77
598.74	2308.95
598.941	2255.28
599.142	2314.18
599.342	2304.69
599.543	2274.66
599.744	2273.49
599.944	2280.08
600.145	2264.78
600.345	2253.15
600.546	2338.21
600.746	2304.49
600.947	2317.86
601.147	2270.01
601.348	2323.29
601.548	2207.81
601.749	2236.3
601.949	2203.55
602.15	2210.72
602.35	2213.82
602.551	2267.88
602.751	2163.06
602.951	2208.4
603.152	2158.41
603.352	2310.5
603.552	2228.93
603.753	2236.68
603.953	2283.96
604.153	2235.13
604.354	2266.33
604.554	2242.69
604.754	2283.76
604.954	2205.68
605.155	2235.33
605.355	2221.57
605.555	2280.47
605.755	2308.18
605.955	2232.03
606.155	2282.41
606.356	2211.88
606.556	2246.18
606.756	2264.58
606.956	2214.6
607.156	2277.76
607.356	2193.28
607.556	2218.66
607.756	2255.48
607.956	2279.69
608.156	2219.25
608.356	2186.11
608.556	2265.74
608.756	2178.36
608.956	2162.86
609.156	2191.15
609.356	2168.68
609.556	2161.51
609.755	2196.19
609.955	2192.9
610.155	2142.13
610.355	2130.12
610.555	2124.7
610.755	2153.57
610.954	2126.44
611.154	2141.36
611.354	2191.73
611.554	2125.67
611.753	2151.43
611.953	2077.62
612.153	2138.45
612.352	2138.65
612.552	2088.85
