Data from gum_old_FLMT105791__93__15-44-21-256.txt Node

Date: Mon Mar 20 15:44:21 GMT 2023
User: antho
Spectrometer: FLMT10579
Trigger mode: 0
Integration Time (sec): 1.000000E-1
Scans to average: 10
Electric dark correction enabled: true
Nonlinearity correction enabled: false
Boxcar width: 0
XAxis mode: Wavelengths
Number of Pixels in Spectrum: 3648
>>>>>Begin Spectral Data<<<<<
345.248	-154.3
345.464	-154.3
345.681	-154.3
345.898	-182.98
346.114	-151.98
346.331	-37.86
346.548	21.81
346.764	1.86
346.981	-11.9
347.197	-7.44
347.414	-5.12
347.631	-20.81
347.847	72.38
348.064	20.84
348.28	18.52
348.497	-49.1
348.713	-3.18
348.93	31.5
349.146	21.62
349.363	14.84
349.579	17.36
349.796	4.18
350.012	-2.41
350.229	43.32
350.445	1.08
350.661	-7.64
350.878	21.23
351.094	48.36
351.311	29.37
351.527	54.75
351.743	3.21
351.96	79.74
352.176	59.01
352.392	53.97
352.609	50.87
352.825	9.41
353.041	23.94
353.257	32.86
353.474	40.41
353.69	44.09
353.906	35.57
354.122	-3.57
354.339	86.33
354.555	19.49
354.771	-1.24
354.987	82.65
355.203	105.12
355.42	15.81
355.636	32.28
355.852	24.14
356.068	41.77
356.284	-33.41
356.5	77.42
356.716	43.9
356.932	22.59
357.148	56.3
357.364	35.57
357.58	79.55
357.796	105.32
358.012	79.36
358.228	62.5
358.444	-13.84
358.66	93.89
358.876	56.11
359.092	9.03
359.308	36.34
359.524	28.4
359.74	15.81
359.956	58.62
360.172	47
360.388	81.1
360.604	0.5
360.819	121.79
361.035	42.93
361.251	39.83
361.467	28.98
361.683	75.48
361.898	68.89
362.114	64.24
362.33	56.69
362.546	99.89
362.762	35.76
362.977	57.85
363.193	2.63
363.409	78.97
363.624	17.36
363.84	34.99
364.056	29.37
364.271	71.61
364.487	44.09
364.703	28.98
364.918	16
365.134	51.07
365.35	23.36
365.565	140
365.781	66.57
365.996	68.51
366.212	122.37
366.427	50.49
366.643	54.75
366.858	42.35
367.074	20.46
367.289	123.34
367.505	169.64
367.72	23.36
367.936	47.39
368.151	98.34
368.367	78.97
368.582	84.39
368.798	45.84
369.013	114.42
369.228	81.68
369.444	79.94
369.659	121.21
369.874	84.2
370.09	123.92
370.305	5.54
370.52	58.24
370.736	101.44
370.951	61.14
371.166	92.53
371.381	113.46
371.597	94.08
371.812	26.66
372.027	66.76
372.242	77.81
372.458	135.54
372.673	45.84
372.888	57.85
373.103	99.12
373.318	169.25
373.533	95.24
373.749	89.04
373.964	14.84
374.179	110.55
374.394	27.43
374.609	106.87
374.824	23.17
375.039	99.12
375.254	43.51
375.469	112.49
375.684	84.01
375.899	115.39
376.114	107.45
376.329	90.4
376.544	127.99
376.759	112.29
376.974	40.8
377.189	59.01
377.404	72.19
377.619	116.56
377.834	47.77
378.049	32.86
378.264	38.67
378.478	81.49
378.693	93.31
378.908	126.63
379.123	97.37
379.338	137.09
379.553	113.07
379.767	91.56
379.982	102.61
380.197	102.99
380.412	82.26
380.626	120.82
380.841	169.06
381.056	108.42
381.271	166.93
381.485	78.58
381.7	33.44
381.915	108.61
382.129	65.02
382.344	107.64
382.559	80.71
382.773	103.38
382.988	16.78
383.202	105.51
383.417	58.24
383.632	179.52
383.846	61.34
384.061	90.4
384.275	67.15
384.49	101.25
384.704	108.61
384.919	78.39
385.133	96.21
385.348	148.14
385.562	74.71
385.777	97.57
385.991	102.02
386.206	87.88
386.42	97.96
386.634	165.38
386.849	108.22
387.063	110.36
387.277	78
387.492	72.57
387.706	80.52
387.92	47.39
388.135	133.99
388.349	134.57
388.563	91.95
388.778	127.99
388.992	122.56
389.206	133.8
389.42	191.54
389.635	121.4
389.849	143.87
390.063	158.6
390.277	150.65
390.491	180.1
390.706	174.49
390.92	175.65
391.134	143.1
391.348	176.62
391.562	118.49
391.776	136.51
391.99	139.03
392.205	168.29
392.419	109
392.633	116.36
392.847	160.34
393.061	102.22
393.275	160.92
393.489	118.11
393.703	82.65
393.917	112.1
394.131	52.42
394.345	135.74
394.559	149.3
394.773	101.25
394.986	158.4
395.2	163.44
395.414	183.4
395.628	135.93
395.842	185.53
396.056	170.03
396.27	147.94
396.484	188.05
396.697	169.06
396.911	179.72
397.125	159.37
397.339	183.98
397.553	137.87
397.766	201.42
397.98	172.16
398.194	184.95
398.408	182.43
398.621	206.65
398.835	232.8
399.049	234.16
399.262	253.15
399.476	245.78
399.69	231.25
399.903	308.36
400.117	217.11
400.331	244.23
400.544	224.47
400.758	369.98
400.971	264.77
401.185	303.71
401.398	226.22
401.612	297.71
401.826	268.26
402.039	311.08
402.253	243.46
402.466	306.43
402.68	283.57
402.893	278.92
403.106	300.81
403.32	258.96
403.533	277.37
403.747	295.97
403.96	286.08
404.174	304.1
404.387	268.84
404.6	280.85
404.814	341.5
405.027	288.6
405.24	269.23
405.454	268.84
405.667	322.12
405.88	227.38
406.094	296.55
406.307	337.23
406.52	301.78
406.733	271.36
406.947	240.36
407.16	335.88
407.373	320.96
407.586	275.43
407.799	276.98
408.012	302.94
408.226	335.3
408.439	357.96
408.652	268.26
408.865	321.35
409.078	384.9
409.291	335.49
409.504	294.8
409.717	343.82
409.93	344.21
410.143	316.89
410.357	290.15
410.57	257.8
410.783	294.42
410.996	332.2
411.209	300.03
411.421	373.66
411.634	331.42
411.847	312.05
412.06	358.16
412.273	363.78
412.486	347.7
412.699	426.16
412.912	355.64
413.125	387.22
413.338	372.69
413.55	405.04
413.763	369.59
413.976	382.76
414.189	341.69
414.402	372.11
414.615	445.54
414.827	350.41
415.04	392.06
415.253	351.57
415.466	421.32
415.678	443.21
415.891	370.95
416.104	385.86
416.316	362.81
416.529	358.16
416.742	432.94
416.954	439.73
417.167	386.83
417.38	373.85
417.592	447.67
417.805	339.17
418.017	302.36
418.23	374.63
418.442	359.51
418.655	343.82
418.868	394.78
419.08	425
419.293	414.73
419.505	404.46
419.718	403.3
419.93	430.43
420.142	355.83
420.355	414.34
420.567	413.96
420.78	405.24
420.992	368.81
421.205	465.49
421.417	390.13
421.629	402.53
421.842	369.01
422.054	381.21
422.266	432.36
422.479	441.47
422.691	380.83
422.903	449.8
423.115	360.29
423.328	390.32
423.54	385.67
423.752	415.12
423.964	374.82
424.177	407.76
424.389	411.63
424.601	530.79
424.813	427.33
425.025	461.81
425.238	458.71
425.45	408.73
425.662	411.83
425.874	711.17
426.086	428.29
426.298	439.53
426.51	436.43
426.722	444.18
426.934	398.07
427.146	451.54
427.358	390.71
427.57	448.06
427.782	398.65
427.994	428.88
428.206	396.33
428.418	369.98
428.63	458.52
428.842	480.22
429.054	424.42
429.266	461.81
429.478	385.86
429.69	425.39
429.902	352.35
430.114	443.41
430.325	393.03
430.537	371.14
430.749	342.85
430.961	288.6
431.173	348.47
431.384	397.29
431.596	274.07
431.808	396.91
432.02	422.09
432.231	487.97
432.443	522.26
432.655	478.09
432.867	450.19
433.078	475.57
433.29	536.99
433.502	517.22
433.713	531.56
433.925	542.02
434.136	533.11
434.348	450.58
434.56	406.79
434.771	582.32
434.983	425.39
435.194	486.22
435.406	492.04
435.617	546.29
435.829	570.31
436.04	557.91
436.252	547.06
436.463	592.98
436.675	591.04
436.886	558.49
437.098	584.26
437.309	632.31
437.521	573.02
437.732	569.92
437.943	547.26
438.155	551.91
438.366	476.15
438.578	587.17
438.789	524.78
439	563.92
439.211	522.46
439.423	560.43
439.634	556.56
439.845	592.2
440.057	592.2
440.268	607.7
440.479	541.06
440.69	605.77
440.902	558.88
441.113	571.86
441.324	539.7
441.535	616.42
441.746	653.62
441.957	572.25
442.168	604.41
442.38	617.78
442.591	640.06
442.802	590.85
443.013	598.79
443.224	683.27
443.435	616.23
443.646	640.06
443.857	643.74
444.068	601.12
444.279	610.8
444.49	694.89
444.701	653.82
444.912	791.38
445.123	683.65
445.334	647.23
445.545	661.95
445.756	648.58
445.967	617.59
446.178	650.52
446.388	658.85
446.599	667.77
446.81	701.87
447.021	610.61
447.232	672.42
447.443	728.22
447.653	647.23
447.864	702.83
448.075	695.08
448.286	729.18
448.496	717.37
448.707	735.96
448.918	686.17
449.129	784.4
449.339	653.04
449.55	720.85
449.761	682.1
449.971	774.71
450.182	682.49
450.393	740.81
450.603	692.37
450.814	753.6
451.024	746.23
451.235	802.81
451.446	820.25
451.656	829.54
451.867	749.14
452.077	747.2
452.288	815.21
452.498	826.44
452.709	753.6
452.919	748.95
453.13	702.45
453.34	775.3
453.55	679
453.761	727.44
453.971	743.71
454.182	761.35
454.392	774.33
454.602	810.75
454.813	787.11
455.023	816.37
455.233	726.08
455.444	743.91
455.654	665.44
455.864	717.37
456.075	726.67
456.285	745.26
456.495	747.01
456.705	793.9
456.916	805.33
457.126	834.58
457.336	795.45
457.546	703.8
457.756	728.6
457.967	830.13
458.177	767.55
458.387	767.16
458.597	733.45
458.807	736.93
459.017	727.05
459.227	740.61
459.437	760.18
459.647	793.12
459.857	819.47
460.068	722.6
460.278	825.67
460.488	794.28
460.698	861.71
460.908	785.56
461.117	735
461.327	766.38
461.537	821.6
461.747	846.4
461.957	807.26
462.167	908.79
462.377	832.26
462.587	833.03
462.797	883.41
463.007	836.13
463.216	885.34
463.426	909.95
463.636	910.14
463.846	780.33
464.056	827.03
464.265	867.13
464.475	850.08
464.685	817.73
464.895	844.85
465.104	812.3
465.314	864.61
465.524	814.05
465.733	813.85
465.943	904.53
466.153	904.53
466.362	887.28
466.572	886.51
466.782	857.25
466.991	881.86
467.201	923.32
467.41	820.63
467.62	877.4
467.829	868.49
468.039	891.16
468.249	882.44
468.458	875.08
468.668	907.24
468.877	878.95
469.086	951.41
469.296	959.55
469.505	888.44
469.715	975.63
469.924	924.29
470.134	980.28
470.343	942.5
470.552	921.19
470.762	891.93
470.971	900.46
471.18	891.93
471.39	914.99
471.599	871.59
471.808	925.06
472.018	945.41
472.227	1036.47
472.436	1019.8
472.645	995.59
472.855	960.71
473.064	1081.61
473.273	1051.19
473.482	1013.41
473.691	1047.12
473.901	1053.71
474.11	980.67
474.319	1091.88
474.528	1021.16
474.737	1131.6
474.946	1073.28
475.155	1064.17
475.364	1116.1
475.573	1075.22
475.783	1107.77
475.992	1112.42
476.201	1137.6
476.41	1088
476.619	1042.28
476.828	1117.84
477.037	1069.4
477.245	1062.04
477.454	1154.27
477.663	1101.18
477.872	1150.39
478.081	1216.07
478.29	1141.67
478.499	1280.59
478.708	1198.05
478.917	1275.94
479.125	1178.87
479.334	1170.93
479.543	1205.61
479.752	1213.75
479.961	1243.58
480.169	1255.98
480.378	1228.66
480.587	1379.01
480.796	1312.56
481.004	1228.47
481.213	1283.88
481.422	1290.08
481.63	1294.73
481.839	1324.96
482.048	1378.82
482.256	1312.17
482.465	1332.32
482.674	1325.15
482.882	1334.06
483.091	1421.44
483.299	1331.35
483.508	1376.69
483.716	1394.51
483.925	1372.62
484.134	1337.16
484.342	1331.54
484.551	1365.06
484.759	1387.34
484.967	1413.89
485.176	1403.04
485.384	1402.84
485.593	1462.32
485.801	1395.29
486.01	1395.87
486.218	1286.21
486.426	1201.35
486.635	1219.17
486.843	1213.75
487.051	1223.82
487.26	1250.36
487.468	1279.43
487.676	1323.41
487.885	1330.77
488.093	1379.59
488.301	1413.5
488.509	1391.41
488.717	1456.7
488.926	1428.22
489.134	1414.27
489.342	1454.19
489.55	1396.45
489.758	1471.04
489.967	1443.92
490.175	1554.74
490.383	1489.64
490.591	1608.99
490.799	1453.02
491.007	1583.22
491.215	1576.05
491.423	1504.75
491.631	1541.18
491.839	1543.7
492.047	1568.88
492.255	1498.17
492.463	1452.25
492.671	1462.32
492.879	1524.32
493.087	1512.31
493.295	1543.5
493.503	1546.99
493.711	1622.94
493.919	1609.57
494.127	1664.79
494.334	1620.81
494.542	1553
494.75	1620.03
494.958	1571.4
495.166	1688.43
495.374	1697.92
495.581	1713.81
495.789	1688.04
495.997	1749.07
496.205	1616.93
496.412	1605.7
496.62	1654.52
496.828	1686.1
497.035	1688.81
497.243	1707.8
497.451	1682.42
497.658	1729.89
497.866	1660.72
498.074	1788.21
498.281	1682.81
498.489	1740.16
498.696	1677.96
498.904	1642.51
499.112	1625.65
499.319	1717.29
499.527	1662.66
499.734	1741.71
499.942	1641.54
500.149	1685.91
500.357	1704.31
500.564	1681.06
500.771	1700.05
500.979	1639.8
501.186	1634.56
501.394	1649.1
501.601	1633.21
501.808	1661.11
502.016	1639.8
502.223	1621.39
502.43	1666.53
502.638	1677.58
502.845	1646.38
503.052	1780.26
503.26	1691.33
503.467	1793.05
503.674	1761.47
503.881	1727.76
504.089	1815.91
504.296	1775.81
504.503	1698.31
504.71	1689.59
504.917	1662.27
505.125	1720.2
505.332	1740.93
505.539	1770.38
505.746	1814.75
505.953	1835.09
506.16	1829.09
506.367	1855.63
506.574	1845.36
506.781	1866.87
506.988	1818.62
507.195	1800.99
507.402	1769.99
507.609	1849.04
507.816	1804.09
508.023	1795.57
508.23	1793.63
508.437	1709.35
508.644	1789.17
508.851	1833.35
509.058	1844.2
509.265	1831.02
509.472	1890.31
509.679	1928.09
509.885	1876.55
510.092	1857.76
510.299	1867.45
510.506	1823.66
510.713	1807.19
510.92	1799.83
511.126	1895.54
511.333	1882.37
511.54	1880.43
511.746	1917.24
511.953	1927.51
512.16	1995.13
512.367	1915.5
512.573	1883.72
512.78	1900
512.987	1860.67
513.193	1864.54
513.4	1786.27
513.606	1855.82
513.813	1905.81
514.02	1864.74
514.226	1928.09
514.433	1923.05
514.639	1817.07
514.846	1850.21
515.052	1840.91
515.259	1870.36
515.465	1887.4
515.672	1878.1
515.878	1979.43
516.085	1925.96
516.291	1965.48
516.497	1921.5
516.704	1874.04
516.91	1804.09
517.117	1720.2
517.323	1666.53
517.529	1704.12
517.736	1702.18
517.942	1694.82
518.148	1735.51
518.354	1760.69
518.561	1784.72
518.767	1782.01
518.973	1815.72
519.179	1837.22
519.386	1789.56
519.592	1839.94
519.798	1833.93
520.004	1971.68
520.21	1929.45
520.417	1971.49
520.623	1986.6
520.829	2024.58
521.035	1980.02
521.241	1986.8
521.447	2004.04
521.653	2145.48
521.859	2024.19
522.065	2032.52
522.271	2163.69
522.477	2096.85
522.683	2145.67
522.889	2079.41
523.095	2096.46
523.301	2049.57
523.507	2016.25
523.713	2077.66
523.919	2005.2
524.125	2134.63
524.331	2117.19
524.537	2225.49
524.742	2191.78
524.948	2203.02
525.154	2217.55
525.36	2288.46
525.566	2200.31
525.772	2263.66
525.977	2160.78
526.183	2211.16
526.389	2242.35
526.595	2167.56
526.8	2134.43
527.006	2067.59
527.212	2036.4
527.417	2002.49
527.623	1976.33
527.829	2101.88
528.034	2129.01
528.24	2129.2
528.446	2131.14
528.651	2240.02
528.857	2216.19
529.062	2307.84
529.268	2303.57
529.473	2298.92
529.679	2299.7
529.884	2374.49
530.09	2352.59
530.295	2344.84
530.501	2353.17
530.706	2323.92
530.912	2277.42
531.117	2363.25
531.323	2364.22
531.528	2371.58
531.733	2437.65
531.939	2350.46
532.144	2359.37
532.35	2350.27
532.555	2395.8
532.76	2319.07
532.966	2325.27
533.171	2303.19
533.376	2261.34
533.581	2216.58
533.787	2275.09
533.992	2348.14
534.197	2355.3
534.402	2338.64
534.607	2333.8
534.813	2465.93
535.018	2320.04
535.223	2375.84
535.428	2396.77
535.633	2415.75
535.838	2402.97
536.043	2432.42
536.249	2515.73
536.454	2484.53
536.659	2467.87
536.864	2400.06
537.069	2390.57
537.274	2421.57
537.479	2408.97
537.684	2426.99
537.889	2370.8
538.094	2524.06
538.299	2433.77
538.504	2442.49
538.708	2473.88
538.913	2513.79
539.118	2470.39
539.323	2494.22
539.528	2440.17
539.733	2430.28
539.938	2451.21
540.142	2444.82
540.347	2384.75
540.552	2376.62
540.757	2346.39
540.962	2350.85
541.166	2332.25
541.371	2353.56
541.576	2352.01
541.781	2259.79
541.985	2416.92
542.19	2390.95
542.395	2502.16
542.599	2499.06
542.804	2488.02
543.008	2523.86
543.213	2460.9
543.418	2396.57
543.622	2516.11
543.827	2411.3
544.031	2512.24
544.236	2523.28
544.44	2509.53
544.645	2604.46
544.849	2503.52
545.054	2519.41
545.258	2583.93
545.463	2544.98
545.667	2455.86
545.872	2498.48
546.076	2547.11
546.281	2540.14
546.485	2500.42
546.689	2541.5
546.894	2560.1
547.098	2516.11
547.302	2476.78
547.507	2559.51
547.711	2520.96
547.915	2576.18
548.119	2449.08
548.324	2494.41
548.528	2572.49
548.732	2470.97
548.936	2526.38
549.141	2519.21
549.345	2518.05
549.549	2513.21
549.753	2551.76
549.957	2597.88
550.161	2628.49
550.366	2605.04
550.57	2508.17
550.774	2524.45
550.978	2583.93
551.182	2572.88
551.386	2494.22
551.59	2507.4
551.794	2532.78
551.998	2567.07
552.202	2495.77
552.406	2506.23
552.61	2548.66
552.814	2584.89
553.018	2637.21
553.222	2513.21
553.426	2534.52
553.63	2624.03
553.833	2534.91
554.037	2491.31
554.241	2617.25
554.445	2555.64
554.649	2568.23
554.853	2558.93
555.056	2608.53
555.26	2605.43
555.464	2575.21
555.668	2624.61
555.871	2644.76
556.075	2649.61
556.279	2534.13
556.483	2505.65
556.686	2521.15
556.89	2537.23
557.094	2557
557.297	2464.19
557.501	2599.81
557.704	2428.35
557.908	2567.65
558.112	2459.93
558.315	2529.68
558.519	2465.16
558.722	2449.27
558.926	2502.75
559.129	2383.4
559.333	2373.32
559.536	2355.11
559.74	2356.85
559.943	2358.79
560.147	2384.95
560.35	2377.59
560.553	2371.58
560.757	2372.55
560.96	2417.3
561.164	2382.62
561.367	2534.71
561.57	2390.76
561.774	2468.07
561.977	2427.96
562.18	2368.48
562.384	2501
562.587	2375.45
562.79	2396.18
562.993	2377.59
563.197	2453.92
563.4	2490.73
563.603	2463.8
563.806	2491.31
564.009	2442.1
564.212	2414.01
564.416	2367.9
564.619	2419.24
564.822	2358.6
565.025	2459.15
565.228	2382.82
565.431	2412.85
565.634	2301.25
565.837	2327.21
566.04	2338.06
566.243	2304.35
566.446	2230.72
566.649	2329.15
566.852	2262.31
567.055	2290.79
567.258	2300.09
567.461	2349.3
567.664	2362.09
567.867	2268.12
568.07	2329.92
568.273	2310.16
568.475	2367.9
568.678	2259.01
568.881	2330.7
569.084	2273.93
569.287	2189.07
569.489	2219.1
569.692	2303.38
569.895	2297.18
570.098	2220.26
570.3	2197.79
570.503	2166.21
570.706	2189.07
570.909	2148.77
571.111	2123.58
571.314	2102.46
571.516	2139.47
571.719	2157.29
571.922	2109.83
572.124	2113.51
572.327	2129.2
572.529	2093.36
572.732	2104.6
572.935	2121.84
573.137	2210.38
573.34	2143.73
573.542	2170.66
573.745	2163.69
573.947	2146.44
574.15	2112.35
574.352	2080.18
574.554	2181.32
574.757	2085.41
574.959	2067.01
575.162	2084.25
575.364	2058.68
575.566	2155.36
575.769	2015.67
575.971	2038.72
576.173	1955.02
576.376	2038.72
576.578	2058.48
576.78	2109.83
576.982	1974.98
577.185	2019.35
577.387	1995.71
577.589	2014.7
577.791	2056.55
577.993	2065.07
578.196	1990.48
578.398	2033.68
578.6	2026.52
578.802	1965.68
579.004	1946.11
579.206	1947.85
579.408	2005.4
579.61	1965.68
579.812	2039.11
580.014	1966.26
580.216	1946.11
580.418	1956.77
580.62	1950.76
580.822	1973.04
581.024	1986.02
581.226	2009.85
581.428	1991.64
581.63	2076.31
581.832	1970.72
582.034	2026.13
582.236	1976.33
582.438	2060.81
582.64	2077.66
582.841	2058.1
583.043	2088.13
583.245	2027.48
583.447	2024.38
583.649	2023.22
583.85	2011.02
584.052	2077.28
584.254	1974.98
584.456	2070.11
584.657	1961.8
584.859	2030.39
585.061	1998.42
585.262	1952.5
585.464	1961.03
585.666	1980.4
585.867	1950.76
586.069	2017.8
586.27	1914.72
586.472	1908.14
586.674	1896.9
586.875	1947.08
587.077	1912.01
587.278	1970.13
587.48	1934.68
587.681	2052.48
587.883	1963.93
588.084	1881.2
588.285	1944.75
588.487	1886.24
588.688	1880.82
588.89	1859.89
589.091	1795.76
589.292	1849.24
589.494	1757.01
589.695	1730.66
589.896	1640.38
590.098	1687.85
590.299	1721.94
590.5	1669.63
590.702	1696.37
590.903	1796.15
591.104	1836.45
591.305	1821.14
591.507	1837.61
591.708	1828.7
591.909	1835.67
592.11	1913.75
592.311	1823.27
592.512	1781.43
592.714	1769.41
592.915	1802.93
593.116	1810.1
593.317	1810.49
593.518	1842.84
593.719	1806.03
593.92	1823.47
594.121	1866.67
594.322	1838.39
594.523	1821.92
594.724	1794.79
594.925	1820.76
595.126	1799.25
595.327	1808.74
595.528	1851.37
595.729	1807
595.929	1794.99
596.13	1803.12
596.331	1854.08
596.532	1828.89
596.733	1889.15
596.934	1843.81
597.135	1814.56
597.335	1861.06
597.536	1803.12
597.737	1810.87
597.938	1770.58
598.138	1825.02
598.339	1806.03
598.54	1792.47
598.74	1756.04
598.941	1718.65
599.142	1860.67
599.342	1790.92
599.543	1754.88
599.744	1771.35
599.944	1745
600.145	1800.41
600.345	1786.27
600.546	1838.97
600.746	1809.91
600.947	1852.53
601.147	1736.48
601.348	1836.64
601.548	1696.56
601.749	1790.53
601.949	1703.15
602.15	1722.33
602.35	1710.32
602.551	1756.82
602.751	1717.29
602.951	1724.66
603.152	1672.54
603.352	1771.16
603.552	1738.41
603.753	1803.12
603.953	1816.11
604.153	1759.92
604.354	1766.89
604.554	1762.63
604.754	1763.79
604.954	1724.27
605.155	1780.07
605.355	1767.09
605.555	1818.82
605.755	1822.89
605.955	1737.06
606.155	1791.31
606.356	1735.89
606.556	1795.96
606.756	1792.66
606.956	1710.71
607.156	1824.44
607.356	1714.39
607.556	1779.29
607.756	1751.98
607.956	1808.36
608.156	1755.08
608.356	1702.76
608.556	1794.41
608.756	1731.63
608.956	1712.45
609.156	1735.31
609.356	1689.59
609.556	1685.71
609.755	1711.48
609.955	1670.6
610.155	1677.77
610.355	1649.1
610.555	1648.13
610.755	1671.18
610.954	1607.05
611.154	1673.51
611.354	1710.51
611.554	1656.46
611.753	1657.81
611.953	1608.6
612.153	1690.75
612.352	1675.06
612.552	1587.1
612.752	1589.62
612.951	1647.74
613.151	1666.92
613.351	1603.95
613.55	1622.75
613.75	1613.83
613.949	1606.28
614.149	1656.85
614.348	1619.45
