Data from gum_old_FLMT105791__182__15-48-09-249.txt Node

Date: Mon Mar 20 15:48:09 GMT 2023
User: antho
Spectrometer: FLMT10579
Trigger mode: 0
Integration Time (sec): 1.000000E-1
Scans to average: 10
Electric dark correction enabled: true
Nonlinearity correction enabled: false
Boxcar width: 0
XAxis mode: Wavelengths
Number of Pixels in Spectrum: 3648
>>>>>Begin Spectral Data<<<<<
345.248	-197.01
345.464	-197.01
345.681	-197.01
345.898	-160.78
346.114	-171.82
346.331	-41.43
346.548	43.04
346.764	-5.01
346.981	-6.17
347.197	-18.76
347.414	38.59
347.631	-28.45
347.847	67.84
348.064	-9.07
348.28	20.18
348.497	-61.19
348.713	0.42
348.93	39.36
349.146	62.03
349.363	1.39
349.579	48.66
349.796	18.05
350.012	-2.1
350.229	31.81
350.445	3.71
350.661	-8.88
350.878	21.54
351.094	17.66
351.311	25.22
351.527	9.14
351.743	13.98
351.96	37.81
352.176	54.09
352.392	33.16
352.609	71.53
352.825	-9.27
353.041	35.1
353.257	7.01
353.474	38.2
353.69	34.71
353.906	-3.07
354.122	-14.11
354.339	53.51
354.555	17.66
354.771	-3.84
354.987	64.94
355.203	73.66
355.42	12.63
355.636	20.38
355.852	-11.59
356.068	28.71
356.284	0.81
356.5	78.5
356.716	47.5
356.932	50.79
357.148	42.08
357.364	15.92
357.58	62.23
357.796	72.11
358.012	68.81
358.228	41.3
358.444	-52.67
358.66	58.16
358.876	48.86
359.092	-23.41
359.308	49.05
359.524	70.75
359.74	36.26
359.956	15.73
360.172	16.89
360.388	80.63
360.604	19.79
360.819	102.52
361.035	60.68
361.251	61.45
361.467	21.54
361.683	63.58
361.898	16.31
362.114	59.51
362.33	66.88
362.546	83.54
362.762	56.8
362.977	13.59
363.193	-15.85
363.409	56.8
363.624	-2.49
363.84	14.18
364.056	43.63
364.271	51.76
364.487	70.17
364.703	21.34
364.918	7.01
365.134	43.63
365.35	43.24
365.565	163.55
365.781	78.11
365.996	63.78
366.212	102.72
366.427	66.88
366.643	53.7
366.858	30.64
367.074	35.49
367.289	101.36
367.505	164.33
367.72	4.49
367.936	47.11
368.151	117.83
368.367	93.22
368.582	59.13
368.798	31.03
369.013	96.13
369.228	82.37
369.444	72.3
369.659	72.69
369.874	86.64
370.09	126.94
370.305	-21.28
370.52	45.37
370.736	124.03
370.951	85.67
371.166	108.14
371.381	135.27
371.597	106.21
371.812	25.99
372.027	38.39
372.242	51.57
372.458	153.09
372.673	34.52
372.888	64.74
373.103	62.42
373.318	154.26
373.533	76.37
373.749	98.65
373.964	-8.88
374.179	115.7
374.394	24.64
374.609	90.32
374.824	29.48
375.039	105.24
375.254	55.25
375.469	126.55
375.684	68.62
375.899	98.07
376.114	62.81
376.329	71.33
376.544	103.11
376.759	101.94
376.974	54.67
377.189	63.58
377.404	54.28
377.619	144.18
377.834	13.59
378.049	23.67
378.264	45.76
378.478	92.84
378.693	62.03
378.908	106.01
379.123	94.58
379.338	117.44
379.553	85.47
379.767	74.82
379.982	99.81
380.197	99.04
380.412	90.9
380.626	101.36
380.841	163.36
381.056	89.16
381.271	146.51
381.485	67.07
381.7	41.11
381.915	72.49
382.129	29.87
382.344	89.93
382.559	76.76
382.773	116.28
382.988	16.69
383.202	67.26
383.417	61.26
383.632	176.92
383.846	97.1
384.061	79.08
384.275	79.86
384.49	92.64
384.704	105.24
384.919	99.23
385.133	62.61
385.348	122.87
385.562	72.11
385.777	123.84
385.991	88.57
386.206	49.05
386.42	72.88
386.634	139.14
386.849	100.39
387.063	101.94
387.277	93.81
387.492	59.71
387.706	44.98
387.92	71.53
388.135	121.32
388.349	109.5
388.563	87.99
388.778	112.41
388.992	140.11
389.206	125.77
389.42	191.26
389.635	104.27
389.849	130.81
390.063	135.46
390.277	150.38
390.491	153.87
390.706	160.26
390.92	159.1
391.134	127.32
391.348	171.5
391.562	79.27
391.776	132.94
391.99	117.44
392.205	167.04
392.419	93.42
392.633	101.36
392.847	172.47
393.061	102.52
393.275	156.77
393.489	97.29
393.703	105.04
393.917	102.52
394.131	48.28
394.345	106.79
394.559	162.78
394.773	99.23
394.986	159.29
395.2	126.94
395.414	192.62
395.628	78.11
395.842	158.32
396.056	137.59
396.27	86.44
396.484	135.46
396.697	128.1
396.911	189.32
397.125	148.44
397.339	154.06
397.553	105.43
397.766	196.3
397.98	190.29
398.194	205.79
398.408	159.87
398.621	213.54
398.835	202.11
399.049	187.77
399.262	229.24
399.476	228.07
399.69	213.74
399.903	298.6
400.117	200.37
400.331	242.8
400.544	166.65
400.758	316.62
400.971	250.55
401.185	257.33
401.398	194.36
401.612	298.98
401.826	245.51
402.039	258.49
402.253	220.71
402.466	292.4
402.68	228.46
402.893	254.23
403.106	224
403.32	223.62
403.533	259.46
403.747	213.15
403.96	264.11
404.174	280.19
404.387	218.58
404.6	249.58
404.814	295.11
405.027	257.33
405.24	248.61
405.454	259.27
405.667	320.88
405.88	186.8
406.094	255.2
406.307	313.52
406.52	267.6
406.733	217.22
406.947	203.08
407.16	319.33
407.373	318.75
407.586	263.72
407.799	210.64
408.012	312.55
408.226	278.06
408.439	325.92
408.652	240.86
408.865	291.23
409.078	358.46
409.291	299.37
409.504	270.7
409.717	308.87
409.93	311.38
410.143	303.25
410.357	224.39
410.57	209.86
410.783	245.12
410.996	286.39
411.209	303.25
411.421	349.94
411.634	301.12
411.847	246.67
412.06	327.85
412.273	310.22
412.486	326.11
412.699	410
412.912	291.04
413.125	333.08
413.338	327.47
413.55	337.54
413.763	312.74
413.976	318.94
414.189	306.54
414.402	326.69
414.615	422.4
414.827	300.73
415.04	372.03
415.253	353.43
415.466	380.55
415.678	415.43
415.891	342.96
416.104	326.88
416.316	324.37
416.529	338.7
416.742	358.85
416.954	388.11
417.167	366.99
417.38	356.14
417.592	374.55
417.805	314.68
418.017	310.8
418.23	375.9
418.442	317.58
418.655	341.41
418.868	350.71
419.08	369.7
419.293	409.61
419.505	375.51
419.718	395.66
419.93	385.59
420.142	327.85
420.355	399.93
420.567	404.96
420.78	365.63
420.992	363.5
421.205	445.26
421.417	344.32
421.629	370.28
421.842	367.38
422.054	346.45
422.266	403.41
422.479	432.09
422.691	368.93
422.903	379.2
423.115	349.75
423.328	351.88
423.54	379.39
423.752	362.15
423.964	361.18
424.177	408.45
424.389	341.8
424.601	498.74
424.813	398.76
425.025	406.13
425.238	430.93
425.45	391.21
425.662	383.65
425.874	729.3
426.086	396.83
426.298	422.21
426.51	423.56
426.722	432.28
426.934	406.32
427.146	436.35
427.358	370.48
427.57	450.88
427.782	384.23
427.994	396.05
428.206	375.32
428.418	337.15
428.63	459.21
428.842	472.78
429.054	426.47
429.266	429.38
429.478	366.21
429.69	382.1
429.902	349.55
430.114	419.88
430.325	377.84
430.537	358.85
430.749	333.47
430.961	292.01
431.173	336.76
431.384	379.97
431.596	286.39
431.808	358.46
432.02	436.54
432.231	475.49
432.443	515.98
432.655	492.93
432.867	424.73
433.078	462.51
433.29	540.59
433.502	492.34
433.713	503.97
433.925	492.93
434.136	537.49
434.348	459.41
434.56	389.46
434.771	560.16
434.983	412.33
435.194	432.09
435.406	497.58
435.617	540.01
435.829	591.35
436.04	543.3
436.252	528.38
436.463	570.04
436.675	593.67
436.886	574.69
437.098	581.47
437.309	614.79
437.521	557.64
437.732	526.25
437.943	532.84
438.155	558.22
438.366	482.46
438.578	613.44
438.789	529.16
439	536.71
439.211	520.82
439.423	525.67
439.634	539.23
439.845	549.11
440.057	571.78
440.268	621.38
440.479	512.69
440.69	561.51
440.902	545.24
441.113	540.59
441.324	540.97
441.535	619.05
441.746	677.95
441.957	558.99
442.168	588.25
442.38	646.95
442.591	658.97
442.802	613.63
443.013	586.7
443.224	659.94
443.435	606.46
443.646	596.39
443.857	586.31
444.068	608.79
444.279	605.88
444.49	720
444.701	633.59
444.912	735.11
445.123	694.81
445.334	667.88
445.545	684.54
445.756	670.79
445.967	610.72
446.178	629.52
446.388	664.39
446.599	680.28
446.81	664.39
447.021	604.52
447.232	707.6
447.443	691.13
447.653	621.38
447.864	726.39
448.075	671.37
448.286	713.02
448.496	662.26
448.707	730.85
448.918	649.67
449.129	765.72
449.339	665.75
449.55	736.85
449.761	685.9
449.971	705.08
450.182	702.37
450.393	731.23
450.603	680.67
450.814	744.41
451.024	729.88
451.235	770.18
451.446	813
451.656	799.24
451.867	722.52
452.077	745.18
452.288	784.51
452.498	768.24
452.709	734.33
452.919	725.62
453.13	680.28
453.34	729.49
453.55	683.38
453.761	738.21
453.971	726.97
454.182	786.26
454.392	744.41
454.602	800.79
454.813	779.67
455.023	766.11
455.233	689.38
455.444	757
455.654	654.7
455.864	750.22
456.075	713.8
456.285	729.68
456.495	720.38
456.705	774.25
456.916	802.53
457.126	843.61
457.336	797.11
457.546	692.48
457.756	747.9
457.967	831.01
458.177	772.31
458.387	776.76
458.597	700.82
458.807	746.15
459.017	747.51
459.227	731.82
459.437	730.85
459.647	824.23
459.857	781.41
460.068	734.92
460.278	831.4
460.488	790.52
460.698	856.59
460.908	780.64
461.117	747.9
461.327	771.53
461.537	828.11
461.747	806.02
461.957	797.11
462.167	918.78
462.377	881.97
462.587	834.89
462.797	875.77
463.007	819.78
463.216	883.13
463.426	897.66
463.636	866.28
463.846	790.52
464.056	805.05
464.265	857.95
464.475	808.73
464.685	829.46
464.895	832.56
465.104	813.58
465.314	874.61
465.524	812.61
465.733	786.65
465.943	929.83
466.153	934.09
466.362	897.86
466.572	893.59
466.782	841.67
466.991	877.71
467.201	888.36
467.41	794.78
467.62	865.89
467.829	860.85
468.039	873.25
468.249	892.82
468.458	893.21
468.668	891.27
468.877	921.3
469.086	966.44
469.296	966.06
469.505	917.81
469.715	983.3
469.924	923.63
470.134	984.07
470.343	989.89
470.552	936.8
470.762	892.63
470.971	879.26
471.18	931.76
471.39	905.03
471.599	903.28
471.808	931.76
472.018	947.84
472.227	1020.5
472.436	1031.93
472.645	1003.06
472.855	1007.71
473.064	1055.76
473.273	1026.7
473.482	1026.7
473.691	1060.22
473.901	1053.63
474.11	1006.74
474.319	1139.85
474.528	1018.56
474.737	1112.53
474.946	1085.02
475.155	1084.24
475.364	1122.99
475.573	1093.35
475.783	1104.78
475.992	1125.7
476.201	1170.65
476.41	1065.64
476.619	1080.95
476.828	1130.55
477.037	1058.47
477.245	1071.26
477.454	1178.02
477.663	1127.45
477.872	1145.85
478.081	1207.47
478.29	1128.61
478.499	1265.4
478.708	1213.86
478.917	1277.41
479.125	1178.21
479.334	1228.78
479.543	1217.73
479.752	1225.87
479.961	1225.68
480.169	1298.33
480.378	1261.33
480.587	1417.49
480.796	1303.76
481.004	1262.49
481.213	1291.75
481.422	1279.35
481.63	1311.89
481.839	1349.29
482.048	1415.36
482.256	1319.45
482.465	1358.01
482.674	1390.75
482.882	1359.36
483.091	1416.13
483.299	1376.99
483.508	1372.54
483.716	1385.32
483.925	1394.82
484.134	1364.79
484.342	1373.31
484.551	1417.1
484.759	1406.64
484.967	1431.24
485.176	1437.64
485.384	1463.99
485.593	1431.05
485.801	1443.64
486.01	1378.35
486.218	1325.84
486.426	1223.93
486.635	1219.09
486.843	1198.36
487.051	1271.6
487.26	1252.61
487.468	1324.88
487.676	1365.95
487.885	1330.11
488.093	1400.82
488.301	1469.22
488.509	1443.45
488.717	1498.47
488.926	1489.17
489.134	1443.26
489.342	1465.54
489.55	1417.68
489.758	1446.16
489.967	1478.71
490.175	1588.18
490.383	1571.52
490.591	1623.25
490.799	1547.88
491.007	1598.83
491.215	1611.23
491.423	1576.36
491.631	1567.06
491.839	1559.12
492.047	1580.43
492.255	1538.97
492.463	1499.25
492.671	1486.46
492.879	1576.94
493.087	1541.29
493.295	1575.2
493.503	1618.4
493.711	1655.99
493.919	1690.28
494.127	1686.6
494.334	1658.31
494.542	1629.45
494.75	1651.15
494.958	1611.82
495.166	1705.78
495.374	1714.7
495.581	1736.98
495.789	1689.51
495.997	1738.14
496.205	1658.9
496.412	1661.41
496.62	1712.18
496.828	1702.1
497.035	1690.09
497.243	1725.74
497.451	1718.18
497.658	1745.5
497.866	1711.6
498.074	1783.67
498.281	1685.25
498.489	1802.66
498.696	1694.55
498.904	1676.33
499.112	1671.3
499.319	1798.2
499.527	1734.07
499.734	1769.33
499.942	1677.11
500.149	1736.39
500.357	1740.66
500.564	1732.33
500.771	1720.7
500.979	1679.63
501.186	1674.78
501.394	1709.08
501.601	1670.13
501.808	1744.53
502.016	1702.49
502.223	1702.68
502.43	1698.61
502.638	1715.86
502.845	1690.86
503.052	1798.01
503.26	1749.57
503.467	1801.11
503.674	1777.47
503.881	1799.36
504.089	1841.02
504.296	1781.73
504.503	1698.61
504.71	1772.43
504.917	1713.53
505.125	1783.48
505.332	1780.76
505.539	1810.99
505.746	1893.91
505.953	1853.81
506.16	1871.44
506.367	1923.17
506.574	1955.33
506.781	1958.43
506.988	1899.34
507.195	1886.55
507.402	1890.04
507.609	1910.19
507.816	1841.79
508.023	1821.06
508.23	1847.99
508.437	1823
508.644	1868.92
508.851	1923.17
509.058	1921.23
509.265	1879.38
509.472	1949.9
509.679	2036.32
509.885	1943.12
510.092	1959.79
510.299	1931.69
510.506	1947.77
510.713	1954.55
510.92	1917.94
511.126	1945.64
511.333	1973.74
511.54	1969.09
511.746	2002.8
511.953	2067.12
512.16	2075.07
512.367	1970.25
512.573	2006.87
512.78	2025.66
512.987	2014.03
513.193	1981.1
513.4	1875.12
513.606	1978.77
513.813	2000.67
514.02	1973.93
514.226	2029.34
514.433	2041.93
514.639	1955.14
514.846	1970.83
515.052	1976.64
515.259	1997.37
515.465	1986.52
515.672	1988.85
515.878	2074.48
516.085	2016.94
516.291	2083.4
516.497	2040.19
516.704	2021.01
516.91	1952.62
517.117	1829.97
517.323	1785.8
517.529	1835.98
517.736	1816.03
517.942	1841.99
518.148	1855.36
518.354	1953.97
518.561	1876.67
518.767	1911.35
518.973	1955.52
519.179	2000.86
519.386	1959.59
519.592	1946.22
519.798	1982.07
520.004	2067.51
520.21	2045.42
520.417	2140.94
520.623	2170.97
520.829	2181.24
521.035	2164.77
521.241	2180.27
521.447	2200.42
521.653	2311.63
521.859	2147.14
522.065	2218.05
522.271	2300.2
522.477	2246.34
522.683	2291.67
522.889	2243.63
523.095	2258.16
523.301	2215.53
523.507	2185.5
523.713	2260.48
523.919	2188.41
524.125	2343.21
524.331	2258.93
524.537	2382.54
524.742	2373.44
524.948	2418
525.154	2400.17
525.36	2453.07
525.566	2397.65
525.772	2493.56
525.977	2379.05
526.183	2415.67
526.389	2430.98
526.595	2347.28
526.8	2334.88
527.006	2222.31
527.212	2192.86
527.417	2169.23
527.623	2165.93
527.829	2274.43
528.034	2291.67
528.24	2350.19
528.446	2333.91
528.651	2431.56
528.857	2412.19
529.062	2480.77
529.268	2466.05
529.473	2520.88
529.679	2530.95
529.884	2589.85
530.09	2564.66
530.295	2546.26
530.501	2544.71
530.706	2539.09
530.912	2503.83
531.117	2552.85
531.323	2556.53
531.528	2611.55
531.733	2653.01
531.939	2589.08
532.144	2648.75
532.35	2580.94
532.555	2653.59
532.76	2599.15
532.966	2599.93
533.171	2543.55
533.376	2459.07
533.581	2459.46
533.787	2540.06
533.992	2586.36
534.197	2596.05
534.402	2564.28
534.607	2576.1
534.813	2678.59
535.018	2629.38
535.223	2587.33
535.428	2621.24
535.633	2646.23
535.838	2679.94
536.043	2696.61
536.249	2800.26
536.454	2694.67
536.659	2760.16
536.864	2691.57
537.069	2686.73
537.274	2701.64
537.479	2663.67
537.684	2646.23
537.889	2598.76
538.094	2777.4
538.299	2677.62
538.504	2703.77
538.708	2727.02
538.913	2752.21
539.118	2743.3
539.323	2716.37
539.528	2685.76
539.733	2690.02
539.938	2721.41
540.142	2748.34
540.347	2671.42
540.552	2672.39
540.757	2627.05
540.962	2639.64
541.166	2557.11
541.371	2585.2
541.576	2639.45
541.781	2547.81
541.985	2674.91
542.19	2690.99
542.395	2766.16
542.599	2780.11
542.804	2708.62
543.008	2788.44
543.213	2720.63
543.418	2681.3
543.622	2735.74
543.827	2654.95
544.031	2788.64
544.236	2801.42
544.44	2786.5
544.645	2833.97
544.849	2740.78
545.054	2814.6
545.258	2855.48
545.463	2854.32
545.667	2775.85
545.872	2838.82
546.076	2802.2
546.281	2830.29
546.485	2754.15
546.689	2802
546.894	2835.91
547.098	2813.44
547.302	2730.9
547.507	2801.81
547.711	2802.59
547.915	2845.6
548.119	2730.71
548.324	2760.35
548.528	2842.69
548.732	2773.52
548.936	2839.79
549.141	2833
549.345	2785.54
549.549	2775.46
549.753	2801.42
549.957	2904.3
550.161	2906.63
550.366	2869.82
550.57	2773.14
550.774	2802.2
550.978	2795.22
551.182	2856.06
551.386	2777.4
551.59	2757.44
551.794	2800.65
551.998	2841.14
552.202	2822.93
552.406	2794.64
552.61	2846.37
552.814	2832.62
553.018	2876.21
553.222	2809.17
553.426	2813.24
553.63	2873.3
553.833	2795.03
554.037	2741.56
554.241	2797.16
554.445	2796.77
554.649	2781.27
554.853	2791.35
555.056	2830.87
555.26	2907.6
555.464	2850.64
555.668	2856.25
555.871	2864.78
556.075	2854.12
556.279	2796.58
556.483	2760.74
556.686	2786.5
556.89	2771.2
557.094	2739.42
557.297	2730.71
557.501	2792.12
557.704	2652.04
557.908	2741.94
558.112	2706.49
558.315	2813.82
558.519	2698.93
558.722	2728.19
558.926	2656.5
559.129	2602.64
559.333	2622.59
559.536	2617.17
559.74	2578.42
559.943	2596.63
560.147	2569.31
560.35	2625.89
560.553	2659.02
560.757	2575.71
560.96	2681.3
561.164	2610.78
561.367	2746.01
561.57	2627.24
561.774	2697.38
561.977	2628.79
562.18	2619.69
562.384	2677.23
562.587	2609.42
562.79	2620.46
562.993	2600.9
563.197	2625.31
563.4	2691.18
563.603	2696.41
563.806	2747.56
564.009	2609.23
564.212	2629.76
564.416	2561.37
564.619	2637.51
564.822	2519.33
565.025	2633.44
565.228	2580.16
565.431	2584.62
565.634	2487.94
565.837	2503.83
566.04	2498.02
566.243	2472.44
566.446	2414.32
566.649	2556.91
566.852	2426.14
567.055	2491.62
567.258	2503.25
567.461	2568.73
567.664	2557.5
567.867	2429.82
568.07	2494.14
568.273	2524.75
568.475	2570.09
568.678	2432.72
568.881	2424.78
569.084	2446.28
569.287	2352.51
569.489	2392.81
569.692	2452.87
569.895	2462.75
570.098	2368.98
570.3	2367.62
570.503	2302.33
570.706	2314.92
570.909	2352.9
571.111	2238.98
571.314	2233.74
571.516	2273.27
571.719	2310.47
571.922	2289.74
572.124	2256.41
572.327	2290.32
572.529	2212.43
572.732	2300.01
572.935	2332.75
573.137	2418.97
573.34	2299.04
573.542	2352.7
573.745	2337.4
573.947	2339.53
574.15	2310.27
574.352	2255.44
574.554	2324.03
574.757	2275.4
574.959	2250.21
575.162	2255.06
575.364	2238.2
575.566	2356.97
575.769	2201.19
575.971	2222.89
576.173	2117.5
576.376	2191.12
576.578	2256.99
576.78	2290.51
576.982	2125.63
577.185	2208.17
577.387	2141.52
577.589	2175.04
577.791	2228.71
577.993	2181.43
578.196	2217.86
578.398	2215.92
578.6	2184.14
578.802	2113.62
579.004	2060.34
579.206	2127.76
579.408	2150.05
579.61	2102.19
579.812	2169.61
580.014	2120.6
580.216	2114.98
580.418	2164
580.62	2094.44
580.822	2082.81
581.024	2162.25
581.226	2172.91
581.428	2094.44
581.63	2218.83
581.832	2111.68
582.034	2199.26
582.236	2115.36
582.438	2187.44
582.64	2227.93
582.841	2204.1
583.043	2268.42
583.245	2152.18
583.447	2158.96
583.649	2153.92
583.85	2190.15
584.052	2207.98
584.254	2125.44
584.456	2165.35
584.657	2088.63
584.859	2150.82
585.061	2073.71
585.262	2095.21
585.464	2012.87
585.666	2076.81
585.867	2060.73
586.069	2106.84
586.27	2065.77
586.472	2053.56
586.674	2056.47
586.875	2050.85
587.077	2045.23
587.278	2100.64
587.48	2062.28
587.681	2132.61
587.883	2079.13
588.084	2029.15
588.285	2066.93
588.487	1975.67
588.688	2040
588.89	1958.43
589.091	1912.7
589.292	1927.62
589.494	1885.39
589.695	1829.01
589.896	1743.37
590.098	1775.92
590.299	1814.67
590.5	1784.64
590.702	1831.52
590.903	1837.34
591.104	1917.35
591.305	1945.45
591.507	1950.87
591.708	1927.43
591.909	1897.79
592.11	1984.59
592.311	1972.96
592.512	1897.4
592.714	1836.95
592.915	1878.61
593.116	1884.03
593.317	1898.37
593.518	1895.85
593.719	1885.19
593.92	1963.27
594.121	1962.3
594.322	1902.44
594.523	1889.26
594.724	1827.84
594.925	1880.35
595.126	1918.32
595.327	1878.41
595.528	1926.85
595.729	1863.11
595.929	1863.11
596.13	1870.86
596.331	1878.99
596.532	1914.64
596.733	1978
596.934	1934.4
597.135	1953
597.335	1936.92
597.536	1838.11
597.737	1908.25
597.938	1866.79
598.138	1896.82
598.339	1880.74
598.54	1882.29
598.74	1836.17
598.941	1896.04
599.142	1937.5
599.342	1892.17
599.543	1851.48
599.744	1847.41
599.944	1897.98
600.145	1841.21
600.345	1896.24
600.546	1943.51
600.746	1911.54
600.947	1958.43
601.147	1845.09
601.348	1884.03
601.548	1839.08
601.749	1865.43
601.949	1792.78
602.15	1797.81
602.35	1832.11
602.551	1882.29
602.751	1832.88
602.951	1803.43
603.152	1725.74
603.352	1878.41
603.552	1845.09
603.753	1878.41
603.953	1865.82
604.153	1887.32
604.354	1846.06
604.554	1834.62
604.754	1861.17
604.954	1810.99
605.155	1867.95
605.355	1847.41
605.555	1858.46
605.755	1902.63
605.955	1841.79
606.155	1905.15
606.356	1842.76
606.556	1885
606.756	1867.37
606.956	1767.39
607.156	1873.76
607.356	1805.37
607.556	1872.41
607.756	1835.79
607.956	1876.09
608.156	1821.26
608.356	1773.4
608.556	1878.22
608.756	1774.95
608.956	1779.21
609.156	1769.91
609.356	1746.28
609.556	1738.33
609.755	1802.46
609.955	1752.48
610.155	1767.59
610.355	1779.21
610.555	1724.58
610.755	1740.08
610.954	1689.31
611.154	1729.23
611.354	1785.8
611.554	1741.82
611.753	1738.33
611.953	1689.9
612.153	1744.92
612.352	1770.3
612.552	1669.36
612.752	1631
612.951	1706.75
613.151	1690.86
613.351	1677.11
613.55	1712.56
613.75	1718.57
613.949	1686.21
614.149	1689.51
614.348	1686.41
