Data from gum_old_FLMT105791__33__15-42-55-259.txt Node

Date: Mon Mar 20 15:42:55 GMT 2023
User: antho
Spectrometer: FLMT10579
Trigger mode: 0
Integration Time (sec): 1.000000E-1
Scans to average: 10
Electric dark correction enabled: true
Nonlinearity correction enabled: false
Boxcar width: 0
XAxis mode: Wavelengths
Number of Pixels in Spectrum: 3648
>>>>>Begin Spectral Data<<<<<
345.248	-192.04
345.464	-192.04
345.681	-192.04
345.898	-186.03
346.114	-175.57
346.331	-23.67
346.548	13.72
346.764	-17.86
346.981	-15.92
347.197	2.1
347.414	36.97
347.631	-45.18
347.847	75.72
348.064	15.85
348.28	12.17
348.497	-37.81
348.713	-16.11
348.93	26.32
349.146	19.34
349.363	-10.49
349.579	61.19
349.796	14.31
350.012	26.7
350.229	50.92
350.445	36.78
350.661	2.29
350.878	32.13
351.094	67.97
351.311	37.36
351.527	58.48
351.743	43.75
351.96	46.47
352.176	57.51
352.392	60.22
352.609	52.28
352.825	32.71
353.041	34.84
353.257	51.5
353.474	57.51
353.69	44.72
353.906	29.61
354.122	8.3
354.339	111.18
354.555	37.55
354.771	59.25
354.987	112.15
355.203	67
355.42	39.1
355.636	33.49
355.852	33.1
356.068	58.29
356.284	4.23
356.5	117.18
356.716	55.96
356.932	39.69
357.148	61.39
357.364	36
357.58	75.14
357.796	66.42
358.012	103.43
358.228	59.64
358.444	-46.34
358.66	72.24
358.876	56.54
359.092	26.12
359.308	54.8
359.524	47.82
359.74	28.84
359.956	27.87
360.172	70.1
360.388	84.05
360.604	74.56
360.819	131.13
361.035	62.16
361.251	87.15
361.467	30.97
361.683	95.87
361.898	68.55
362.114	97.81
362.33	76.5
362.546	105.75
362.762	60.42
362.977	83.67
363.193	44.53
363.409	110.98
363.624	50.73
363.84	47.24
364.056	65.84
364.271	83.47
364.487	87.15
364.703	54.41
364.918	38.14
365.134	53.64
365.35	55.19
365.565	160.58
365.781	95.1
365.996	131.13
366.212	166.4
366.427	104.59
366.643	66.62
366.858	73.4
367.074	89.48
367.289	149.54
367.505	207.08
367.72	66.81
367.936	65.45
368.151	137.33
368.367	101.49
368.582	115.44
368.798	93.94
369.013	141.98
369.228	101.1
369.444	119.12
369.659	156.13
369.874	99.75
370.09	145.67
370.305	31.74
370.52	96.84
370.736	138.69
370.951	117.38
371.166	137.72
371.381	166.4
371.597	133.27
371.812	77.85
372.027	70.88
372.242	114.67
372.458	141.98
372.673	107.69
372.888	116.6
373.103	107.88
373.318	185.97
373.533	105.75
373.749	111.76
373.964	51.5
374.179	130.17
374.394	84.64
374.609	134.23
374.824	47.44
375.039	153.8
375.254	55.96
375.469	153.03
375.684	134.82
375.899	148.96
376.114	112.92
376.329	90.64
376.544	150.9
376.759	164.46
376.974	96.84
377.189	122.61
377.404	139.85
377.619	161.94
377.834	75.14
378.049	101.1
378.264	103.82
378.478	128.62
378.693	123.97
378.908	163.88
379.123	147.22
379.338	190.81
379.553	122.22
379.767	130.75
379.982	154.19
380.197	160.97
380.412	122.03
380.626	151.48
380.841	229.95
381.056	176.28
381.271	194.49
381.485	143.34
381.7	122.42
381.915	146.44
382.129	123.77
382.344	141.4
382.559	136.17
382.773	151.09
382.988	47.63
383.202	129
383.417	90.25
383.632	195.26
383.846	122.03
384.061	113.31
384.275	88.12
384.49	137.72
384.704	160.58
384.919	151.87
385.133	151.67
385.348	188.29
385.562	132.88
385.777	208.83
385.991	164.27
386.206	132.68
386.42	149.15
386.634	195.65
386.849	187.71
387.063	159.62
387.277	166.4
387.492	166.78
387.706	133.65
387.92	137.33
388.135	184.8
388.349	180.93
388.563	185.19
388.778	205.53
388.992	173.76
389.206	189.26
389.42	251.06
389.635	171.82
389.849	225.88
390.063	226.07
390.277	245.64
390.491	262.11
390.706	234.79
390.92	228.01
391.134	229.75
391.348	245.25
391.562	161.94
391.776	235.95
391.99	224.52
392.205	275.86
392.419	207.28
392.633	209.6
392.847	239.25
393.061	162.72
393.275	234.6
393.489	147.02
393.703	135.4
393.917	161.36
394.131	127.65
394.345	175.89
394.559	214.83
394.773	194.3
394.986	233.43
395.2	205.92
395.414	249.71
395.628	234.98
395.842	263.66
396.056	283.23
396.27	206.31
396.484	257.65
396.697	262.11
396.911	253.78
397.125	211.54
397.339	200.11
397.553	174.53
397.766	223.94
397.98	261.33
398.194	275.09
398.408	269.86
398.621	325.46
398.835	359.18
399.049	350.84
399.262	410.32
399.476	386.69
399.69	397.34
399.903	440.94
400.117	371.57
400.331	397.92
400.544	365.76
400.758	501.97
400.971	378.94
401.185	447.33
401.398	382.62
401.612	430.28
401.826	430.86
402.039	447.52
402.253	417.49
402.466	437.06
402.68	433.96
402.893	439.58
403.106	428.73
403.32	440.74
403.533	451.4
403.747	427.37
403.96	436.29
404.174	440.16
404.387	440.16
404.6	458.37
404.814	496.35
405.027	440.36
405.24	445.59
405.454	407.03
405.667	500.22
405.88	417.11
406.094	465.35
406.307	514.37
406.52	432.99
406.733	403.93
406.947	418.46
407.16	518.05
407.373	471.16
407.586	440.55
407.799	429.89
408.012	503.52
408.226	489.95
408.439	531.8
408.652	435.71
408.865	530.84
409.078	562.61
409.291	538.59
409.504	506.42
409.717	541.1
409.93	530.06
410.143	494.22
410.357	442.68
410.57	411.29
410.783	460.5
410.996	495.77
411.209	481.24
411.421	579.85
411.634	530.25
411.847	526.38
412.06	580.24
412.273	564.16
412.486	561.64
412.699	648.44
412.912	559.7
413.125	558.73
413.338	579.27
413.55	567.84
413.763	556.6
413.976	574.82
414.189	542.46
414.402	568.23
414.615	643.6
414.827	536.07
415.04	612.98
415.253	610.08
415.466	642.82
415.678	659.1
415.891	600
416.104	566.48
416.316	588.96
416.529	606.2
416.742	647.47
416.954	672.08
417.167	617.25
417.38	625
417.592	624.42
417.805	592.25
418.017	562.42
418.23	638.56
418.442	568.62
418.655	587.22
418.868	600.39
419.08	637.78
419.293	655.41
419.505	632.94
419.718	620.93
419.93	648.83
420.142	625.19
420.355	649.41
420.567	661.42
420.78	647.47
420.992	627.71
421.205	738.53
421.417	623.06
421.629	661.61
421.842	644.18
422.054	628.48
422.266	709.86
422.479	710.44
422.691	646.5
422.903	688.35
423.115	596.71
423.328	606.78
423.54	632.55
423.752	669.75
423.964	612.6
424.177	672.66
424.389	646.89
424.601	756.36
424.813	681.57
425.025	706.95
425.238	685.64
425.45	657.74
425.662	673.43
425.874	938.09
426.086	663.75
426.298	671.69
426.51	664.33
426.722	701.33
426.934	661.61
427.146	727.29
427.358	658.51
427.57	702.69
427.782	671.3
427.994	633.71
428.206	637.78
428.418	652.31
428.63	734.27
428.842	742.21
429.054	699.4
429.266	717.61
429.478	676.92
429.69	676.15
429.902	649.99
430.114	663.55
430.325	647.28
430.537	580.63
430.749	584.12
430.961	522.5
431.173	556.99
431.384	572.68
431.596	505.65
431.808	619.38
432.02	685.64
432.231	738.14
432.443	852.65
432.655	793.94
432.867	749.19
433.078	766.04
433.29	847.61
433.502	825.91
433.713	848.77
433.925	817.58
434.136	865.44
434.348	734.66
434.56	704.63
434.771	852.65
434.983	711.21
435.194	759.84
435.406	831.14
435.617	857.88
435.829	907.48
436.04	871.25
436.252	894.11
436.463	911.35
436.675	937.9
436.886	944.68
437.098	939.25
437.309	988.27
437.521	917.75
437.732	930.92
437.943	897.21
438.155	897.4
438.366	825.52
438.578	951.85
438.789	852.84
439	860.4
439.211	823.59
439.423	885.39
439.634	903.02
439.845	915.42
440.057	885.59
440.268	961.15
440.479	921.04
440.69	945.26
440.902	914.26
441.113	920.65
441.324	898.57
441.535	987.5
441.746	1038.45
441.957	951.65
442.168	997.96
442.38	1001.45
442.591	1037.29
442.802	958.44
443.013	1010.94
443.224	1040
443.435	1009.39
443.646	1043.88
443.857	1006.29
444.068	1021.79
444.279	985.75
444.49	1097.35
444.701	1015.78
444.912	1173.69
445.123	1118.86
445.334	1057.05
445.545	1079.91
445.756	1038.45
445.967	1007.65
446.178	1068.68
446.388	1072.16
446.599	1067.13
446.81	1046.2
447.021	1012.68
447.232	1110.53
447.443	1122.15
447.653	1113.82
447.864	1138.81
448.075	1129.32
448.286	1153.54
448.496	1100.84
448.707	1174.85
448.918	1083.01
449.129	1184.93
449.339	1102.2
449.55	1146.56
449.761	1142.88
449.971	1206.82
450.182	1141.91
450.393	1157.99
450.603	1132.81
450.814	1242.27
451.024	1233.75
451.235	1304.47
451.446	1265.14
451.656	1280.83
451.867	1211.66
452.077	1196.16
452.288	1265.52
452.498	1253.12
452.709	1218.83
452.919	1171.56
453.13	1144.24
453.34	1178.53
453.55	1093.09
453.761	1164.39
453.971	1155.67
454.182	1192.29
454.392	1156.44
454.602	1268.24
454.813	1215.15
455.023	1229.88
455.233	1151.21
455.444	1182.21
455.654	1076.23
455.864	1182.99
456.075	1189.96
456.285	1189.77
456.495	1182.41
456.705	1236.46
456.916	1286.64
457.126	1285.67
457.336	1223.48
457.546	1166.91
457.756	1179.89
457.967	1270.56
458.177	1222.32
458.387	1234.91
458.597	1198.1
458.807	1204.3
459.017	1171.56
459.227	1175.04
459.437	1201.59
459.647	1217.67
459.857	1257.39
460.068	1205.85
460.278	1278.12
460.488	1270.95
460.698	1311.64
460.908	1246.15
461.117	1201.01
461.327	1228.71
461.537	1274.82
461.747	1292.07
461.957	1277.34
462.167	1399.99
462.377	1323.65
462.587	1279.28
462.797	1360.07
463.007	1352.71
463.216	1390.3
463.426	1390.88
463.636	1391.27
463.846	1269.98
464.056	1282.57
464.265	1325.97
464.475	1276.57
464.685	1332.56
464.895	1331.79
465.104	1300.4
465.314	1355.04
465.524	1280.83
465.733	1282.77
465.943	1418.2
466.153	1399.21
466.362	1408.12
466.572	1367.24
466.782	1306.6
466.991	1364.53
467.201	1399.21
467.41	1251.57
467.62	1329.46
467.829	1339.73
468.039	1364.53
468.249	1401.73
468.458	1395.92
468.668	1409.09
468.877	1399.4
469.086	1494.53
469.296	1488.72
469.505	1427.88
469.715	1504.8
469.924	1455.78
470.134	1485.82
470.343	1459.85
470.552	1441.83
470.762	1406.38
470.971	1395.53
471.18	1458.69
471.39	1427.11
471.599	1441.64
471.808	1482.33
472.018	1463.92
472.227	1583.85
472.436	1607.88
472.645	1579.59
472.855	1552.46
473.064	1673.94
473.273	1654.57
473.482	1597.61
473.691	1641.2
473.901	1627.64
474.11	1624.93
474.319	1719.86
474.528	1596.83
474.737	1740.4
474.946	1708.04
475.155	1734.01
475.364	1752.61
475.573	1754.93
475.783	1750.09
475.992	1755.12
476.201	1774.69
476.41	1758.42
476.619	1728.58
476.828	1718.51
477.037	1715.41
477.245	1757.45
477.454	1815.38
477.663	1779.92
477.872	1809.37
478.081	1934.53
478.29	1874.47
478.499	1967.47
478.708	1978.32
478.917	1995.95
479.125	1893.85
479.334	1895.59
479.543	1924.85
479.752	1962.24
479.961	1986.46
480.169	2029.66
480.378	1991.11
480.587	2139.13
480.796	2065.7
481.004	2017.85
481.213	2025.98
481.422	2081.2
481.63	2066.86
481.839	2101.16
482.048	2180.01
482.256	2099.22
482.465	2190.09
482.674	2184.08
482.882	2169.94
483.091	2205.2
483.299	2149.01
483.508	2194.16
483.716	2200.55
483.925	2244.92
484.134	2199.19
484.342	2201.9
484.551	2236.78
484.759	2198.03
484.967	2262.74
485.176	2274.56
485.384	2275.34
485.593	2282.7
485.801	2264.1
486.01	2150.56
486.218	2094.18
486.426	1969.99
486.635	1931.24
486.843	1902.76
487.051	1998.86
487.26	2005.06
487.468	2081.39
487.676	2156.37
487.885	2160.44
488.093	2222.83
488.301	2348.96
488.509	2324.35
488.717	2371.82
488.926	2361.55
489.134	2335.4
489.342	2306.72
489.55	2294.32
489.758	2322.8
489.967	2377.44
490.175	2473.15
490.383	2505.89
490.591	2572.54
490.799	2463.08
491.007	2545.81
491.215	2555.11
491.423	2498.53
491.631	2458.43
491.839	2490.59
492.047	2517.13
492.255	2422
492.463	2370.66
492.671	2355.55
492.879	2490.39
493.087	2455.13
493.295	2491.36
493.503	2538.64
493.711	2622.72
493.919	2581.46
494.127	2610.32
494.334	2577.39
494.542	2523.91
494.75	2633.96
494.958	2572.74
495.166	2698.29
495.374	2705.07
495.581	2736.45
495.789	2706.23
495.997	2775.4
496.205	2628.54
496.412	2664.57
496.62	2688.02
496.828	2718.63
497.035	2724.63
497.243	2795.35
497.451	2744.01
497.658	2806.59
497.866	2765.71
498.074	2875.76
498.281	2720.37
498.489	2794.38
498.696	2676.78
498.904	2665.93
499.112	2666.51
499.319	2778.69
499.527	2750.02
499.734	2817.44
499.942	2709.52
500.149	2745.56
500.357	2771.91
500.564	2701.77
500.771	2755.63
500.979	2682.4
501.186	2642.49
501.394	2729.67
501.601	2638.03
501.808	2679.1
502.016	2667.67
502.223	2641.71
502.43	2670.77
502.638	2696.15
502.845	2678.52
503.052	2827.51
503.26	2733.16
503.467	2824.22
503.674	2782.95
503.881	2817.44
504.089	2833.33
504.296	2795.16
504.503	2684.72
504.71	2750.21
504.917	2716.11
505.125	2756.22
505.332	2752.73
505.539	2819.76
505.746	2934.08
505.953	2923.61
506.16	2931.94
506.367	2980.77
506.574	3013.9
506.781	2950.16
506.988	2890.1
507.195	2905.59
507.402	2888.74
507.609	2915.67
507.816	2859.87
508.023	2843.4
508.23	2822.09
508.437	2787.41
508.644	2821.12
508.851	2874.98
509.058	2892.03
509.265	2879.25
509.472	2925.16
509.679	2992.78
509.885	2971.86
510.092	2966.82
510.299	2942.6
510.506	2866.26
510.713	2926.13
510.92	2894.36
511.126	2938.34
511.333	2981.35
511.54	2965.46
511.746	2993.56
511.953	2998.21
512.16	3012.35
512.367	2977.86
512.573	2958.49
512.78	2927.68
512.987	2937.95
513.193	2907.92
513.4	2842.05
513.606	2898.81
513.813	2891.06
514.02	2866.07
514.226	2927.88
514.433	2936.01
514.639	2808.33
514.846	2860.26
515.052	2878.47
515.259	2882.54
515.465	2909.86
515.672	2896.49
515.878	3008.67
516.085	2974.96
516.291	2972.24
516.497	2951.71
516.704	2921.68
516.91	2815.31
517.117	2679.69
517.323	2582.04
517.529	2619.82
517.736	2620.79
517.942	2607.81
518.148	2687.24
518.354	2775.4
518.561	2754.67
518.767	2725.99
518.973	2787.99
519.179	2782.57
519.386	2814.53
519.592	2846.31
519.798	2843.21
520.004	2964.69
520.21	2950.93
520.417	3031.92
520.623	3087.14
520.829	3078.42
521.035	3053.81
521.241	3041.22
521.447	3112.32
521.653	3196.41
521.859	3087.33
522.065	3117.55
522.271	3245.62
522.477	3196.6
522.683	3254.53
522.889	3187.11
523.095	3147.59
523.301	3118.52
523.507	3081.52
523.713	3115.42
523.919	3073.38
524.125	3184.2
524.331	3221.4
524.537	3307.81
524.742	3305.3
524.948	3315.37
525.154	3349.86
525.36	3423.48
525.566	3275.65
525.772	3365.16
525.977	3267.13
526.183	3315.76
526.389	3382.79
526.595	3225.67
526.8	3219.27
527.006	3103.8
527.212	3030.37
527.417	2975.93
527.623	2974.57
527.829	3074.35
528.034	3120.65
528.24	3151.46
528.446	3186.14
528.651	3349.86
528.857	3346.95
529.062	3391.71
529.268	3370.98
529.473	3409.34
529.679	3494.59
529.884	3498.27
530.09	3492.26
530.295	3441.89
530.501	3472.5
530.706	3476.76
530.912	3430.26
531.117	3444.02
531.323	3438.98
531.528	3558.33
531.733	3569.18
531.939	3499.82
532.144	3550.77
532.35	3489.55
532.555	3544.57
532.76	3456.61
532.966	3422.9
533.171	3367.88
533.376	3317.11
533.581	3327.96
533.787	3341.91
533.992	3472.69
534.197	3432.97
534.402	3458.16
534.607	3451.77
534.813	3538.95
535.018	3497.3
535.223	3522.68
535.428	3550.19
535.633	3594.95
535.838	3617.03
536.043	3644.93
536.249	3746.26
536.454	3597.47
536.659	3673.22
536.864	3539.92
537.069	3555.04
537.274	3584.68
537.479	3578.87
537.684	3577.7
537.889	3516.09
538.094	3636.99
538.299	3574.6
538.504	3617.81
538.708	3597.47
538.913	3642.8
539.118	3643.58
539.323	3675.55
539.528	3606.38
539.733	3578.87
539.938	3606.38
540.142	3570.73
540.347	3521.32
540.552	3509.31
540.757	3474.82
540.962	3520.16
541.166	3456.81
541.371	3456.61
541.576	3479.09
541.781	3414.38
541.985	3597.27
542.19	3546.12
542.395	3648.23
542.599	3651.33
542.804	3615.68
543.008	3668.96
543.213	3567.63
543.418	3584.29
543.622	3604.63
543.827	3548.06
544.031	3666.44
544.236	3716.04
544.44	3683.68
544.645	3774.16
544.849	3697.25
545.054	3683.3
545.258	3715.46
545.463	3735.41
545.667	3609.67
545.872	3692.4
546.076	3729.6
546.281	3648.03
546.485	3633.12
546.689	3658.3
546.894	3649.2
547.098	3688.33
547.302	3646.1
547.507	3697.25
547.711	3701.31
547.915	3693.18
548.119	3617.23
548.324	3582.94
548.528	3664.5
548.732	3634.86
548.936	3660.63
549.141	3657.92
549.345	3632.15
549.549	3669.54
549.753	3668.96
549.957	3744.13
550.161	3716.04
550.366	3713.91
550.57	3651.72
550.774	3638.54
550.978	3671.87
551.182	3670.7
551.386	3605.99
551.59	3632.53
551.794	3637.18
551.998	3729.99
552.202	3698.02
552.406	3677.1
552.61	3713.91
552.814	3703.83
553.018	3760.6
553.222	3665.08
553.426	3645.32
553.63	3754.01
553.833	3739.29
554.037	3594.37
554.241	3673.22
554.445	3672.25
554.649	3624.2
554.853	3631.95
555.056	3722.43
555.26	3726.5
555.464	3706.16
555.668	3695.89
555.871	3716.81
556.075	3717.01
556.279	3678.65
556.483	3620.72
556.686	3652.49
556.89	3623.82
557.094	3603.86
557.297	3555.23
557.501	3612.38
557.704	3518.03
557.908	3604.83
558.112	3533.14
558.315	3623.23
558.519	3583.32
558.722	3539.15
558.926	3511.05
559.129	3432.78
559.333	3454.67
559.536	3473.27
559.74	3411.47
559.943	3387.25
560.147	3401.98
560.35	3420.38
560.553	3463.01
560.757	3373.69
560.96	3492.84
561.164	3448.86
561.367	3593.79
561.57	3480.25
561.774	3557.17
561.977	3458.94
562.18	3450.41
562.384	3516.87
562.587	3444.21
562.79	3434.52
562.993	3389.58
563.197	3465.91
563.4	3465.14
563.603	3503.89
563.806	3564.92
564.009	3448.47
564.212	3481.61
564.416	3320.02
564.619	3408.37
564.822	3366.91
565.025	3464.75
565.228	3344.82
565.431	3398.29
565.634	3280.3
565.837	3333.2
566.04	3310.14
566.243	3269.06
566.446	3188.27
566.649	3317.7
566.852	3154.56
567.055	3248.33
567.258	3268.1
567.461	3343.46
567.664	3294.45
567.867	3244.46
568.07	3276.23
568.273	3338.81
568.475	3370.78
568.678	3223.73
568.881	3256.47
569.084	3259.38
569.287	3126.27
569.489	3158.24
569.692	3219.66
569.895	3214.23
570.098	3154.17
570.3	3173.93
570.503	3153.98
570.706	3153.01
570.909	3108.06
571.111	3065.24
571.314	3037.73
571.516	3073.57
571.719	3078.61
571.922	3077.64
572.124	3070.86
572.327	3113.1
572.529	3048.97
572.732	3075.32
572.935	3106.9
573.137	3196.6
573.34	3124.14
573.542	3192.73
573.745	3150.88
573.947	3148.55
574.15	3058.66
574.352	3074.74
574.554	3195.83
574.757	3047.61
574.959	3033.86
575.162	3076.29
575.364	3054.59
575.566	3143.71
575.769	2974.96
575.971	3030.17
576.173	2868.4
576.376	3017
576.578	3023.97
576.78	3046.45
576.982	2933.69
577.185	3024.56
577.387	2977.09
577.589	2963.14
577.791	3004.6
577.993	2982.71
578.196	2977.48
578.398	2963.53
578.6	2958.88
578.802	2861.03
579.004	2858.9
579.206	2897.46
579.408	2950.54
579.61	2857.55
579.812	2990.26
580.014	2884.67
580.216	2904.43
580.418	2929.43
580.62	2863.75
580.822	2862.58
581.024	2933.3
581.226	2931.17
581.428	2876.73
581.63	3055.94
581.832	2889.51
582.034	2993.36
582.236	2978.44
582.438	2972.24
582.64	3015.06
582.841	3064.27
583.043	3024.94
583.245	2996.66
583.447	2966.63
583.649	2976.12
583.85	2923.61
584.052	2956.36
584.254	2909.08
584.456	2995.3
584.657	2898.43
584.859	2955.78
585.061	2934.08
585.262	2965.85
585.464	2883.31
585.666	2996.07
585.867	2851.73
586.069	2936.21
586.27	2873.43
586.472	2887.19
586.674	2852.31
586.875	2838.56
587.077	2876.34
587.278	2893.97
587.48	2834.1
587.681	2933.88
587.883	2881.38
588.084	2808.92
588.285	2824.22
588.487	2800.2
588.688	2812.01
588.89	2696.54
589.091	2649.46
589.292	2609.55
589.494	2576.42
589.695	2504.34
589.896	2472.96
590.098	2469.08
590.299	2529.34
590.5	2545.61
590.702	2544.45
590.903	2571.57
591.104	2685.11
591.305	2646.17
591.507	2708.55
591.708	2676.59
591.909	2644.81
592.11	2718.44
592.311	2699.45
592.512	2656.63
592.714	2610.91
592.915	2651.01
593.116	2635.71
593.317	2628.92
593.518	2638.42
593.719	2665.74
593.92	2736.07
594.121	2701
594.322	2663.41
594.523	2714.37
594.724	2599.86
594.925	2662.64
595.126	2682.01
595.327	2631.06
595.528	2694.6
595.729	2684.72
595.929	2681.24
596.13	2692.67
596.331	2698.67
596.532	2676.59
596.733	2755.05
596.934	2710.3
597.135	2723.09
597.335	2694.22
597.536	2677.17
597.737	2714.56
597.938	2684.72
598.138	2692.47
598.339	2642.49
598.54	2733.55
598.74	2617.11
598.941	2662.83
599.142	2682.98
599.342	2656.24
599.543	2590.17
599.744	2619.62
599.944	2622.72
600.145	2672.9
600.345	2632.02
600.546	2687.63
600.746	2660.89
600.947	2720.18
601.147	2650.04
601.348	2688.4
601.548	2586.11
601.749	2657.02
601.949	2602.19
602.15	2598.12
602.35	2583.2
602.551	2587.85
602.751	2545.42
602.951	2581.07
603.152	2532.44
603.352	2613.42
603.552	2589.79
603.753	2624.08
603.953	2620.01
604.153	2618.07
604.354	2657.99
604.554	2630.86
604.754	2610.13
604.954	2587.46
605.155	2634.54
605.355	2595.21
605.555	2619.43
605.755	2652.37
605.955	2599.28
606.155	2631.44
606.356	2593.66
606.556	2637.25
606.756	2614.59
606.956	2536.89
607.156	2631.06
607.356	2582.04
607.556	2592.69
607.756	2580.87
607.956	2640.16
608.156	2585.14
608.356	2529.92
608.556	2610.13
608.756	2523.53
608.956	2524.49
609.156	2547.55
609.356	2523.72
609.556	2498.73
609.755	2518.1
609.955	2494.08
610.155	2538.83
610.355	2484.39
610.555	2456.68
610.755	2465.4
610.954	2402.05
611.154	2487.88
611.354	2497.18
611.554	2455.13
