Data from gum_old_FLMT105791__126__15-46-15-252.txt Node

Date: Mon Mar 20 15:46:15 GMT 2023
User: antho
Spectrometer: FLMT10579
Trigger mode: 0
Integration Time (sec): 1.000000E-1
Scans to average: 10
Electric dark correction enabled: true
Nonlinearity correction enabled: false
Boxcar width: 0
XAxis mode: Wavelengths
Number of Pixels in Spectrum: 3648
>>>>>Begin Spectral Data<<<<<
345.248	-202.39
345.464	-202.39
345.681	-202.39
345.898	-213.04
346.114	-184.37
346.331	-36.92
346.548	31.08
346.764	-20.65
346.981	4.15
347.197	-10.77
347.414	16.94
347.631	-4.96
347.847	59.56
348.064	0.47
348.28	6.86
348.497	-23.75
348.713	-22.01
348.93	8.22
349.146	21.78
349.363	0.66
349.579	11.12
349.796	2.21
350.012	-16
350.229	33.41
350.445	26.62
350.661	-46.22
350.878	21.78
351.094	1.82
351.311	25.85
351.527	30.69
351.743	-10.19
351.96	26.62
352.176	57.24
352.392	46.97
352.609	37.67
352.825	-1.47
353.041	5.51
353.257	4.54
353.474	27.4
353.69	14.42
353.906	30.31
354.122	-4.18
354.339	68.67
354.555	13.64
354.771	5.31
354.987	75.25
355.203	73.51
355.42	18.49
355.636	-12.51
355.852	7.64
356.068	0.66
356.284	-24.14
356.5	74.67
356.716	32.05
356.932	10.93
357.148	40.38
357.364	22.56
357.58	67.89
357.796	68.09
358.012	69.44
358.228	17.52
358.444	-67.15
358.66	46.19
358.876	24.88
359.092	-7.09
359.308	8.8
359.524	21.01
359.74	2.99
359.956	14.03
360.172	47.16
360.388	57.82
360.604	-10.96
360.819	112.65
361.035	27.01
361.251	40.57
361.467	-4.76
361.683	55.1
361.898	27.98
362.114	57.82
362.33	15
362.546	77.58
362.762	17.71
362.977	18.87
363.193	-5.15
363.409	58.01
363.624	-19.1
363.84	-1.66
364.056	9.38
364.271	41.35
364.487	33.99
364.703	2.41
364.918	-3.79
365.134	40.38
365.35	17.13
365.565	128.54
365.781	43.87
365.996	30.5
366.212	132.02
366.427	34.96
366.643	14.81
366.858	6.67
367.074	29.92
367.289	91.72
367.505	153.53
367.72	-12.9
367.936	32.24
368.151	66.92
368.367	52.2
368.582	16.94
368.798	32.24
369.013	113.81
369.228	49.87
369.444	48.71
369.659	67.12
369.874	58.98
370.09	102.57
370.305	-10.38
370.52	13.84
370.736	87.27
370.951	50.26
371.166	75.45
371.381	111.29
371.597	49.68
371.812	11.51
372.027	20.23
372.242	44.84
372.458	113.23
372.673	26.82
372.888	41.93
373.103	72.74
373.318	141.9
373.533	71.38
373.749	80.1
373.964	-19.88
374.179	80.29
374.394	19.84
374.609	83
374.824	-1.66
375.039	80.1
375.254	-3.02
375.469	97.34
375.684	69.83
375.899	99.09
376.114	33.6
376.329	58.59
376.544	83.97
376.759	103.35
376.974	38.83
377.189	40.38
377.404	40.19
377.619	105.87
377.834	14.03
378.049	18.49
378.264	12.29
378.478	59.95
378.693	56.27
378.908	102.19
379.123	39.22
379.338	96.57
379.553	70.22
379.767	63.63
379.982	118.07
380.197	62.08
380.412	48.13
380.626	103.15
380.841	153.14
381.056	70.02
381.271	133.19
381.485	63.05
381.7	28.56
381.915	52.39
382.129	46.77
382.344	75.84
382.559	47.55
382.773	86.69
382.988	3.57
383.202	46.19
383.417	0.47
383.632	127.37
383.846	33.41
384.061	53.36
384.275	50.07
384.49	36.31
384.704	88.43
384.919	69.64
385.133	63.44
385.348	87.65
385.562	6.09
385.777	109.35
385.991	56.27
386.206	39.99
386.42	42.12
386.634	102.77
386.849	98.31
387.063	76.22
387.277	42.71
387.492	45.61
387.706	37.28
387.92	53.17
388.135	109.35
388.349	83.39
388.563	83.59
388.778	60.53
388.992	105.09
389.206	102.38
389.42	134.15
389.635	94.63
389.849	96.76
390.063	137.45
390.277	105.67
390.491	150.04
390.706	126.99
390.92	130.28
391.134	101.99
391.348	97.54
391.562	22.94
391.776	54.52
391.99	79.71
392.205	112.65
392.419	62.85
392.633	73.51
392.847	129.89
393.061	59.95
393.275	144.62
393.489	81.65
393.703	82.42
393.917	68.28
394.131	61.5
394.345	97.15
394.559	98.12
394.773	90.75
394.986	106.64
395.2	96.95
395.414	124.27
395.628	69.83
395.842	102.96
396.056	96.37
396.27	67.31
396.484	112.84
396.697	99.47
396.911	147.33
397.125	117.1
397.339	111.87
397.553	86.49
397.766	150.43
397.98	114
398.194	158.57
398.408	124.27
398.621	146.75
398.835	154.5
399.049	159.53
399.262	200.22
399.476	172.9
399.69	196.54
399.903	195.96
400.117	138.8
400.331	173.87
400.544	118.65
400.758	275.01
400.971	172.52
401.185	205.45
401.398	142.87
401.612	215.92
401.826	195.18
402.039	201.77
402.253	170.38
402.466	206.81
402.68	153.92
402.893	195.57
403.106	185.69
403.32	173.29
403.533	198.48
403.747	200.61
403.96	173.87
404.174	207.78
404.387	150.43
404.6	171.55
404.814	247.11
405.027	194.6
405.24	205.07
405.454	174.07
405.667	210.1
405.88	151.78
406.094	188.6
406.307	234.71
406.52	187.63
406.733	161.08
406.947	129.5
407.16	254.47
407.373	217.85
407.586	161.86
407.799	150.43
408.012	227.73
408.226	205.84
408.439	247.3
408.652	159.73
408.865	209.52
409.078	232.96
409.291	227.73
409.504	160.89
409.717	223.86
409.93	238.39
410.143	217.47
410.357	141.71
410.57	172.52
410.783	197.7
410.996	195.38
411.209	178.72
411.421	274.23
411.634	239.55
411.847	208.55
412.06	231.8
412.273	224.05
412.486	260.48
412.699	344.95
412.912	233.35
413.125	257.18
413.338	277.53
413.55	254.66
413.763	247.11
413.976	265.13
414.189	211.27
414.402	213.2
414.615	290.7
414.827	196.73
415.04	257.96
415.253	287.8
415.466	287.02
415.678	345.34
415.891	260.28
416.104	227.54
416.316	255.63
416.529	226.57
416.742	271.33
416.954	300.2
417.167	268.42
417.38	257.57
417.592	288.18
417.805	221.34
418.017	183.95
418.23	265.71
418.442	218.82
418.655	220.37
418.868	273.85
419.08	294.58
419.293	318.02
419.505	284.89
419.718	263.96
419.93	318.21
420.142	241.3
420.355	310.46
420.567	308.72
420.78	296.13
420.992	273.65
421.205	334.68
421.417	222.7
421.629	280.05
421.842	244.4
422.054	233.74
422.266	312.6
422.479	289.93
422.691	268.81
422.903	299.03
423.115	250.79
423.328	258.73
423.54	284.7
423.752	277.53
423.964	257.96
424.177	287.6
424.389	284.7
424.601	387.19
424.813	289.93
425.025	338.17
425.238	313.56
425.45	265.9
425.662	289.35
425.874	603.99
426.086	264.74
426.298	306.59
426.51	284.31
426.722	294.58
426.934	291.67
427.146	311.24
427.358	261.25
427.57	326.16
427.782	278.5
427.994	271.91
428.206	275.4
428.418	275.78
428.63	313.37
428.842	323.25
429.054	292.64
429.266	320.54
429.478	253.31
429.69	277.33
429.902	222.7
430.114	298.26
430.325	304.07
430.537	248.08
430.749	254.86
430.961	186.47
431.173	218.82
431.384	276.56
431.596	160.12
431.808	253.11
432.02	280.82
432.231	328.09
432.443	341.85
432.655	334.88
432.867	303.3
433.078	332.74
433.29	391.26
433.502	348.83
433.713	388.74
433.925	347.28
434.136	384.09
434.348	304.65
434.56	271.33
434.771	389.32
434.983	261.45
435.194	314.34
435.406	347.86
435.617	393
435.829	452.29
436.04	373.82
436.252	355.22
436.463	432.14
436.675	406.37
436.886	368.59
437.098	399.01
437.309	460.42
437.521	377.31
437.732	375.18
437.943	365.1
438.155	353.86
438.366	329.06
438.578	429.81
438.789	381.96
439	404.43
439.211	346.31
439.423	389.51
439.634	386.03
439.845	383.12
440.057	399.78
440.268	449.19
440.479	381.57
440.69	400.94
440.902	388.35
441.113	383.51
441.324	369.56
441.535	418.96
441.746	464.69
441.957	390.68
442.168	394.16
442.38	422.84
442.591	464.11
442.802	397.65
443.013	394.74
443.224	445.12
443.435	430.2
443.646	421.29
443.857	427.49
444.068	404.62
444.279	406.95
444.49	489.29
444.701	429.81
444.912	554
445.123	479.22
445.334	462.17
445.545	446.67
445.756	405.59
445.967	386.61
446.178	450.93
446.388	474.37
446.599	472.44
446.81	428.46
447.021	440.47
447.232	477.86
447.443	485.42
447.653	444.54
447.864	482.32
448.075	461.39
448.286	501.11
448.496	503.44
448.707	501.69
448.918	470.69
449.129	547.22
449.339	439.69
449.55	494.52
449.761	464.88
449.971	523.97
450.182	471.47
450.393	500.14
450.603	458.29
450.814	524.17
451.024	521.65
451.235	541.02
451.446	569.12
451.656	541.8
451.867	483.09
452.077	516.42
452.288	565.05
452.498	580.16
452.709	507.89
452.919	479.61
453.13	473.21
453.34	534.24
453.55	451.9
453.761	494.72
453.971	525.72
454.182	532.11
454.392	508.86
454.602	583.26
454.813	524.36
455.023	526.49
455.233	466.62
455.444	505.57
455.654	429.42
455.864	499.56
456.075	476.89
456.285	473.79
456.495	518.55
456.705	493.94
456.916	536.18
457.126	566.99
457.336	540.44
457.546	444.92
457.756	538.12
457.967	564.47
458.177	517.77
458.387	545.67
458.597	466.82
458.807	489.68
459.017	519.71
459.227	520.1
459.437	494.72
459.647	539.47
459.857	569.12
460.068	491.04
460.278	577.83
460.488	529.59
460.698	585.39
460.908	512.74
461.117	512.15
461.327	514.48
461.537	555.17
461.747	538.89
461.957	545.09
462.167	654.17
462.377	615.81
462.587	542.77
462.797	585
463.007	552.26
463.216	583.45
463.426	615.42
463.636	607.87
463.846	537.15
464.056	551.29
464.265	598.95
464.475	541.8
464.685	586.75
464.895	602.44
465.104	585.39
465.314	618.91
465.524	570.67
465.733	509.44
465.943	653.59
466.153	638.67
466.362	645.07
466.572	572.99
466.782	536.76
466.991	571.64
467.201	621.43
467.41	511.19
467.62	578.42
467.829	580.74
468.039	610.77
468.249	567.37
468.458	599.15
468.668	625.11
468.877	631.89
469.086	665.21
469.296	632.47
469.505	605.54
469.715	702.61
469.924	647.39
470.134	673.74
470.343	674.51
470.552	604.57
470.762	647.2
470.971	594.69
471.18	597.4
471.39	626.85
471.599	605.73
471.808	637.7
472.018	607.48
472.227	688.27
472.436	702.03
472.645	656.69
472.855	661.92
473.064	733.61
473.273	689.24
473.482	696.8
473.691	734.77
473.901	707.45
474.11	675.29
474.319	792.51
474.528	647.97
474.737	795.03
474.946	739.42
475.155	728.18
475.364	771.19
475.573	767.9
475.783	758.41
475.992	759.18
476.201	785.53
476.41	728.76
476.619	705.13
476.828	757.83
477.037	705.9
477.245	747.36
477.454	778.36
477.663	768.09
477.872	764.41
478.081	855.86
478.29	781.46
478.499	888.8
478.708	834.74
478.917	868.65
479.125	796.77
479.334	818.28
479.543	829.9
479.752	838.42
479.961	856.44
480.169	883.57
480.378	839.97
480.587	986.45
480.796	914.57
481.004	837.84
481.213	894.81
481.422	888.99
481.63	853.15
481.839	916.7
482.048	960.87
482.256	906.04
482.465	936.07
482.674	934.91
482.882	925.8
483.091	998.46
483.299	945.95
483.508	956.22
483.716	923.09
483.925	948.28
484.134	910.89
484.342	931.62
484.551	987.03
484.759	959.52
484.967	956.61
485.176	1022.68
485.384	1012.8
485.593	1026.55
485.801	971.53
486.01	962.04
486.218	913.41
486.426	826.22
486.635	844.82
486.843	826.61
487.051	842.69
487.26	838.42
487.468	902.75
487.676	962.04
487.885	906.43
488.093	952.93
488.301	978.5
488.509	991.1
488.717	1044.96
488.926	981.41
489.134	978.31
489.342	994.78
489.55	942.85
489.758	978.7
489.967	971.53
490.175	1111.8
490.383	1050.38
490.591	1116.26
490.799	1004.27
491.007	1069.37
491.215	1054.84
491.423	1043.41
491.631	1057.55
491.839	1062.59
492.047	1084.68
492.255	1005.05
492.463	980.83
492.671	1012.22
492.879	1093.59
493.087	1019.19
493.295	1042.44
493.503	1100.56
493.711	1128.66
493.919	1145.9
494.127	1145.13
494.334	1136.41
494.542	1062.01
494.75	1094.95
494.958	1120.13
495.166	1177.68
495.374	1132.34
495.581	1156.17
495.789	1137.38
495.997	1224.76
496.205	1093.2
496.412	1088.36
496.62	1137.76
496.828	1140.09
497.035	1101.92
497.243	1181.75
497.451	1138.54
497.658	1182.91
497.866	1123.62
498.074	1220.11
498.281	1109.09
498.489	1266.61
498.696	1149.97
498.904	1134.86
499.112	1102.5
499.319	1223.4
499.527	1177.48
499.734	1214.1
499.942	1126.53
500.149	1165.47
500.357	1179.03
500.564	1132.73
500.771	1185.43
500.979	1099.02
501.186	1128.08
501.394	1174
501.601	1158.88
501.808	1180.78
502.016	1147.26
502.223	1134.08
502.43	1183.68
502.638	1124.59
502.845	1102.11
503.052	1250.33
503.26	1193.37
503.467	1276.87
503.674	1197.83
503.881	1186.59
504.089	1300.32
504.296	1203.06
504.503	1161.98
504.71	1178.65
504.917	1142.8
505.125	1188.72
505.332	1209.45
505.539	1227.66
505.746	1290.24
505.953	1254.4
506.16	1262.15
506.367	1327.06
506.574	1353.41
506.781	1284.43
506.988	1235.03
507.195	1271.84
507.402	1232.7
507.609	1302.64
507.816	1240.06
508.023	1244.13
508.23	1246.26
508.437	1167.21
508.644	1254.79
508.851	1291.6
509.058	1292.76
509.265	1251.88
509.472	1316.4
509.679	1384.79
509.885	1303.22
510.092	1286.37
510.299	1270.48
510.506	1290.63
510.713	1301.48
510.92	1291.79
511.126	1305.55
511.333	1305.16
511.54	1327.64
511.746	1379.95
511.953	1362.9
512.16	1413.27
512.367	1331.71
512.573	1317.17
512.78	1345.07
512.987	1295.67
513.193	1304.39
513.4	1237.54
513.606	1313.49
513.813	1354.76
514.02	1322.02
514.226	1389.64
514.433	1383.44
514.639	1314.46
514.846	1319.31
515.052	1307.49
515.259	1315.43
515.465	1315.82
515.672	1305.16
515.878	1430.32
516.085	1347.4
516.291	1409.98
516.497	1346.04
516.704	1320.86
516.91	1294.7
517.117	1261.96
517.323	1191.43
517.529	1223.21
517.736	1231.34
517.942	1250.91
518.148	1269.32
518.354	1320.47
518.561	1310.78
518.767	1315.24
518.973	1353.02
519.179	1383.05
519.386	1335
519.592	1316.98
519.798	1317.95
520.004	1459.58
520.21	1401.45
520.417	1438.85
520.623	1473.72
520.829	1467.91
521.035	1498.91
521.241	1483.02
521.447	1506.27
521.653	1619.61
521.859	1472.75
522.065	1517.12
522.271	1635.5
522.477	1551.22
522.683	1607.99
522.889	1552.19
523.095	1560.91
523.301	1538.82
523.507	1482.44
523.713	1529.91
523.919	1485.15
524.125	1596.75
524.331	1611.86
524.537	1684.13
524.742	1666.5
524.948	1668.44
525.154	1670.18
525.36	1781.39
525.566	1683.55
525.772	1721.14
525.977	1618.84
526.183	1707.38
526.389	1725.21
526.595	1628.53
526.8	1657.2
527.006	1576.8
527.212	1527.58
527.417	1521.97
527.623	1503.75
527.829	1574.86
528.034	1639.76
528.24	1639.76
528.446	1617.87
528.651	1742.84
528.857	1720.94
529.062	1796.12
529.268	1752.14
529.473	1799.8
529.679	1782.75
529.884	1848.04
530.09	1858.31
530.295	1854.24
530.501	1853.47
530.706	1833.32
530.912	1777.91
531.117	1810.26
531.323	1817.04
531.528	1903.26
531.733	1865.48
531.939	1814.91
532.144	1911.59
532.35	1869.16
532.555	1896.67
532.76	1862.57
532.966	1868.77
533.171	1875.75
533.376	1815.1
533.581	1734.7
533.787	1821.5
533.992	1834.48
534.197	1880.98
534.402	1885.24
534.607	1881.17
534.813	1971.65
535.018	1890.08
535.223	1854.63
535.428	1896.28
535.633	1938.72
535.838	1926.12
536.043	1924.38
536.249	2044.11
536.454	1941.43
536.659	1971.27
536.864	1910.04
537.069	1927.67
537.274	1935.62
537.479	1927.28
537.684	1919.15
537.889	1877.49
538.094	1994.32
538.299	1930.38
538.504	1927.67
538.708	1956.54
538.913	1982.11
539.118	1980.56
539.323	1974.56
539.528	1925.54
539.733	1947.24
539.938	2023.19
540.142	2017.38
540.347	1961.58
540.552	1917.79
540.757	1932.71
540.962	1932.13
541.166	1852.89
541.371	1883.89
541.576	1937.17
541.781	1812.59
541.985	1970.49
542.19	1957.12
542.395	2044.31
542.599	2022.61
542.804	2009.82
543.008	2058.45
543.213	1952.28
543.418	1948.79
543.622	2008.08
543.827	1950.73
544.031	2063.29
544.236	2037.33
544.44	1992.96
544.645	2088.87
544.849	1993.55
545.054	2101.27
545.258	2124.71
545.463	2095.84
545.667	1995.68
545.872	2078.41
546.076	2060.2
546.281	2053.61
546.485	2027.06
546.689	2061.55
546.894	2064.84
547.098	2056.9
547.302	1990.83
547.507	2050.7
547.711	2062.71
547.915	2125.88
548.119	1988.12
548.324	2015.63
548.528	2073.56
548.732	2014.66
548.936	2080.34
549.141	2074.14
549.345	2038.5
549.549	2049.93
549.753	2068.91
549.957	2150.48
550.161	2157.65
550.366	2068.14
550.57	2042.76
550.774	2094.49
550.978	2063.88
551.182	2061.94
551.386	2039.66
551.59	2028.42
551.794	2020.86
551.998	2062.33
552.202	2058.26
552.406	2014.28
552.61	2090.61
552.814	2095.26
553.018	2169.47
553.222	2079.38
553.426	2040.05
553.63	2167.72
553.833	2069.3
554.037	1977.85
554.241	2058.84
554.445	2077.63
554.649	2054.77
554.853	2033.85
555.056	2100.88
555.26	2116.38
555.464	2091.58
555.668	2102.63
555.871	2125.1
556.075	2115.8
556.279	2025.32
556.483	2008.08
556.686	2025.71
556.89	2039.27
557.094	2066.78
557.297	1950.73
557.501	2065.81
557.704	1964.48
557.908	2046.05
558.112	2014.66
558.315	2112.89
558.519	2000.33
558.722	2005.56
558.926	1929.03
559.129	1923.22
559.333	1882.14
559.536	1896.67
559.74	1866.06
559.943	1917.21
560.147	1896.48
560.35	1911.2
560.553	1898.03
560.757	1859.67
560.96	1995.87
561.164	1896.48
561.367	2012.92
561.57	1949.18
561.774	1977.08
561.977	1925.93
562.18	1934.26
562.384	2019.51
562.587	1892.02
562.79	1892.02
562.993	1910.62
563.197	1983.66
563.4	1985.21
563.603	1993.16
563.806	2018.54
564.009	1892.22
564.212	1913.53
564.416	1850.37
564.619	1890.67
564.822	1796.51
565.025	1927.87
565.228	1891.25
565.431	1889.89
565.634	1789.34
565.837	1825.57
566.04	1801.15
566.243	1800.57
566.446	1706.61
566.649	1826.34
566.852	1722.88
567.055	1774.03
567.258	1794.37
567.461	1898.61
567.664	1860.05
567.867	1736.83
568.07	1830.41
568.273	1794.76
568.475	1842.04
568.678	1769.38
568.881	1786.24
569.084	1757.17
569.287	1645.19
569.489	1702.93
569.692	1753.11
569.895	1800.57
570.098	1687.23
570.3	1657.78
570.503	1626.59
570.706	1653.71
570.909	1646.35
571.111	1615.35
571.314	1577.96
571.516	1601.01
571.719	1636.08
571.922	1600.05
572.124	1557.61
572.327	1607.02
572.529	1575.83
572.732	1605.08
572.935	1626.78
573.137	1731.02
573.34	1596.75
573.542	1685.88
573.745	1711.26
573.947	1600.63
574.15	1661.27
574.352	1589.78
574.554	1702.73
574.757	1600.63
574.959	1580.48
575.162	1608.18
575.364	1568.66
575.566	1657.59
575.769	1520.22
575.971	1528.55
576.173	1464.03
576.376	1507.63
576.578	1557.23
576.78	1609.15
576.982	1460.93
577.185	1528.75
577.387	1505.3
577.589	1506.66
577.791	1534.17
577.993	1575.63
578.196	1500.65
578.398	1504.53
578.6	1539.98
578.802	1476.82
579.004	1451.25
579.206	1422.19
579.408	1466.17
579.61	1464.23
579.812	1508.21
580.014	1481.28
580.216	1458.03
580.418	1471.4
580.62	1445.05
580.822	1414.44
581.024	1436.33
581.226	1521
581.428	1429.16
581.63	1555.48
581.832	1422.77
582.034	1477.02
582.236	1457.25
582.438	1481.86
582.64	1539.6
582.841	1551.61
583.043	1565.36
583.245	1500.85
583.447	1484.18
583.649	1483.99
583.85	1493.87
584.052	1483.8
584.254	1393.32
584.456	1482.83
584.657	1417.73
584.859	1461.52
585.061	1424.9
585.262	1421.02
585.464	1417.54
585.666	1450.67
585.867	1390.99
586.069	1487.28
586.27	1434.97
586.472	1431.49
586.674	1375.69
586.875	1409.01
587.077	1388.47
587.278	1420.64
587.48	1392.74
587.681	1516.54
587.883	1430.52
588.084	1342.94
588.285	1386.73
588.487	1362.7
588.688	1397.19
588.89	1302.45
589.091	1283.46
589.292	1310.01
589.494	1294.7
589.695	1235.41
589.896	1190.08
590.098	1162.95
590.299	1233.09
590.5	1205.38
590.702	1235.8
590.903	1270.29
591.104	1319.31
591.305	1307.29
591.507	1333.64
591.708	1323.96
591.909	1280.56
592.11	1360.96
592.311	1310.59
592.512	1297.8
592.714	1232.51
592.915	1290.63
593.116	1268.54
593.317	1278.04
593.518	1288.89
593.719	1296.06
593.92	1347.59
594.121	1332.87
594.322	1289.27
594.523	1288.31
594.724	1239.48
594.925	1281.91
595.126	1328.22
595.327	1292.18
595.528	1263.12
595.729	1268.74
595.929	1255.95
596.13	1269.71
596.331	1274.74
596.532	1278.81
596.733	1341.2
596.934	1321.82
597.135	1331.12
597.335	1302.06
597.536	1290.44
597.737	1271.06
597.938	1259.44
598.138	1294.12
598.339	1278.04
598.54	1286.17
598.74	1266.41
598.941	1298.77
599.142	1332.48
599.342	1303.81
599.543	1227.86
599.744	1235.22
599.944	1234.64
600.145	1233.86
600.345	1256.73
600.546	1294.89
600.746	1306.71
600.947	1334.03
601.147	1286.17
601.348	1292.76
601.548	1220.88
601.749	1252.27
601.949	1211.97
602.15	1211.97
602.35	1220.49
602.551	1274.94
602.751	1197.63
602.951	1225.53
603.152	1167.99
603.352	1277.65
603.552	1226.11
603.753	1287.72
603.953	1264.67
604.153	1271.64
604.354	1248.2
604.554	1236.58
604.754	1233.86
604.954	1197.44
605.155	1239.48
605.355	1211.78
605.555	1302.06
605.755	1309.23
605.955	1251.88
606.155	1256.73
606.356	1218.75
606.556	1303.81
606.756	1258.08
606.956	1181.55
607.156	1300.32
607.356	1155.4
607.556	1265.06
607.756	1232.31
607.956	1245.1
608.156	1236.38
608.356	1201.31
608.556	1274.55
608.756	1231.34
608.956	1181.94
609.156	1214.49
609.356	1149.97
609.556	1195.5
609.755	1206.16
609.955	1178.26
610.155	1184.46
610.355	1192.4
610.555	1186.01
610.755	1187.75
610.954	1132.92
611.154	1180.39
611.354	1212.36
611.554	1169.35
611.753	1153.07
611.953	1101.34
612.153	1178.45
612.352	1191.63
612.552	1123.62
612.752	1095.33
612.951	1168.18
613.151	1163.92
613.351	1108.9
613.55	1153.85
613.75	1186.78
613.949	1111.61
614.149	1162.95
614.348	1146.1
614.548	1098.24
614.747	1061.04
614.947	1120.91
615.146	1059.49
615.346	1150.55
615.545	1141.25
