Data from gum_old_FLMT105791__105__15-45-54-253.txt Node

Date: Mon Mar 20 15:45:54 GMT 2023
User: antho
Spectrometer: FLMT10579
Trigger mode: 0
Integration Time (sec): 1.000000E-1
Scans to average: 10
Electric dark correction enabled: true
Nonlinearity correction enabled: false
Boxcar width: 0
XAxis mode: Wavelengths
Number of Pixels in Spectrum: 3648
>>>>>Begin Spectral Data<<<<<
345.248	-181.91
345.464	-181.91
345.681	-181.91
345.898	-166.41
346.114	-189.86
346.331	-40.09
346.548	35.08
346.764	-0.37
346.981	-16.84
347.197	-10.83
347.414	16.87
347.631	-8.51
347.847	67.44
348.064	1.76
348.28	39.54
348.497	-63.92
348.713	-20.13
348.93	20.36
349.146	27.53
349.363	18.23
349.579	30.63
349.796	31.98
350.012	-20.71
350.229	33.73
350.445	-15.48
350.661	-30.98
350.878	27.53
351.094	17.07
351.311	20.55
351.527	27.14
351.743	-5.8
351.96	52.52
352.176	25.4
352.392	27.33
352.609	40.32
352.825	-13.93
353.041	33.34
353.257	-7.35
353.474	19.2
353.69	56.78
353.906	28.69
354.122	15.9
354.339	72.28
354.555	32.76
354.771	16.48
354.987	83.33
355.203	83.52
355.42	-8.31
355.636	-1.53
355.852	-5.8
356.068	22.1
356.284	-24.4
356.5	77.9
356.716	64.92
356.932	-5.22
357.148	30.82
357.364	15.71
357.58	76.55
357.796	56.78
358.012	55.82
358.228	59.5
358.444	-69.54
358.66	65.12
358.876	48.65
359.092	8.93
359.308	33.15
359.524	28.5
359.74	-9.48
359.956	11.25
360.172	25.98
360.388	72.48
360.604	15.32
360.819	99.8
361.035	33.73
361.251	46.52
361.467	-11.03
361.683	41.67
361.898	39.73
362.114	70.93
362.33	24.82
362.546	51.94
362.762	36.63
362.977	32.18
363.193	5.44
363.409	50
363.624	-15.1
363.84	27.72
364.056	7.96
364.271	42.64
364.487	17.26
364.703	27.33
364.918	-22.26
365.134	6.8
365.35	40.12
365.565	133.12
365.781	30.24
365.996	48.65
366.212	129.05
366.427	62.21
366.643	28.5
366.858	23.46
367.074	11.06
367.289	79.26
367.505	163.73
367.72	6.6
367.936	-3.86
368.151	73.06
368.367	60.85
368.582	39.35
368.798	29.27
369.013	93.01
369.228	41.48
369.444	40.7
369.659	90.5
369.874	65.89
370.09	95.73
370.305	-24.01
370.52	32.37
370.736	99.21
370.951	38.96
371.166	90.5
371.381	102.7
371.597	78.1
371.812	19.78
372.027	36.05
372.242	43.8
372.458	119.56
372.673	21.91
372.888	22.49
373.103	66.28
373.318	134.28
373.533	53.1
373.749	84.1
373.964	-17.61
374.179	102.51
374.394	-16.84
374.609	105.41
374.824	-1.92
375.039	71.12
375.254	0.98
375.469	104.25
375.684	95.53
375.899	81.78
376.114	48.45
376.329	52.72
376.544	105.22
376.759	79.07
376.974	34.31
377.189	32.76
377.404	56.4
377.619	113.94
377.834	-7.15
378.049	33.34
378.264	36.44
378.478	83.71
378.693	27.92
378.908	95.53
379.123	54.07
379.338	107.16
379.553	88.17
379.767	71.32
379.982	45.93
380.197	100.38
380.412	65.89
380.626	68.8
380.841	132.93
381.056	83.13
381.271	126.53
381.485	59.69
381.7	18.42
381.915	71.7
382.129	44
382.344	52.13
382.559	59.3
382.773	116.46
382.988	6.99
383.202	76.16
383.417	32.57
383.632	145.91
383.846	43.61
384.061	60.27
384.275	24.82
384.49	87.01
384.704	98.83
384.919	54.85
385.133	67.05
385.348	83.71
385.562	32.95
385.777	121.88
385.991	50
386.206	36.44
386.42	61.63
386.634	114.52
386.849	88.56
387.063	79.45
387.277	45.74
387.492	60.08
387.706	21.52
387.92	33.53
388.135	111.81
388.349	85.07
388.563	86.04
388.778	90.5
388.992	122.27
389.206	98.05
389.42	128.86
389.635	62.98
389.849	111.42
390.063	139.13
390.277	85.07
390.491	172.64
390.706	106.19
390.92	132.93
391.134	90.11
391.348	110.65
391.562	42.45
391.776	110.45
391.99	77.71
392.205	140.87
392.419	62.21
392.633	81.97
392.847	158.31
393.061	90.69
393.275	116.07
393.489	71.32
393.703	71.32
393.917	94.18
394.131	20.55
394.345	106.58
394.559	125.76
394.773	85.85
394.986	91.46
395.2	99.99
395.414	134.09
395.628	80.42
395.842	122.46
396.056	121.88
396.27	67.63
396.484	105.61
396.697	118.98
396.911	143
397.125	123.05
397.339	135.25
397.553	117.81
397.766	117.23
397.98	149.59
398.194	149.01
398.408	95.73
398.621	160.63
398.835	158.11
399.049	145.33
399.262	209.46
399.476	218.37
399.69	189.11
399.903	231.16
400.117	135.83
400.331	162.96
400.544	145.71
400.758	271.07
400.971	163.93
401.185	191.24
401.398	149.01
401.612	202.09
401.826	181.75
402.039	192.99
402.253	165.86
402.466	196.09
402.68	177.49
402.893	188.14
403.106	192.41
403.32	166.06
403.533	207.52
403.747	190.66
403.96	178.26
404.174	193.96
404.387	150.75
404.6	192.6
404.814	222.05
405.027	192.02
405.24	191.63
405.454	169.35
405.667	231.93
405.88	140.1
406.094	198.41
406.307	214.88
406.52	230.38
406.733	164.12
406.947	121.88
407.16	229.41
407.373	246.08
407.586	145.91
407.799	178.46
408.012	227.28
408.226	215.46
408.439	250.14
408.652	134.28
408.865	229.03
409.078	256.92
409.291	236.39
409.504	188.14
409.717	225.73
409.93	236.58
410.143	220.89
410.357	156.18
410.57	163.15
410.783	185.63
410.996	218.18
411.209	177.88
411.421	265.64
411.634	207.33
411.847	185.43
412.06	241.23
412.273	211.2
412.486	238.13
412.699	326.48
412.912	218.37
413.125	274.75
413.338	256.92
413.55	250.34
413.763	233.09
413.976	269.13
414.189	211.01
414.402	231.16
414.615	313.31
414.827	202.09
415.04	265.64
415.253	267.97
415.466	271.65
415.678	318.54
415.891	234.45
416.104	236.97
416.316	222.05
416.529	235.42
416.742	276.69
416.954	287.54
417.167	281.72
417.38	252.66
417.592	294.71
417.805	214.49
418.017	213.33
418.23	255.18
418.442	233.48
418.655	251.31
418.868	248.21
419.08	283.66
419.293	285.6
419.505	244.14
419.718	268.94
419.93	299.16
420.142	235.81
420.355	318.34
420.567	327.64
420.78	268.74
420.992	222.83
421.205	319.12
421.417	240.46
421.629	266.22
421.842	237.36
422.054	227.48
422.266	323.77
422.479	320.28
422.691	249.37
422.903	293.35
423.115	268.16
423.328	242.98
423.54	276.69
423.752	252.47
423.964	228.83
424.177	270.29
424.389	276.69
424.601	387.51
424.813	299.36
425.025	316.02
425.238	319.51
425.45	285.99
425.662	235.81
425.874	613.42
426.086	265.45
426.298	280.17
426.51	298
426.722	290.83
426.934	278.43
427.146	305.75
427.358	272.23
427.57	296.64
427.782	286.57
427.994	297.81
428.206	254.21
428.418	245.88
428.63	338.49
428.842	341.98
429.054	303.62
429.266	327.26
429.478	266.61
429.69	243.17
429.902	230.38
430.114	301.29
430.325	267.39
430.537	242.39
430.749	240.65
430.961	202.48
431.173	247.24
431.384	258.67
431.596	147.07
431.808	232.51
432.02	291.02
432.231	331.32
432.443	336.94
432.655	303.04
432.867	258.67
433.078	315.82
433.29	366.97
433.502	335.39
433.713	371.62
433.925	343.34
434.136	387.32
434.348	258.47
434.56	252.28
434.771	407.85
434.983	241.62
435.194	300.71
435.406	318.73
435.617	382.28
435.829	417.54
436.04	381.5
436.252	372.79
436.463	405.34
436.675	408.24
436.886	376.47
437.098	394.68
437.309	446.41
437.521	367.55
437.732	360.58
437.943	358.45
438.155	371.62
438.366	292.19
438.578	403.79
438.789	358.06
439	378.6
439.211	363.1
439.423	368.14
439.634	375.3
439.845	383.25
440.057	384.41
440.268	378.21
440.479	374.92
440.69	395.26
440.902	343.14
441.113	368.33
441.324	367.75
441.535	390.03
441.746	441.18
441.957	376.47
442.168	384.8
442.38	411.54
442.591	458.03
442.802	381.89
443.013	394.68
443.224	425.87
443.435	399.52
443.646	397.97
443.857	413.86
444.068	396.04
444.279	388.09
444.49	472.76
444.701	433.62
444.912	519.45
445.123	456.29
445.334	409.99
445.545	450.48
445.756	429.75
445.967	397.2
446.178	441.76
446.388	443.31
446.599	450.48
446.81	423.74
447.021	414.05
447.232	476.05
447.443	490
447.653	411.34
447.864	475.86
448.075	457.07
448.286	481.87
448.496	460.75
448.707	480.12
448.918	432.27
449.129	542.12
449.339	427.04
449.55	462.3
449.761	444.67
449.971	502.21
450.182	437.5
450.393	460.17
450.603	451.83
450.814	502.79
451.024	502.98
451.235	536.11
451.446	555.49
451.656	537.66
451.867	483.61
452.077	498.33
452.288	509.18
452.498	563.24
452.709	480.51
452.919	520.42
453.13	462.68
453.34	512.48
453.55	447.57
453.761	516.55
453.971	512.28
454.182	489.62
454.392	484.19
454.602	551.03
454.813	502.21
455.023	517.71
455.233	454.93
455.444	510.15
455.654	431.88
455.864	487.29
456.075	466.17
456.285	480.7
456.495	474.12
456.705	505.5
456.916	560.14
457.126	557.43
457.336	488.65
457.546	428.97
457.756	485.74
457.967	579.51
458.177	505.7
458.387	511.12
458.597	474.5
458.807	502.02
459.017	487.29
459.227	490.58
459.437	494.27
459.647	551.23
459.857	513.06
460.068	489.23
460.278	564.79
460.488	548.51
460.698	590.36
460.908	517.32
461.117	473.92
461.327	495.43
461.537	535.92
461.747	532.43
461.957	549.68
462.167	653.91
462.377	553.36
462.587	543.86
462.797	582.03
463.007	536.11
463.216	578.93
463.426	605.48
463.636	575.64
463.846	498.92
464.056	554.52
464.265	592.88
464.475	517.32
464.685	555.68
464.895	574.67
465.104	544.64
465.314	580.48
465.524	541.54
465.733	516.74
465.943	636.67
466.153	622.72
466.362	612.64
466.572	592.11
466.782	544.64
466.991	580.1
467.201	636.67
467.41	499.69
467.62	584.94
467.829	562.46
468.039	596.56
468.249	590.17
468.458	568.66
468.668	621.75
468.877	600.83
469.086	651.2
469.296	636.28
469.505	572.35
469.715	678.71
469.924	613.42
470.134	657.01
470.343	653.33
470.552	601.02
470.762	582.23
470.971	567.11
471.18	609.93
471.39	608.58
471.599	559.56
471.808	651.39
472.018	595.98
472.227	658.56
472.436	666.31
472.645	643.26
472.855	604.31
473.064	700.99
473.273	658.76
473.482	681.81
473.691	690.92
473.901	720.17
474.11	638.03
474.319	734.71
474.528	688.21
474.737	750.01
474.946	711.65
475.155	716.88
475.364	742.84
475.573	695.37
475.783	728.12
475.992	757.57
476.201	756.21
476.41	706.03
476.619	682.98
476.828	703.12
477.037	700.8
477.245	716.11
477.454	751.76
477.663	741.49
477.872	717.66
478.081	828.87
478.29	714.17
478.499	851.54
478.708	774.23
478.917	833.9
479.125	777.52
479.334	787.79
479.543	766.67
479.752	809.49
479.961	791.47
480.169	849.02
480.378	767.26
480.587	945.12
480.796	826.93
481.004	858.32
481.213	829.45
481.422	830.8
481.63	875.17
481.839	870.13
482.048	934.07
482.256	855.99
482.465	863.35
482.674	903.65
482.882	904.62
483.091	964.68
483.299	881.57
483.508	930
483.716	919.93
483.925	899.39
484.134	871.68
484.342	880.21
484.551	918.57
484.759	878.27
484.967	972.63
485.176	955.38
485.384	940.47
485.593	968.36
485.801	960.03
486.01	902.88
486.218	874.4
486.426	788.95
486.635	836.42
486.843	774.04
487.051	860.06
487.26	799.22
487.468	899.2
487.676	912.37
487.885	888.54
488.093	898.03
488.301	946.86
488.509	943.18
488.717	1008.47
488.926	960.03
489.134	942.98
489.342	969.53
489.55	922.45
489.758	942.02
489.967	952.28
490.175	1076.09
490.383	1006.34
490.591	1064.85
490.799	983.67
491.007	1022.81
491.215	1018.93
491.423	1024.94
491.631	1042.57
491.839	1047.03
492.047	1086.55
492.255	1010.6
492.463	958.48
492.671	984.64
492.879	1048.19
493.087	1033.08
493.295	1015.25
493.503	1032.3
493.711	1089.07
493.919	1096.43
494.127	1092.75
494.334	1098.37
494.542	1003.43
494.75	1084.03
494.958	1087.71
495.166	1125.49
495.374	1108.83
495.581	1142.54
495.789	1087.13
495.997	1152.62
496.205	1084.23
496.412	1081.71
496.62	1082.68
496.828	1118.13
497.035	1071.63
497.243	1134.99
497.451	1114.84
497.658	1108.83
497.866	1110.58
498.074	1195.82
498.281	1073.18
498.489	1227.4
498.696	1112.9
498.904	1086.94
499.112	1112.13
499.319	1194.86
499.527	1106.12
499.734	1148.55
499.942	1079.96
500.149	1077.06
500.357	1165.6
500.564	1099.34
500.771	1129.37
500.979	1094.3
501.186	1058.84
501.394	1080.54
501.601	1107.48
501.808	1114.84
502.016	1109.99
502.223	1083.06
502.43	1133.05
502.638	1082.68
502.845	1096.63
503.052	1184.39
503.26	1105.93
503.467	1221.59
503.674	1150.29
503.881	1165.79
504.089	1236.7
504.296	1181.1
504.503	1113.48
504.71	1118.71
504.917	1106.7
505.125	1127.24
505.332	1122.2
505.539	1186.52
505.746	1239.42
505.953	1195.44
506.16	1223.34
506.367	1264.22
506.574	1264.8
506.781	1289.99
506.988	1181.87
507.195	1217.72
507.402	1215.2
507.609	1258.4
507.816	1221.4
508.023	1189.82
508.23	1189.24
508.437	1161.92
508.644	1217.52
508.851	1244.84
509.058	1245.04
509.265	1212.29
509.472	1257.82
509.679	1323.89
509.885	1214.81
510.092	1278.75
510.299	1225.08
510.506	1228.37
510.713	1241.16
510.92	1239.22
511.126	1254.72
511.333	1285.34
511.54	1261.89
511.746	1305.68
511.953	1303.16
512.16	1291.34
512.367	1254.53
512.573	1261.89
512.78	1264.22
512.987	1262.28
513.193	1262.28
513.4	1199.12
513.606	1244.07
513.813	1282.04
514.02	1271.58
514.226	1343.27
514.433	1339.39
514.639	1216.75
514.846	1311.68
515.052	1219.46
515.259	1266.35
515.465	1281.65
515.672	1290.37
515.878	1393.45
516.085	1278.94
516.291	1368.07
516.497	1286.11
516.704	1278.36
516.91	1249.3
517.117	1202.61
517.323	1148.55
517.529	1176.06
517.736	1165.6
517.942	1202.41
518.148	1169.86
518.354	1240.77
518.561	1241.94
518.767	1256.66
518.973	1281.46
519.179	1280.49
519.386	1261.12
519.592	1257.24
519.798	1253.56
520.004	1392.09
520.21	1312.46
520.417	1365.93
520.623	1397.32
520.829	1442.46
521.035	1374.46
521.241	1414.95
521.447	1414.95
521.653	1519.58
521.859	1410.11
522.065	1443.05
522.271	1548.64
522.477	1498.46
522.683	1534.11
522.889	1493.42
523.095	1499.23
523.301	1482.18
523.507	1440.33
523.713	1469.59
523.919	1435.49
524.125	1526.55
524.331	1507.95
524.537	1579.44
524.742	1582.74
524.948	1591.84
525.154	1587.77
525.36	1686.2
525.566	1582.54
525.772	1614.12
525.977	1539.92
526.183	1613.74
526.389	1624.59
526.595	1561.04
526.8	1551.93
527.006	1484.89
527.212	1475.98
527.417	1427.35
527.623	1439.17
527.829	1562.78
528.034	1575.18
528.24	1550.58
528.446	1546.31
528.651	1669.92
528.857	1608.51
529.062	1654.04
529.268	1640.67
529.473	1649.77
529.679	1687.36
529.884	1770.87
530.09	1709.64
530.295	1735.6
530.501	1736.96
530.706	1742.38
530.912	1642.61
531.117	1716.04
531.323	1730.76
531.528	1757.11
531.733	1768.73
531.939	1773
532.144	1778.23
532.35	1753.43
532.555	1800.9
532.76	1776.48
532.966	1756.33
533.171	1757.11
533.376	1707.12
533.581	1669.73
533.787	1719.52
533.992	1755.56
534.197	1761.57
534.402	1773.19
534.607	1762.53
534.813	1881.11
535.018	1782.3
535.223	1769.51
535.428	1784.82
535.633	1870.45
535.838	1851.08
536.043	1810.58
536.249	1942.14
536.454	1835.58
536.659	1884.98
536.864	1830.73
537.069	1817.75
537.274	1848.95
537.479	1842.75
537.684	1824.34
537.889	1787.53
538.094	1912.88
538.299	1830.54
538.504	1809.62
538.708	1874.33
538.913	1894.28
539.118	1878.98
539.323	1840.42
539.528	1802.06
539.733	1842.55
539.938	1874.13
540.142	1910.95
540.347	1830.73
540.552	1786.56
540.757	1803.8
540.962	1840.61
541.166	1759.24
541.371	1776.48
541.576	1766.6
541.781	1723.2
541.985	1804.19
542.19	1850.3
542.395	1933.42
542.599	1912.69
542.804	1889.44
543.008	1905.33
543.213	1852.82
543.418	1812.52
543.622	1889.83
543.827	1838.87
544.031	1921.6
544.236	1918.89
544.44	1907.65
544.645	1984.76
544.849	1891.18
545.054	1964.61
545.258	2004.72
545.463	1997.36
545.667	1876.07
545.872	1915.21
546.076	1918.89
546.281	1933.23
546.485	1890.41
546.689	1928.19
546.894	1945.82
547.098	1919.66
547.302	1876.26
547.507	1929.16
547.711	1932.64
547.915	1988.83
548.119	1879.36
548.324	1889.05
548.528	1949.69
548.732	1905.33
548.936	1952.02
549.141	1980.5
549.345	1916.76
549.549	1962.68
549.753	1932.64
549.957	2029.32
550.161	2007.43
550.366	1960.74
550.57	1899.71
550.774	1920.24
550.978	1944.08
551.182	1973.14
551.386	1915.21
551.59	1928.38
551.794	1931.68
551.998	1961.9
552.202	1908.62
552.406	1903.97
552.61	1964.42
552.814	1958.61
553.018	2029.32
553.222	1933.23
553.426	1894.67
553.63	2039.98
553.833	1933.81
554.037	1887.7
554.241	1993.87
554.445	1950.86
554.649	1937.68
554.853	1945.43
555.056	1984.96
555.26	1971.59
555.464	1990.58
555.668	1943.11
555.871	1999.49
556.075	1998.13
556.279	1908.04
556.483	1897.38
556.686	1936.33
556.89	1952.41
557.094	1962.09
557.297	1853.01
557.501	1961.32
557.704	1837.71
557.908	1917.73
558.112	1898.16
558.315	1970.62
558.519	1869.68
558.722	1885.95
558.926	1853.79
559.129	1812.72
559.333	1820.85
559.536	1777.07
559.74	1785.4
559.943	1805.16
560.147	1803.8
560.35	1798.77
560.553	1786.95
560.757	1785.4
560.96	1875.68
561.164	1799.73
561.367	1900.1
561.57	1828.21
561.774	1849.91
561.977	1809.23
562.18	1789.08
562.384	1857.66
562.587	1810.39
562.79	1761.18
562.993	1792.95
563.197	1807.1
563.4	1851.27
563.603	1837.9
563.806	1903.39
564.009	1779
564.212	1812.52
564.416	1745.87
564.619	1778.23
564.822	1764.86
565.025	1835.96
565.228	1764.47
565.431	1768.35
565.634	1663.92
565.837	1718.55
566.04	1720.3
566.243	1717.97
566.446	1639.7
566.649	1725.53
566.852	1636.02
567.055	1697.63
567.258	1739.48
567.461	1749.94
567.664	1739.67
567.867	1649.39
568.07	1696.08
568.273	1714.1
568.475	1773
568.678	1663.34
568.881	1642.8
569.084	1672.83
569.287	1539.14
569.489	1612.96
569.692	1648.61
569.895	1656.94
570.098	1570.14
570.3	1577.31
570.503	1536.82
570.706	1540.11
570.909	1530.43
571.111	1521.51
571.314	1508.73
571.516	1536.24
571.719	1543.79
571.922	1498.07
572.124	1524.23
572.327	1552.51
572.529	1508.14
572.732	1486.83
572.935	1536.43
573.137	1629.62
573.34	1507.37
573.542	1576.92
573.745	1556.78
573.947	1549.99
574.15	1520.35
574.352	1503.49
574.554	1536.63
574.757	1496.13
574.959	1461.26
575.162	1468.04
575.364	1476.37
575.566	1587.77
575.769	1446.15
575.971	1462.42
576.173	1364.97
576.376	1483.15
576.578	1512.79
576.78	1519.19
576.982	1371.75
577.185	1439.75
577.387	1393.64
577.589	1406.81
577.791	1463.2
577.993	1477.73
578.196	1439.17
578.398	1448.86
578.6	1464.75
578.802	1367.68
579.004	1381.63
579.206	1391.31
579.408	1391.12
579.61	1384.53
579.812	1433.36
580.014	1369.23
580.216	1395.96
580.418	1377.95
580.62	1370.97
580.822	1312.27
581.024	1389.57
581.226	1450.41
581.428	1374.65
581.63	1473.46
581.832	1331.45
582.034	1442.08
582.236	1402.94
582.438	1408.95
582.64	1467.65
582.841	1471.33
583.043	1452.93
583.245	1408.36
583.447	1406.81
583.649	1390.54
583.85	1387.44
584.052	1405.26
584.254	1378.92
584.456	1448.66
584.657	1321.95
584.859	1345.78
585.061	1344.04
585.262	1351.98
585.464	1282.24
585.666	1418.63
585.867	1319.82
586.069	1416.11
586.27	1367.48
586.472	1360.12
586.674	1307.03
586.875	1317.11
587.077	1301.61
587.278	1328.15
587.48	1306.07
587.681	1434.91
587.883	1391.7
588.084	1268.29
588.285	1332.61
588.487	1308.58
588.688	1322.53
588.89	1308.2
589.091	1243.49
589.292	1255.3
589.494	1222.56
589.695	1181.68
589.896	1123.36
590.098	1104.57
590.299	1182.26
590.5	1150.68
590.702	1162.5
590.903	1186.52
591.104	1268.48
591.305	1244.26
591.507	1277.2
591.708	1280.49
591.909	1257.63
592.11	1303.16
592.311	1271
592.512	1227.79
592.714	1204.35
592.915	1193.69
593.116	1198.92
593.317	1245.04
593.518	1243.87
593.719	1202.22
593.92	1247.75
594.121	1286.69
594.322	1222.75
594.523	1247.94
594.724	1226.63
594.925	1246
595.126	1240.97
595.327	1234.19
595.528	1255.11
595.729	1243.87
595.929	1219.07
596.13	1209.39
596.331	1249.49
596.532	1258.6
596.733	1281.27
596.934	1299.67
597.135	1252.79
597.335	1246.78
597.536	1199.89
597.737	1219.07
597.938	1200.67
598.138	1272.35
598.339	1227.6
598.54	1223.53
598.74	1196.21
598.941	1226.63
599.142	1274.49
599.342	1265.57
599.543	1201.25
599.744	1217.33
599.944	1192.53
600.145	1215.01
600.345	1181.1
600.546	1278.36
600.746	1256.85
600.947	1299.67
601.147	1206.09
601.348	1251.43
601.548	1183.81
601.749	1220.62
601.949	1129.76
602.15	1178
602.35	1187.3
602.551	1272.55
602.751	1135.37
602.951	1153.59
603.152	1128.21
603.352	1173.93
603.552	1176.26
603.753	1237.29
603.953	1208.42
604.153	1205.71
604.354	1198.34
604.554	1192.92
604.754	1192.53
604.954	1166.18
605.155	1223.72
605.355	1181.87
605.555	1213.07
605.755	1255.89
605.955	1167.92
606.155	1208.42
606.356	1190.01
606.556	1229.15
606.756	1234.19
606.956	1138.67
607.156	1214.81
607.356	1157.46
607.556	1198.34
607.756	1194.47
607.956	1232.05
608.156	1186.72
608.356	1132.27
608.556	1191.56
608.756	1177.81
608.956	1113.29
609.156	1170.25
609.356	1122.59
609.556	1111.93
609.755	1148.36
609.955	1106.7
610.155	1169.47
610.355	1154.75
610.555	1124.14
610.755	1121.04
610.954	1059.04
611.154	1128.59
611.354	1151.07
611.554	1112.51
611.753	1095.08
611.953	1056.71
612.153	1134.41
612.352	1111.54
612.552	1060.2
612.752	1036.76
612.951	1077.06
613.151	1118.71
613.351	1060.98
613.55	1098.95
613.75	1110.38
613.949	1084.42
614.149	1073.18
614.348	1077.25
614.548	1050.32
614.747	999.56
614.947	1044.31
615.146	992
615.346	1081.9
615.545	1087.91
