Data from gum_old_FLMT105791__188__15-48-15-249.txt Node

Date: Mon Mar 20 15:48:15 GMT 2023
User: antho
Spectrometer: FLMT10579
Trigger mode: 0
Integration Time (sec): 1.000000E-1
Scans to average: 10
Electric dark correction enabled: true
Nonlinearity correction enabled: false
Boxcar width: 0
XAxis mode: Wavelengths
Number of Pixels in Spectrum: 3648
>>>>>Begin Spectral Data<<<<<
345.248	-182.61
345.464	-182.61
345.681	-182.61
345.898	-200.04
346.114	-187.06
346.331	-50.47
346.548	8.43
346.764	-1.45
346.981	17.15
347.197	7.65
347.414	1.65
347.631	-5.72
347.847	65.2
348.064	-11.53
348.28	38.46
348.497	-35.55
348.713	-33.81
348.93	34.58
349.146	19.08
349.363	12.5
349.579	39.23
349.796	3.58
350.012	-2.23
350.229	9.2
350.445	10.95
350.661	-17.15
350.878	-11.33
351.094	19.67
351.311	32.07
351.527	16.95
351.743	-11.14
351.96	52.6
352.176	37.49
352.392	41.75
352.609	48.15
352.825	14.24
353.041	11.53
353.257	-5.52
353.474	24.9
353.69	44.46
353.906	15.02
354.122	-19.67
354.339	82.44
354.555	10.75
354.771	-8.23
354.987	107.82
355.203	73.91
355.42	2.03
355.636	2.23
355.852	8.23
356.068	11.14
356.284	-31.87
356.5	65.58
356.716	25.48
356.932	41.37
357.148	50.08
357.364	0.87
357.58	71.2
357.796	73.14
358.012	56.28
358.228	26.83
358.444	-38.07
358.66	84.76
358.876	45.24
359.092	7.65
359.308	21.99
359.524	10.17
359.74	39.62
359.956	-13.66
360.172	22.18
360.388	63.65
360.604	-0.29
360.819	127.2
361.035	47.18
361.251	47.56
361.467	-1.65
361.683	41.75
361.898	17.34
362.114	60.55
362.33	11.14
362.546	73.33
362.762	25.48
362.977	23.73
363.193	-17.53
363.409	82.63
363.624	12.88
363.84	9.98
364.056	-7.85
364.271	18.7
364.487	41.17
364.703	8.82
364.918	-7.46
365.134	25.09
365.35	19.86
365.565	143.28
365.781	52.02
365.996	46.98
366.212	96.58
366.427	53.38
366.643	20.83
366.858	15.21
367.074	26.64
367.289	113.63
367.505	161.29
367.72	-16.57
367.936	25.28
368.151	90.38
368.367	44.08
368.582	53.38
368.798	13.66
369.013	105.69
369.228	54.73
369.444	21.6
369.659	114.8
369.874	67.13
370.09	115.18
370.305	-11.33
370.52	34.97
370.736	94.84
370.951	52.41
371.166	64.81
371.381	143.47
371.597	95.61
371.812	18.89
372.027	40.01
372.242	42.53
372.458	112.08
372.673	19.28
372.888	35.55
373.103	50.47
373.318	136.49
373.533	82.05
373.749	68.1
373.964	-25.09
374.179	83.41
374.394	8.23
374.609	85.15
374.824	13.27
375.039	69.85
375.254	32.45
375.469	120.22
375.684	44.27
375.899	76.24
376.114	45.82
376.329	62.48
376.544	83.41
376.759	93.68
376.974	39.82
377.189	14.05
377.404	42.72
377.619	92.13
377.834	-6.3
378.049	-2.23
378.264	33.23
378.478	78.76
378.693	52.21
378.908	86.12
379.123	64.81
379.338	110.92
379.553	69.65
379.767	97.94
379.982	114.99
380.197	101.81
380.412	90.58
380.626	90.19
380.841	157.61
381.056	56.48
381.271	127.97
381.485	60.93
381.7	47.37
381.915	64.61
382.129	56.28
382.344	67.33
382.559	65.58
382.773	109.95
382.988	-8.23
383.202	52.8
383.417	15.6
383.632	140.76
383.846	35.55
384.061	76.05
384.275	59.77
384.49	57.06
384.704	91.16
384.919	78.56
385.133	70.43
385.348	107.24
385.562	50.28
385.777	130.49
385.991	89.61
386.206	80.31
386.42	55.12
386.634	131.46
386.849	97.94
387.063	79.92
387.277	49.31
387.492	56.28
387.706	35.94
387.92	65.39
388.135	115.96
388.349	102.4
388.563	74.11
388.778	132.04
388.992	106.85
389.206	105.88
389.42	157.23
389.635	91.93
389.849	122.93
390.063	138.82
390.277	132.43
390.491	172.34
390.706	154.71
390.92	125.26
391.134	138.04
391.348	144.83
391.562	64.42
391.776	104.91
391.99	91.74
392.205	136.88
392.419	89.61
392.633	91.16
392.847	162.26
393.061	68.3
393.275	151.22
393.489	59
393.703	83.8
393.917	126.61
394.131	89.8
394.345	108.6
394.559	120.8
394.773	61.32
394.986	119.45
395.2	129.13
395.414	162.26
395.628	94.65
395.842	131.84
396.056	131.46
396.27	64.61
396.484	150.83
396.697	120.8
396.911	168.46
397.125	111.31
397.339	148.12
397.553	88.06
397.766	166.14
397.98	147.93
398.194	161.68
398.408	139.4
398.621	169.82
398.835	203.53
399.049	192.49
399.262	212.64
399.476	193.84
399.69	214.19
399.903	248.09
400.117	179.51
400.331	195.98
400.544	165.75
400.758	311.25
400.971	193.84
401.185	247.9
401.398	164.78
401.612	245.57
401.826	250.22
402.039	243.44
402.253	196.17
402.466	251.19
402.68	194.62
402.893	249.06
403.106	208.76
403.32	209.34
403.533	257.2
403.747	239.37
403.96	203.92
404.174	256.81
404.387	218.06
404.6	243.83
404.814	283.94
405.027	230.46
405.24	217.48
405.454	231.62
405.667	269.02
405.88	179.31
406.094	256.04
406.307	281.03
406.52	240.15
406.733	190.94
406.947	196.56
407.16	278.71
407.373	280.84
407.586	227.56
407.799	245.77
408.012	285.87
408.226	261.85
408.439	290.91
408.652	198.3
408.865	274.25
409.078	306.41
409.291	251.77
409.504	225.42
409.717	299.44
409.93	278.51
410.143	259.91
410.357	182.99
410.57	198.11
410.783	243.25
410.996	260.3
411.209	261.85
411.421	302.15
411.634	293.24
411.847	254.68
412.06	305.25
412.273	309.9
412.486	280.84
412.699	407.16
412.912	317.07
413.125	297.69
413.338	301.76
413.55	319.97
413.763	274.64
413.976	302.54
414.189	280.45
414.402	275.8
414.615	348.26
414.827	271.92
415.04	337.6
415.253	327.14
415.466	369.19
415.678	387.98
415.891	319.78
416.104	327.34
416.316	312.22
416.529	297.69
416.742	349.42
416.954	385.85
417.167	316.29
417.38	312.61
417.592	357.75
417.805	293.04
418.017	276.57
418.23	340.32
418.442	305.83
418.655	296.34
418.868	331.6
419.08	375
419.293	394.37
419.505	378.87
419.718	366.28
419.93	353.49
420.142	319.2
420.355	371.9
420.567	378.87
420.78	365.31
420.992	334.5
421.205	430.41
421.417	325.79
421.629	335.86
421.842	301.37
422.054	312.61
422.266	401.93
422.479	414.13
422.691	349.42
422.903	385.07
423.115	332.37
423.328	336.64
423.54	341.09
423.752	336.05
423.964	373.84
424.177	376.94
424.389	353.88
424.601	488.34
424.813	371.51
425.025	393.79
425.238	441.45
425.45	365.7
425.662	366.67
425.874	734.59
426.086	361.05
426.298	407.74
426.51	375.39
426.722	381.2
426.934	366.28
427.146	391.66
427.358	351.75
427.57	405.42
427.782	347.49
427.994	362.6
428.206	343.03
428.418	342.25
428.63	413.75
428.842	435.64
429.054	392.44
429.266	432.93
429.478	328.11
429.69	363.76
429.902	322.3
430.114	398.25
430.325	361.44
430.537	301.96
430.749	325.79
430.961	255.26
431.173	307.19
431.384	323.85
431.596	226.97
431.808	368.41
432.02	406
432.231	465.28
432.443	482.33
432.655	446.3
432.867	400.96
433.078	430.6
433.29	522.25
433.502	474.58
433.713	497.25
433.925	466.64
434.136	499.19
434.348	396.7
434.56	396.5
434.771	533.87
434.983	382.75
435.194	418.98
435.406	469.16
435.617	502.87
435.829	519.73
436.04	541.62
436.252	531.16
436.463	554.8
436.675	549.37
436.886	530
437.098	531.16
437.309	585.41
437.521	517.98
437.732	533.68
437.943	489.31
438.155	513.33
438.366	447.07
438.578	569.33
438.789	498.41
439	514.69
439.211	476.91
439.423	509.65
439.634	513.72
439.845	535.03
440.057	535.42
440.268	580.37
440.479	498.61
440.69	549.37
440.902	530.77
441.113	525.54
441.324	508.68
441.535	565.26
441.746	621.44
441.957	547.82
442.168	544.33
442.38	579.01
442.591	587.73
442.802	561.38
443.013	562.74
443.224	622.03
443.435	620.48
443.646	552.66
443.857	582.5
444.068	551.7
444.279	551.11
444.49	667.56
444.701	592.19
444.912	728.39
445.123	673.37
445.334	646.63
445.545	653.99
445.756	612.73
445.967	566.03
446.178	581.53
446.388	630.55
446.599	614.86
446.81	638.11
447.021	566.23
447.232	653.61
447.443	698.17
447.653	619.89
447.864	702.62
448.075	652.64
448.286	674.92
448.496	648.18
448.707	732.46
448.918	625.32
449.129	764.62
449.339	652.25
449.55	681.31
449.761	666.78
449.971	711.15
450.182	669.49
450.393	716.57
450.603	660.19
450.814	721.81
451.024	708.63
451.235	767.92
451.446	803.57
451.656	766.75
451.867	707.08
452.077	708.63
452.288	785.16
452.498	745.25
452.709	682.86
452.919	741.96
453.13	671.62
453.34	726.46
453.55	638.49
453.761	727.42
453.971	661.36
454.182	714.64
454.392	714.25
454.602	784.97
454.813	761.14
455.023	767.72
455.233	659.22
455.444	717.93
455.654	639.08
455.864	715.99
456.075	724.52
456.285	697.01
456.495	722.97
456.705	757.45
456.916	767.34
457.126	814.22
457.336	758.42
457.546	668.14
457.756	720.64
457.967	809.57
458.177	764.04
458.387	734.21
458.597	686.93
458.807	712.7
459.017	721.81
459.227	710.18
459.437	714.83
459.647	755.9
459.857	790.59
460.068	722.77
460.278	821.39
460.488	744.47
460.698	824.49
460.908	770.44
461.117	706.31
461.327	767.92
461.537	792.52
461.747	780.12
461.957	808.41
462.167	889.59
462.377	809.57
462.587	805.5
462.797	833.21
463.007	808.22
463.216	824.69
463.426	852.2
463.636	861.69
463.846	740.41
464.056	786.71
464.265	834.57
464.475	785.55
464.685	802.21
464.895	812.09
465.104	794.65
465.314	823.14
465.524	820.42
465.733	779.74
465.943	884.94
466.153	910.9
466.362	868.86
466.572	839.02
466.782	808.41
466.991	853.55
467.201	864.6
467.41	746.02
467.62	825.46
467.829	832.05
468.039	859.37
468.249	829.92
468.458	871.57
468.668	883.78
468.877	896.95
469.086	903.73
469.296	928.34
469.505	866.73
469.715	964.18
469.924	892.69
470.134	956.82
470.343	921.17
470.552	899.47
470.762	889.01
470.971	861.69
471.18	882.42
471.39	931.63
471.599	863.82
471.808	901.6
472.018	904.7
472.227	958.76
472.436	997.31
472.645	949.46
472.855	931.63
473.064	1036.84
473.273	992.66
473.482	988.79
473.691	1023.28
473.901	1021.73
474.11	970.96
474.319	1093.41
474.528	982.2
474.737	1094.77
474.946	1060.86
475.155	1027.34
475.364	1112.01
475.573	1036.64
475.783	1069.78
475.992	1100
476.201	1124.22
476.41	1085.86
476.619	1026.57
476.828	1067.06
477.037	1055.05
477.245	1078.88
477.454	1129.45
477.663	1048.46
477.872	1115.69
478.081	1177.69
478.29	1103.1
478.499	1225.55
478.708	1174.01
478.917	1210.05
479.125	1160.06
479.334	1189.32
479.543	1185.25
479.752	1210.24
479.961	1219.93
480.169	1243.95
480.378	1174.98
480.587	1344.51
480.796	1247.25
481.004	1233.1
481.213	1234.65
481.422	1259.45
481.63	1266.43
481.839	1300.72
482.048	1344.51
482.256	1300.33
482.465	1322.42
482.674	1343.54
482.882	1343.73
483.091	1396.24
483.299	1325.72
483.508	1340.25
483.716	1406.51
483.925	1360.98
484.134	1291.42
484.342	1346.25
484.551	1380.16
484.759	1371.05
484.967	1389.85
485.176	1405.93
485.384	1389.26
485.593	1421.62
485.801	1378.41
486.01	1324.55
486.218	1307.31
486.426	1193.19
486.635	1216.05
486.843	1190.87
487.051	1252.67
487.26	1224.19
487.468	1308.08
487.676	1309.05
487.885	1291.03
488.093	1387.91
488.301	1417.16
488.509	1428.98
488.717	1478.19
488.926	1454.75
489.134	1405.15
489.342	1431.89
489.55	1371.83
489.758	1433.83
489.967	1418.13
490.175	1544.84
490.383	1482.46
490.591	1620.4
490.799	1489.82
491.007	1605.68
491.215	1561.89
491.423	1522.18
491.631	1540
491.839	1524.31
492.047	1543.49
492.255	1460.56
492.463	1450.88
492.671	1464.24
492.879	1531.28
493.087	1517.33
493.295	1544.84
493.503	1563.44
493.711	1615.95
493.919	1639.2
494.127	1590.57
494.334	1589.41
494.542	1574.49
494.75	1627.96
494.958	1578.75
495.166	1706.43
495.374	1677.37
495.581	1686.67
495.789	1646.75
495.997	1747.31
496.205	1642.69
496.412	1638.62
496.62	1688.6
496.828	1679.69
497.035	1651.21
497.243	1711.27
497.451	1674.85
497.658	1689.57
497.866	1702.55
498.074	1761.84
498.281	1631.45
498.489	1776.76
498.696	1704.1
498.904	1652.37
499.112	1638.23
499.319	1694.61
499.527	1686.47
499.734	1742.66
499.942	1677.17
500.149	1680.66
500.357	1735.88
500.564	1642.3
500.771	1715.92
500.979	1647.92
501.186	1637.65
501.394	1710.88
501.601	1636.1
501.808	1730.26
502.016	1653.54
502.223	1642.1
502.43	1685.31
502.638	1660.51
502.845	1654.89
503.052	1795.75
503.26	1728.13
503.467	1806.4
503.674	1729.87
503.881	1748.86
504.089	1824.23
504.296	1739.95
504.503	1678.53
504.71	1722.7
504.917	1676.4
505.125	1768.82
505.332	1732
505.539	1814.54
505.746	1849.41
505.953	1866.46
506.16	1835.66
506.367	1895.91
506.574	1930.01
506.781	1937.96
506.988	1837.4
507.195	1847.48
507.402	1845.15
507.609	1880.8
507.816	1802.72
508.023	1825
508.23	1805.63
508.437	1770.17
508.644	1828.88
508.851	1820.35
509.058	1873.63
509.265	1859.49
509.472	1908.31
509.679	2013.32
509.885	1904.83
510.092	1873.25
510.299	1897.46
510.506	1883.9
510.713	1863.95
510.92	1921.49
511.126	1930.4
511.333	1971.47
511.54	1946.29
511.746	1972.25
511.953	1997.63
512.16	2008.29
512.367	1920.13
512.573	1937.76
512.78	2000.92
512.987	1983.1
513.193	1947.84
513.4	1847.09
513.606	1941.64
513.813	1968.37
514.02	1911.8
514.226	1999.96
514.433	2007.51
514.639	1906.18
514.846	1974.19
515.052	1965.28
515.259	1921.1
515.465	1966.05
515.672	1978.45
515.878	2054.2
516.085	1993.56
516.291	2057.11
516.497	1984.07
516.704	1975.35
516.91	1897.27
517.117	1833.72
517.323	1804.08
517.529	1770.17
517.736	1772.3
517.942	1762.23
518.148	1837.4
518.354	1922.26
518.561	1906.76
518.767	1917.42
518.973	1933.89
519.179	1961.21
519.386	1936.41
519.592	1926.91
519.798	1921.29
520.004	2086.56
520.21	2028.05
520.417	2116.59
520.623	2129.19
520.829	2110.97
521.035	2149.33
521.241	2147.78
521.447	2163.87
521.653	2288.83
521.859	2145.85
522.065	2171.42
522.271	2279.73
522.477	2224.51
522.683	2263.45
522.889	2240.01
523.095	2223.35
523.301	2205.33
523.507	2205.13
523.713	2189.83
523.919	2176.07
524.125	2263.65
524.331	2286.9
524.537	2379.31
524.742	2347.73
524.948	2335.33
525.154	2372.14
525.36	2484.52
525.566	2325.45
525.772	2417.87
525.977	2302.2
526.183	2386.09
526.389	2431.43
526.595	2323.9
526.8	2309.18
527.006	2187.7
527.212	2167.35
527.417	2146.04
527.623	2152.82
527.829	2229.16
528.034	2295.81
528.24	2285.93
528.446	2264.23
528.651	2419.81
528.857	2384.35
529.062	2473.86
529.268	2439.18
529.473	2519.78
529.679	2507.19
529.884	2546.13
530.09	2574.61
530.295	2531.79
530.501	2536.25
530.706	2531.21
530.912	2500.02
531.117	2544.97
531.323	2542.45
531.528	2598.05
531.733	2605.42
531.939	2598.83
532.144	2621.69
532.35	2560.27
532.555	2635.06
532.76	2577.71
532.966	2558.72
533.171	2513.58
533.376	2469.02
533.581	2423.68
533.787	2535.67
533.992	2554.46
534.197	2542.64
534.402	2555.82
534.607	2581.97
534.813	2666.45
535.018	2527.72
535.223	2594.57
535.428	2620.92
535.633	2660.25
535.838	2699.19
536.043	2720.89
536.249	2764.68
536.454	2684.27
536.659	2733.68
536.864	2688.15
537.069	2627.31
537.274	2676.91
537.479	2666.25
537.684	2660.25
537.889	2585.07
538.094	2785.79
538.299	2648.43
538.504	2656.76
538.708	2689.5
538.913	2749.56
539.118	2721.28
539.323	2755.18
539.528	2676.52
539.733	2676.13
539.938	2673.81
540.142	2675.55
540.347	2657.34
540.552	2615.88
540.757	2628.08
540.962	2578.1
541.166	2563.95
541.371	2534.7
541.576	2647.65
541.781	2520.36
541.985	2707.91
542.19	2625.18
542.395	2740.26
542.599	2779.59
542.804	2689.31
543.008	2784.05
543.213	2714.5
543.418	2668.58
543.622	2735.42
543.827	2652.11
544.031	2766.03
544.236	2791.99
544.44	2759.64
544.645	2866.39
544.849	2743.17
545.054	2786.96
545.258	2869.88
545.463	2817.96
545.667	2717.01
545.872	2834.04
546.076	2807.49
546.281	2807.11
546.485	2754.6
546.689	2795.29
546.894	2834.62
547.098	2816.6
547.302	2747.43
547.507	2777.85
547.711	2843.34
547.915	2822.99
548.119	2708.68
548.324	2730.96
548.528	2789.67
548.732	2738.33
548.936	2819.51
549.141	2793.35
549.345	2790.25
549.549	2809.82
549.753	2823.58
549.957	2892.94
550.161	2879.57
550.366	2797.03
550.57	2822.41
550.774	2818.34
550.978	2798.39
551.182	2826.09
551.386	2798.39
551.59	2808.46
551.794	2796.26
551.998	2809.82
552.202	2796.84
552.406	2756.15
552.61	2842.76
552.814	2832.88
553.018	2899.91
553.222	2763.71
553.426	2794.71
553.63	2862.91
553.833	2791.41
554.037	2718.56
554.241	2832.49
554.445	2820.48
554.649	2820.09
554.853	2773.01
555.056	2844.5
555.26	2868.91
555.464	2821.06
555.668	2826.87
555.871	2863.68
556.075	2861.55
556.279	2762.35
556.483	2774.17
556.686	2806.53
556.89	2773.01
557.094	2793.35
557.297	2719.34
557.501	2809.24
557.704	2684.85
557.908	2793.93
558.112	2693.96
558.315	2783.47
558.519	2735.81
558.722	2722.63
558.926	2682.53
559.129	2581.39
559.333	2558.34
559.536	2612.78
559.74	2623.24
559.943	2609.29
560.147	2571.12
560.35	2625.37
560.553	2648.62
560.757	2578.1
560.96	2705.78
561.164	2641.84
561.367	2741.62
561.57	2646.68
561.774	2663.15
561.977	2636.61
562.18	2610.07
562.384	2709.07
562.587	2655.98
562.79	2628.47
562.993	2589.92
563.197	2668.19
563.4	2709.07
563.603	2696.67
563.806	2735.61
564.009	2629.83
564.212	2687.95
564.416	2525.01
564.619	2617.62
564.822	2532.76
565.025	2674.2
565.228	2572.87
565.431	2612.97
565.634	2482.39
565.837	2558.14
566.04	2492.85
566.243	2498.85
566.446	2392.68
566.649	2531.6
566.852	2478.12
567.055	2516.68
567.258	2518.42
567.461	2573.84
567.664	2578.48
567.867	2468.24
568.07	2492.07
568.273	2520.94
568.475	2562.6
568.678	2463.4
568.881	2460.3
569.084	2454.1
569.287	2345.99
569.489	2365.94
569.692	2480.06
569.895	2466.69
570.098	2375.63
570.3	2379.51
570.503	2306.27
570.706	2306.46
570.909	2367.88
571.111	2298.52
571.314	2298.71
571.516	2291.93
571.719	2312.86
571.922	2297.75
572.124	2303.75
572.327	2297.55
572.529	2244.27
572.732	2263.45
572.935	2351.41
573.137	2382.61
573.34	2317.31
573.542	2376.41
573.745	2322.16
573.947	2329.71
574.15	2315.57
574.352	2297.16
574.554	2410.89
574.757	2270.81
574.959	2278.37
575.162	2285.54
575.364	2233.03
575.566	2358.97
575.769	2210.95
575.971	2235.36
576.173	2121.05
576.376	2200.68
576.578	2258.03
576.78	2273.91
576.982	2131.9
577.185	2184.98
577.387	2141.97
577.589	2186.53
577.791	2237.3
577.993	2220.83
578.196	2218.31
578.398	2215.98
578.6	2223.73
578.802	2085.98
579.004	2098.77
579.206	2133.64
579.408	2150.69
579.61	2089.85
579.812	2209.2
580.014	2125.7
580.216	2128.22
580.418	2142.75
580.62	2099.74
580.822	2079
581.024	2163.87
581.226	2181.69
581.428	2137.9
581.63	2225.48
581.832	2122.79
582.034	2181.5
582.236	2101.29
582.438	2190.6
582.64	2232.26
582.841	2230.71
583.043	2264.61
583.245	2174.33
583.447	2195.64
583.649	2151.85
583.85	2152.05
584.052	2175.3
584.254	2103.61
584.456	2172
584.657	2110.97
584.859	2165.8
585.061	2091.99
585.262	2129.57
585.464	2079
585.666	2125.12
585.867	2077.26
586.069	2160.18
586.27	2117.56
586.472	2054.59
586.674	2058.85
586.875	2042.39
587.077	2043.94
587.278	2104.39
587.48	2078.81
587.681	2177.04
587.883	2112.33
588.084	2000.15
588.285	2084.04
588.487	2008.87
588.688	2053.82
588.89	1967.02
589.091	1922.26
589.292	1915.09
589.494	1889.91
589.695	1833.91
589.896	1774.24
590.098	1755.45
590.299	1828.49
590.5	1823.65
590.702	1815.9
590.903	1835.66
591.104	1956.94
591.305	1961.4
591.507	1975.54
591.708	1934.86
591.909	1936.21
592.11	1987.94
592.311	2003.06
592.512	1904.05
592.714	1878.48
592.915	1901.73
593.116	1895.72
593.317	1961.01
593.518	1968.18
593.719	1935.83
593.92	1937.76
594.121	2024.17
594.322	1966.24
594.523	1956.36
594.724	1900.18
594.925	1887.58
595.126	1912.96
595.327	1921.68
595.528	1907.54
595.729	1916.26
595.929	1897.85
596.13	1918.39
596.331	1908.7
596.532	1952.88
596.733	1988.91
596.934	2003.64
597.135	1992.21
597.335	1945.71
597.536	1901.53
597.737	1918.78
597.938	1877.12
598.138	1922.84
598.339	1945.9
598.54	1944.54
598.74	1925.94
598.941	1906.38
599.142	1924.2
599.342	1911.8
599.543	1882.35
599.744	1898.82
599.944	1897.27
600.145	1872.86
600.345	1908.12
600.546	1968.76
600.746	1958.88
600.947	1990.07
601.147	1888.16
601.348	1912.58
601.548	1856.2
601.749	1897.66
601.949	1835.66
602.15	1846.12
602.35	1837.79
602.551	1908.31
602.751	1847.86
602.951	1828.1
603.152	1757.97
603.352	1895.53
603.552	1873.63
603.753	1907.73
603.953	1902.5
604.153	1868.6
604.354	1887.97
604.554	1863.56
604.754	1870.73
604.954	1858.13
605.155	1849.03
605.355	1891.46
605.555	1895.91
605.755	1917.81
605.955	1868.21
606.155	1918.97
606.356	1876.73
606.556	1896.3
606.756	1887.19
606.956	1789.16
607.156	1898.82
607.356	1817.64
607.556	1844.38
607.756	1843.6
607.956	1960.82
608.156	1853.87
608.356	1800.59
608.556	1887.39
608.756	1796.71
608.956	1812.8
609.156	1816.67
609.356	1791.68
609.556	1789.55
609.755	1812.8
609.955	1788.38
610.155	1806.21
610.355	1812.99
610.555	1776.76
610.755	1745.18
610.954	1705.85
611.154	1782.38
611.354	1829.65
611.554	1762.81
611.753	1734.91
611.953	1687.25
612.153	1750.8
612.352	1746.53
612.552	1676.01
612.752	1667.29
612.951	1733.36
613.151	1740.33
613.351	1714.76
613.55	1670.97
613.75	1742.08
613.949	1693.64
614.149	1735.88
614.348	1699.26
614.548	1634.74
