Data from gum_old_FLMT105791__167__15-47-54-250.txt Node

Date: Mon Mar 20 15:47:54 GMT 2023
User: antho
Spectrometer: FLMT10579
Trigger mode: 0
Integration Time (sec): 1.000000E-1
Scans to average: 10
Electric dark correction enabled: true
Nonlinearity correction enabled: false
Boxcar width: 0
XAxis mode: Wavelengths
Number of Pixels in Spectrum: 3648
>>>>>Begin Spectral Data<<<<<
345.248	-180.85
345.464	-180.85
345.681	-180.85
345.898	-177.17
346.114	-204.68
346.331	-17.52
346.548	25.11
346.764	-12.29
346.981	-6.67
347.197	-5.7
347.414	8.06
347.631	-49.49
347.847	89.04
348.064	7.86
348.28	19.1
348.497	-60.14
348.713	2.63
348.93	38.09
349.146	29.56
349.363	50.87
349.579	21.04
349.796	24.33
350.012	17.16
350.229	18.52
350.445	28.21
350.661	3.6
350.878	-1.24
351.094	37.31
351.311	40.61
351.527	35.38
351.743	-3.18
351.96	65.6
352.176	63.66
352.392	51.26
352.609	62.5
352.825	-1.44
353.041	38.67
353.257	16.97
353.474	40.02
353.69	49.52
353.906	30.34
354.122	-0.66
354.339	69.28
354.555	41.96
354.771	-0.47
354.987	98.15
355.203	90.59
355.42	-2.02
355.636	28.21
355.852	19.1
356.068	44.29
356.284	0.11
356.5	95.82
356.716	27.63
356.932	31.69
357.148	42.35
357.364	31.69
357.58	107.26
357.796	67.54
358.012	62.11
358.228	42.93
358.444	-46.58
358.66	100.86
358.876	48.74
359.092	13.87
359.308	35.57
359.524	58.62
359.74	3.99
359.956	13.29
360.172	40.22
360.388	52.04
360.604	31.11
360.819	110.16
361.035	48.55
361.251	65.41
361.467	8.83
361.683	90.4
361.898	59.59
362.114	65.6
362.33	34.79
362.546	84.78
362.762	25.69
362.977	68.12
363.193	-2.6
363.409	57.66
363.624	9.61
363.84	37.12
364.056	19.49
364.271	35.38
364.487	67.92
364.703	31.89
364.918	10.19
365.134	47.58
365.35	16.58
365.565	167.51
365.781	64.24
365.996	71.41
366.212	116.36
366.427	76.64
366.643	39.06
366.858	56.3
367.074	15.23
367.289	103.38
367.505	145.62
367.72	-10.93
367.936	38.86
368.151	94.66
368.367	84.39
368.582	84.59
368.798	23.75
369.013	115.97
369.228	60.56
369.444	66.18
369.659	112.29
369.874	56.69
370.09	107.45
370.305	-0.86
370.52	39.06
370.736	121.01
370.951	75.09
371.166	124.3
371.381	116.75
371.597	99.89
371.812	38.47
372.027	8.44
372.242	45.06
372.458	94.66
372.673	47.77
372.888	67.54
373.103	90.21
373.318	147.17
373.533	90.59
373.749	62.5
373.964	12.32
374.179	102.8
374.394	30.34
374.609	132.83
374.824	34.21
375.039	99.89
375.254	21.04
375.469	111.52
375.684	81.29
375.899	127.02
376.114	83.23
376.329	86.33
376.544	88.46
376.759	77.61
376.974	47.77
377.189	72.77
377.404	55.91
377.619	125.08
377.834	26.08
378.049	19.49
378.264	52.04
378.478	93.5
378.693	43.32
378.908	97.37
379.123	80.52
379.338	116.94
379.553	76.64
379.767	83.81
379.982	99.31
380.197	97.37
380.412	92.53
380.626	105.9
380.841	185.14
381.056	87.49
381.271	153.56
381.485	65.99
381.7	64.44
381.915	92.72
382.129	45.64
382.344	93.89
382.559	91.17
382.773	101.83
382.988	11.74
383.202	79.36
383.417	60.17
383.632	161.89
383.846	34.6
384.061	71.61
384.275	56.3
384.49	67.54
384.704	103.19
384.919	79.16
385.133	65.6
385.348	132.44
385.562	55.52
385.777	135.54
385.991	85.17
386.206	63.27
386.42	38.09
386.634	127.79
386.849	102.8
387.063	123.53
387.277	82.84
387.492	60.37
387.706	51.07
387.92	64.44
388.135	136.12
388.349	90.4
388.563	126.44
388.778	127.99
388.992	135.74
389.206	118.88
389.42	159.76
389.635	93.31
389.849	127.4
390.063	145.04
390.277	127.02
390.491	157.44
390.706	130.12
390.92	144.84
391.134	117.91
391.348	170.03
391.562	91.37
391.776	118.3
391.99	107.26
392.205	157.82
392.419	87.88
392.633	96.21
392.847	179.52
393.061	91.95
393.275	182.82
393.489	82.84
393.703	94.08
393.917	128.76
394.131	56.49
394.345	107.06
394.559	150.65
394.773	87.49
394.986	154.92
395.2	114.81
395.414	163.64
395.628	115.78
395.842	167.32
396.056	114.62
396.27	90.59
396.484	156.47
396.697	154.14
396.911	145.81
397.125	124.5
397.339	148.52
397.553	126.63
397.766	181.85
397.98	165.19
398.194	194.64
398.408	153.56
398.621	196.57
398.835	219.24
399.049	186.89
399.262	229.51
399.476	231.25
399.69	202.77
399.903	272.52
400.117	205.49
400.331	221.95
400.544	182.62
400.758	339.17
400.971	214.59
401.185	259.54
401.398	179.72
401.612	258.57
401.826	267.1
402.039	236.1
402.253	208.97
402.466	274.65
402.68	231.64
402.893	253.92
403.106	261.48
403.32	213.43
403.533	262.45
403.747	243.27
403.96	261.09
404.174	274.27
404.387	206.45
404.6	264.58
404.814	281.05
405.027	252.76
405.24	251.4
405.454	232.42
405.667	311.85
405.88	186.89
406.094	234.55
406.307	290.73
406.52	250.05
406.733	220.98
406.947	208.39
407.16	291.9
407.373	320.57
407.586	218.47
407.799	228.54
408.012	264.19
408.226	259.93
408.439	326.96
408.652	221.57
408.865	294.22
409.078	324.25
409.291	297.13
409.504	271.75
409.717	288.02
409.93	290.54
410.143	283.76
410.357	215.95
410.57	222.53
410.783	239.2
410.996	267.87
411.209	266.52
411.421	333.94
411.634	296.16
411.847	277.75
412.06	301.39
412.273	297.52
412.486	326
412.699	415.12
412.912	332.78
413.125	349.05
413.338	322.7
413.55	344.98
413.763	316.89
413.976	343.63
414.189	288.99
414.402	292.28
414.615	379.28
414.827	292.09
415.04	343.63
415.253	326.38
415.466	370.36
415.678	378.11
415.891	323.28
416.104	303.91
416.316	311.85
416.529	315.34
416.742	368.81
416.954	344.21
417.167	321.73
417.38	317.86
417.592	356.8
417.805	274.46
418.017	291.9
418.23	377.53
418.442	318.05
418.655	316.89
418.868	342.27
419.08	367.85
419.293	386.64
419.505	361.06
419.718	369.78
419.93	361.26
420.142	355.64
420.355	408.34
420.567	385.09
420.78	375.98
420.992	365.33
421.205	444.57
421.417	339.56
421.629	336.85
421.842	352.73
422.054	315.92
422.266	382.18
422.479	428.49
422.691	350.6
422.903	374.05
423.115	348.47
423.328	352.73
423.54	341.69
423.752	345.37
423.964	349.44
424.177	393.42
424.389	369.59
424.601	468.59
424.813	390.13
425.025	429.46
425.238	416.28
425.45	372.5
425.662	383.15
425.874	706.52
426.086	386.25
426.298	415.89
426.51	399.43
426.722	384.31
426.934	363
427.146	389.93
427.358	348.47
427.57	423.84
427.782	362.03
427.994	362.03
428.206	365.91
428.418	370.36
428.63	418.22
428.842	448.44
429.054	384.12
429.266	406.21
429.478	352.35
429.69	377.53
429.902	325.03
430.114	390.32
430.325	390.32
430.537	340.91
430.749	325.22
430.961	280.66
431.173	293.06
431.384	339.75
431.596	252.76
431.808	343.82
432.02	396.91
432.231	423.84
432.443	503.66
432.655	439.34
432.867	419.77
433.078	450.77
433.29	523.42
433.502	466.85
433.713	482.54
433.925	461.04
434.136	513.35
434.348	395.55
434.56	361.26
434.771	542.8
434.983	371.91
435.194	427.71
435.406	433.14
435.617	516.06
435.829	552.29
436.04	516.26
436.252	492.42
436.463	545.51
436.675	560.04
436.886	528.66
437.098	555.01
437.309	577.48
437.521	518.97
437.732	536.79
437.943	528.07
438.155	514.71
438.366	461.43
438.578	585.81
438.789	485.06
439	496.11
439.211	473.24
439.423	512.96
439.634	481.96
439.845	547.26
440.057	506.76
440.268	581.94
440.479	509.67
440.69	577.48
440.902	539.7
441.113	505.41
441.324	535.44
441.535	572.83
441.746	644.9
441.957	539.31
442.168	570.31
442.38	604.02
442.591	619.72
442.802	555.97
443.013	577.87
443.224	588.91
443.435	541.44
443.646	565.08
443.857	575.15
444.068	567.99
444.279	561.98
444.49	679.97
444.701	592.4
444.912	671.06
445.123	648.2
445.334	624.37
445.545	647.42
445.756	626.5
445.967	573.22
446.178	621.65
446.388	642
446.599	614.49
446.81	621.27
447.021	577.87
447.232	666.99
447.443	650.13
447.653	609.64
447.864	662.34
448.075	618.94
448.286	668.73
448.496	653.43
448.707	706.9
448.918	621.85
449.129	728.6
449.339	630.37
449.55	660.79
449.761	659.05
449.971	691.02
450.182	659.82
450.393	713.3
450.603	662.92
450.814	723.57
451.024	702.45
451.235	735.96
451.446	764.06
451.656	770.45
451.867	666.99
452.077	693.34
452.288	797.77
452.498	753.21
452.709	657.3
452.919	705.74
453.13	644.71
453.34	709.03
453.55	636.57
453.761	679.2
453.971	679
454.182	677.07
454.392	692.95
454.602	758.05
454.813	758.05
455.023	737.71
455.233	660.4
455.444	701.48
455.654	632.31
455.864	703.03
456.075	709.23
456.285	684.04
456.495	676.87
456.705	746.81
456.916	756.5
457.126	759.99
457.336	719.5
457.546	632.5
457.756	661.76
457.967	775.49
458.177	706.9
458.387	750.11
458.597	697.6
458.807	738.29
459.017	725.89
459.227	696.25
459.437	708.26
459.647	742.94
459.857	738.1
460.068	696.25
460.278	792.73
460.488	744.68
460.698	803.58
460.908	715.43
461.117	675.13
461.327	719.88
461.537	763.67
461.747	785.56
461.957	776.26
462.167	869.46
462.377	812.69
462.587	758.83
462.797	830.71
463.007	776.46
463.216	795.06
463.426	821.41
463.636	807.26
463.846	722.4
464.056	755.34
464.265	821.41
464.475	738.48
464.685	809.4
464.895	813.46
465.104	780.33
465.314	819.08
465.524	777.81
465.733	755.73
465.943	860.54
466.153	856.48
466.362	841.56
466.572	833.23
466.782	781.11
466.991	811.33
467.201	867.52
467.41	743.91
467.62	814.24
467.829	812.69
468.039	839.62
468.249	827.03
468.458	835.94
468.668	832.45
468.877	877.4
469.086	905.69
469.296	897.94
469.505	859.58
469.715	941.53
469.924	865.19
470.134	922.54
470.343	915.76
470.552	853.57
470.762	842.72
470.971	814.63
471.18	850.28
471.39	848.34
471.599	835.74
471.808	919.25
472.018	863.64
472.227	958.39
472.436	980.09
472.645	925.26
472.855	922.93
473.064	988.03
473.273	980.09
473.482	971.76
473.691	999.65
473.901	976.41
474.11	939.98
474.319	1069.6
474.528	982.8
474.737	1068.05
474.946	1010.7
475.155	1012.05
475.364	1092.65
475.573	1044.6
475.783	1015.74
475.992	1049.84
476.201	1071.54
476.41	1012.83
476.619	976.99
476.828	1045.57
477.037	1016.7
477.245	1020.97
477.454	1075.8
477.663	1052.55
477.872	1076.96
478.081	1173.64
478.29	1076.77
478.499	1179.65
478.708	1137.99
478.917	1215.68
479.125	1134.7
479.334	1135.86
479.543	1141.87
479.752	1162.98
479.961	1169.96
480.169	1210.26
480.378	1171.12
480.587	1339.29
480.796	1226.15
481.004	1172.67
481.213	1184.1
481.422	1205.41
481.63	1248.04
481.839	1263.34
482.048	1292.6
482.256	1240.87
482.465	1307.52
482.674	1281.56
482.882	1307.52
483.091	1378.62
483.299	1280.2
483.508	1313.72
483.716	1280.98
483.925	1306.36
484.134	1292.79
484.342	1306.55
484.551	1344.53
484.759	1323.02
484.967	1368.55
485.176	1384.05
485.384	1350.34
485.593	1346.08
485.801	1329.99
486.01	1298.99
486.218	1254.43
486.426	1138.18
486.635	1175.19
486.843	1141.28
487.051	1196.5
487.26	1204.06
487.468	1245.33
487.676	1254.05
487.885	1258.7
488.093	1297.64
488.301	1363.51
488.509	1357.12
488.717	1416.21
488.926	1367.39
489.134	1400.91
489.342	1389.09
489.55	1358.86
489.758	1351.11
489.967	1373.39
490.175	1523.55
490.383	1473.37
490.591	1550.48
490.799	1410.98
491.007	1523.93
491.215	1504.37
491.423	1476.66
491.631	1493.52
491.839	1469.1
492.047	1510.57
492.255	1397.42
492.463	1394.9
492.671	1418.92
492.879	1487.7
493.087	1451.47
493.295	1495.26
493.503	1520.06
493.711	1547.57
493.919	1565.78
494.127	1559.58
494.334	1558.62
494.542	1497.39
494.75	1564.62
494.958	1528.39
495.166	1598.72
495.374	1593.1
495.581	1647.35
495.789	1622.75
495.997	1654.71
496.205	1578.38
496.412	1538.27
496.62	1584.97
496.828	1607.25
497.035	1600.85
497.243	1640.76
497.451	1651.03
497.658	1638.25
497.866	1619.26
498.074	1691.91
498.281	1607.25
498.489	1714.58
498.696	1596.78
498.904	1587.68
499.112	1567.92
499.319	1647.16
499.527	1626.62
499.734	1699.66
499.942	1611.7
500.149	1615
500.357	1661.11
500.564	1597.17
500.771	1619.26
500.979	1560.36
501.186	1585.93
501.394	1644.25
501.601	1600.85
501.808	1628.56
502.016	1603.76
502.223	1557.45
502.43	1602.02
502.638	1592.72
502.845	1587.87
503.052	1702.96
503.26	1636.89
503.467	1710.13
503.674	1646.58
503.881	1693.66
504.089	1770.19
504.296	1683.58
504.503	1616.35
504.71	1649.48
504.917	1629.14
505.125	1667.5
505.332	1678.16
505.539	1728.92
505.746	1782.78
505.953	1747.33
506.16	1748.88
506.367	1795.57
506.574	1877.14
506.781	1811.84
506.988	1751.2
507.195	1781.81
507.402	1731.05
507.609	1791.11
507.816	1760.31
508.023	1765.54
508.23	1718.26
508.437	1694.24
508.644	1745.58
508.851	1796.92
509.058	1832.96
509.265	1767.09
509.472	1801.19
509.679	1904.07
509.885	1809.91
510.092	1782.59
510.299	1817.07
510.506	1806.61
510.713	1815.14
510.92	1826.18
511.126	1849.82
511.333	1878.69
511.54	1860.86
511.746	1869.97
511.953	1890.31
512.16	1912.2
512.367	1881.01
512.573	1852.14
512.78	1902.13
512.987	1852.72
513.193	1826.37
513.4	1777.36
513.606	1837.42
513.813	1857.37
514.02	1836.26
514.226	1924.41
514.433	1893.8
514.639	1787.43
514.846	1861.64
515.052	1825.21
515.259	1859.89
515.465	1881.4
515.672	1880.24
515.878	1954.44
516.085	1894.96
516.291	1935.07
516.497	1914.92
516.704	1867.45
516.91	1831.02
517.117	1740.35
517.323	1695.98
517.529	1670.8
517.736	1676.8
517.942	1701.41
518.148	1707.03
518.354	1788.98
518.561	1781.62
518.767	1793.44
518.973	1829.28
519.179	1834.32
519.386	1836.26
519.592	1815.72
519.798	1830.06
520.004	1947.08
520.21	1931.58
520.417	1954.44
520.623	1983.12
520.829	2036.78
521.035	1978.47
521.241	1997.84
521.447	2026.71
521.653	2131.33
521.859	2003.07
522.065	2061.97
522.271	2162.53
522.477	2068.36
522.683	2159.62
522.889	2095.68
523.095	2067.2
523.301	2106.34
523.507	2050.93
523.713	2073.01
523.919	2040.66
524.125	2160.2
524.331	2127.26
524.537	2227.62
524.742	2238.86
524.948	2188.1
525.154	2236.92
525.36	2345.62
525.566	2217.94
525.772	2277.61
525.977	2165.24
526.183	2238.67
526.389	2253.01
526.595	2193.53
526.8	2168.14
527.006	2061.58
527.212	2042.79
527.417	2024.77
527.623	2024.97
527.829	2092.58
528.034	2139.47
528.24	2180.74
528.446	2158.46
528.651	2268.7
528.857	2256.69
529.062	2345.62
529.268	2313.65
529.473	2317.14
529.679	2341.94
529.884	2437.07
530.09	2402.38
530.295	2355.89
530.501	2381.65
530.706	2358.4
530.912	2354.92
531.117	2372.94
531.323	2357.44
531.528	2436.1
531.733	2416.72
531.939	2425.63
532.144	2428.15
532.35	2416.92
532.555	2440.75
532.76	2439.2
532.966	2389.99
533.171	2380.1
533.376	2308.22
533.581	2296.21
533.787	2374.87
533.992	2379.52
534.197	2440.17
534.402	2369.25
534.607	2378.36
534.813	2474.46
535.018	2391.15
535.223	2453.34
535.428	2460.32
535.633	2502.16
535.838	2523.48
536.043	2500.23
536.249	2617.44
536.454	2471.75
536.659	2542.08
536.864	2503.71
537.069	2468.26
537.274	2511.85
537.479	2500.61
537.684	2483.56
537.889	2436.1
538.094	2596.13
538.299	2540.53
538.504	2524.83
538.708	2532.39
538.913	2631.2
539.118	2498.1
539.323	2538.2
539.528	2445.98
539.733	2497.51
539.938	2558.35
540.142	2555.64
540.347	2467.48
540.552	2469.03
540.757	2461.87
540.962	2417.3
541.166	2379.14
541.371	2414.98
541.576	2444.23
541.781	2363.64
541.985	2517.47
542.19	2459.15
542.395	2602.53
542.599	2598.26
542.804	2557.38
543.008	2585.28
543.213	2514.56
543.418	2463.22
543.622	2555.06
543.827	2516.7
544.031	2539.17
544.236	2570.75
544.44	2579.47
544.645	2638.76
544.849	2549.05
545.054	2648.64
545.258	2675.18
545.463	2621.9
545.667	2556.61
545.872	2643.79
546.076	2591.29
546.281	2587.61
546.485	2588.58
546.689	2601.36
546.894	2640.11
547.098	2613.38
547.302	2527.74
547.507	2618.8
547.711	2632.17
547.915	2662.01
548.119	2544.21
548.324	2585.86
548.528	2643.02
548.732	2587.8
548.936	2612.02
549.141	2642.63
549.345	2597.29
549.549	2600.98
549.753	2645.73
549.957	2707.34
550.161	2723.81
550.366	2631.78
550.57	2614.34
550.774	2586.44
550.978	2668.01
551.182	2622.48
551.386	2602.91
551.59	2597.68
551.794	2590.71
551.998	2606.21
552.202	2571.14
552.406	2595.55
552.61	2650.19
552.814	2616.09
553.018	2705.41
553.222	2619.96
553.426	2626.94
553.63	2674.41
553.833	2600.59
554.037	2532
554.241	2631.78
554.445	2613.96
554.649	2630.23
554.853	2569.4
555.056	2666.66
555.26	2697.07
555.464	2648.64
555.668	2653.09
555.871	2704.44
556.075	2676.15
556.279	2596.13
556.483	2595.16
556.686	2633.53
556.89	2549.83
557.094	2619.58
557.297	2522.12
557.501	2602.91
557.704	2507.4
557.908	2557.77
558.112	2518.63
558.315	2588.38
558.519	2553.9
558.722	2540.72
558.926	2490.15
559.129	2463.8
559.333	2489.96
559.536	2423.31
559.74	2408.39
559.943	2418.08
560.147	2443.46
560.35	2479.88
560.553	2441.13
560.757	2407.42
560.96	2533.36
561.164	2483.76
561.367	2598.65
561.57	2473.3
561.774	2530.84
561.977	2465.55
562.18	2475.43
562.384	2568.23
562.587	2473.1
562.79	2439.58
562.993	2420.98
563.197	2463.22
563.4	2519.6
563.603	2542.85
563.806	2555.83
564.009	2406.07
564.212	2453.53
564.416	2368.09
564.619	2428.73
564.822	2377.78
565.025	2488.99
565.228	2416.33
565.431	2422.53
565.634	2309
565.837	2352.59
566.04	2372.16
566.243	2339.03
566.446	2258.04
566.649	2389.4
566.852	2273.54
567.055	2309.58
567.258	2380.88
567.461	2402.77
567.664	2405.68
567.867	2291.37
568.07	2327.79
568.273	2322.17
568.475	2405.87
568.678	2307.26
568.881	2272.38
569.084	2324.69
569.287	2176.28
569.489	2253.97
569.692	2280.71
569.895	2282.07
570.098	2203.41
570.3	2211.93
570.503	2164.46
570.706	2164.27
570.909	2190.04
571.111	2133.66
571.314	2105.95
571.516	2107.89
571.719	2150.13
571.922	2125.52
572.124	2118.74
572.327	2180.35
572.529	2102.27
572.732	2147.61
572.935	2170.86
573.137	2247.39
573.34	2142.18
573.542	2178.99
573.745	2172.99
573.947	2180.16
574.15	2141.41
574.352	2096.65
574.554	2212.32
574.757	2123.2
574.959	2080.57
575.162	2137.34
575.364	2084.06
575.566	2180.54
575.769	2060.81
575.971	2105.95
576.173	1975.95
576.376	2071.66
576.578	2129.2
576.78	2128.04
576.982	2005.98
577.185	2068.17
577.387	2014.31
577.589	2008.88
577.791	2117.19
577.993	2082.7
578.196	2059.45
578.398	2061.39
578.6	2065.26
578.802	1986.99
579.004	1963.74
579.206	1988.15
579.408	2064.68
579.61	2008.11
579.812	2078.83
580.014	1985.44
580.216	2011.6
580.418	1987.18
580.62	1988.15
580.822	1937.78
581.024	2022.64
581.226	1991.45
581.428	1965.48
581.63	2037.56
581.832	1964.71
582.034	2062.75
582.236	1994.93
582.438	2061.2
582.64	2078.25
582.841	2054.03
583.043	2157.88
583.245	1983.12
583.447	2034.65
583.649	2000.17
583.85	2007.72
584.052	2050.35
584.254	1960.25
584.456	2071.66
584.657	1981.95
584.859	2019.35
585.061	1997.84
585.262	1962.77
585.464	1955.02
585.666	2038.33
585.867	1944.56
586.069	2006.17
586.27	1961.42
586.472	1933.9
586.674	1913.75
586.875	1882.75
587.077	1930.42
587.278	1945.34
587.48	1924.02
587.681	2024
587.883	1967.62
588.084	1901.74
588.285	1901.94
588.487	1901.55
588.688	1895.54
588.89	1833.16
589.091	1789.95
589.292	1814.75
589.494	1735.31
589.695	1691.14
589.896	1622.75
590.098	1666.73
590.299	1695.98
590.5	1666.92
590.702	1728.73
590.903	1738.41
591.104	1825.99
591.305	1836.64
591.507	1864.93
591.708	1793.82
591.909	1770.19
592.11	1874.04
592.311	1851.56
592.512	1765.93
592.714	1744.03
592.915	1782.98
593.116	1782.78
593.317	1793.44
593.518	1787.82
593.719	1779.1
593.92	1807.39
594.121	1868.81
594.322	1796.15
594.523	1800.22
594.724	1770.58
594.925	1771.16
595.126	1792.47
595.327	1830.25
595.528	1831.02
595.729	1770.96
595.929	1765.54
596.13	1819.98
596.331	1804.29
596.532	1798.86
596.733	1878.49
596.934	1823.47
597.135	1862.02
597.335	1812.23
597.536	1766.7
597.737	1784.52
597.938	1753.14
598.138	1839.94
598.339	1757.59
598.54	1815.72
598.74	1728.14
598.941	1787.62
599.142	1876.36
599.342	1799.64
599.543	1752.17
599.744	1776.58
599.944	1779.1
600.145	1779.88
600.345	1790.53
600.546	1845.75
600.746	1818.82
600.947	1837.81
601.147	1770.77
601.348	1813.2
601.548	1718.84
601.749	1730.86
601.949	1715.16
602.15	1742.87
602.35	1732.21
602.551	1766.12
602.751	1691.91
602.951	1734.54
603.152	1649.29
603.352	1768.64
603.552	1749.65
603.753	1792.27
603.953	1777.16
604.153	1776.78
604.354	1756.82
604.554	1756.63
604.754	1748.68
604.954	1678.16
605.155	1764.76
605.355	1746.74
605.555	1742.29
605.755	1811.26
605.955	1759.92
606.155	1785.88
606.356	1716.91
606.556	1743.26
606.756	1742.68
606.956	1708.58
607.156	1820.95
607.356	1671.18
607.556	1743.84
607.756	1716.91
607.956	1764.18
608.156	1715.74
608.356	1650.65
608.556	1725.43
608.756	1742.29
608.956	1710.32
609.156	1696.95
609.356	1671.57
609.556	1610.35
609.755	1695.98
609.955	1667.89
610.155	1670.02
610.355	1693.66
610.555	1653.94
610.755	1643.09
610.954	1605.31
611.154	1679.9
611.354	1709.74
611.554	1593.88
611.753	1676.41
611.953	1608.02
612.153	1688.43
612.352	1675.45
612.552	1584.19
612.752	1563.85
612.951	1619.65
613.151	1618.29
613.351	1594.46
613.55	1608.22
613.75	1636.5
613.949	1592.52
614.149	1588.45
614.348	1589.62
