Data from gum_old_FLMT105791__198__15-48-25-249.txt Node

Date: Mon Mar 20 15:48:25 GMT 2023
User: antho
Spectrometer: FLMT10579
Trigger mode: 0
Integration Time (sec): 1.000000E-1
Scans to average: 10
Electric dark correction enabled: true
Nonlinearity correction enabled: false
Boxcar width: 0
XAxis mode: Wavelengths
Number of Pixels in Spectrum: 3648
>>>>>Begin Spectral Data<<<<<
345.248	-164.41
345.464	-164.41
345.681	-164.41
345.898	-212.46
346.114	-199.87
346.331	-59.21
346.548	40.96
346.764	4.92
346.981	-10.77
347.197	-18.52
347.414	13.45
347.631	-13.29
347.847	66.92
348.064	0.47
348.28	12.09
348.497	-33.83
348.713	-3.21
348.93	43.67
349.146	50.07
349.363	18.49
349.579	24.3
349.796	-7.09
350.012	8.61
350.229	44.26
350.445	4.15
350.661	8.99
350.878	16.74
351.094	33.99
351.311	29.53
351.527	22.36
351.743	0.47
351.96	71.19
352.176	64.79
352.392	54.14
352.609	52.2
352.825	-1.28
353.041	26.24
353.257	42.71
353.474	26.62
353.69	34.37
353.906	16.55
354.122	17.52
354.339	86.1
354.555	42.9
354.771	27.79
354.987	83.59
355.203	92.69
355.42	5.51
355.636	-4.96
355.852	30.69
356.068	22.17
356.284	-15.23
356.5	95.6
356.716	44.84
356.932	36.31
357.148	45.61
357.364	14.42
357.58	63.05
357.796	84.17
358.012	89.01
358.228	45.03
358.444	-47.58
358.66	75.45
358.876	49.87
359.092	1.82
359.308	10.93
359.524	32.82
359.74	31.66
359.956	14.22
360.172	50.26
360.388	52.2
360.604	29.14
360.819	134.93
361.035	54.91
361.251	61.89
361.467	12.29
361.683	58.2
361.898	59.75
362.114	63.05
362.33	30.69
362.546	75.06
362.762	30.89
362.977	30.5
363.193	6.28
363.409	72.93
363.624	35.54
363.84	18.87
364.056	2.21
364.271	43.48
364.487	64.02
364.703	30.89
364.918	-8.44
365.134	34.18
365.35	33.6
365.565	172.71
365.781	58.2
365.996	72.74
366.212	124.66
366.427	73.12
366.643	15.77
366.858	39.99
367.074	39.22
367.289	102.57
367.505	162.44
367.72	6.09
367.936	32.05
368.151	73.51
368.367	97.34
368.582	61.11
368.798	40.96
369.013	73.51
369.228	46.77
369.444	56.65
369.659	122.53
369.874	90.75
370.09	122.14
370.305	-10.58
370.52	42.71
370.736	124.08
370.951	56.27
371.166	111.1
371.381	117.49
371.597	87.85
371.812	40.57
372.027	30.31
372.242	88.43
372.458	139.77
372.673	40.38
372.888	56.85
373.103	72.74
373.318	122.53
373.533	78.74
373.749	80.1
373.964	-32.08
374.179	126.99
374.394	20.04
374.609	121.17
374.824	-11.93
375.039	94.05
375.254	52.78
375.469	123.69
375.684	64.21
375.899	95.21
376.114	60.92
376.329	74.29
376.544	107.8
376.759	76.03
376.974	40.19
377.189	62.08
377.404	43.48
377.619	110.32
377.834	-10.38
378.049	28.76
378.264	38.64
378.478	93.08
378.693	55.1
378.908	85.52
379.123	74.09
379.338	113.04
379.553	80.87
379.767	81.07
379.982	97.92
380.197	83
380.412	72.54
380.626	92.11
380.841	146.17
381.056	95.79
381.271	145.58
381.485	56.65
381.7	48.13
381.915	87.65
382.129	54.72
382.344	62.85
382.559	53.94
382.773	146.94
382.988	-4.96
383.202	44.26
383.417	26.43
383.632	158.57
383.846	51.23
384.061	77
384.275	59.37
384.49	74.87
384.704	86.88
384.919	68.86
385.133	95.79
385.348	108.58
385.562	60.92
385.777	132.99
385.991	74.48
386.206	76.42
386.42	62.85
386.634	131.25
386.849	116.33
387.063	84.55
387.277	60.92
387.492	79.13
387.706	24.88
387.92	31.86
388.135	142.68
388.349	108.19
388.563	96.57
388.778	123.11
388.992	110.52
389.206	120.98
389.42	187.43
389.635	89.4
389.849	150.82
390.063	125.24
390.277	101.8
390.491	176.39
390.706	113.23
390.92	160.89
391.134	116.72
391.348	140.93
391.562	80.68
391.776	106.25
391.99	97.15
392.205	149.65
392.419	106.64
392.633	130.28
392.847	161.28
393.061	80.29
393.275	154.3
393.489	110.71
393.703	106.25
393.917	122.53
394.131	77.58
394.345	116.91
394.559	117.1
394.773	95.6
394.986	122.53
395.2	122.53
395.414	141.9
395.628	96.37
395.842	146.55
396.056	115.36
396.27	81.84
396.484	144.23
396.697	147.33
396.911	151.2
397.125	119.82
397.339	120.79
397.553	122.53
397.766	203.13
397.98	158.95
398.194	173.48
398.408	137.25
398.621	192.67
398.835	208.36
399.049	173.87
399.262	239.16
399.476	209.52
399.69	202.93
399.903	267.06
400.117	211.07
400.331	204.1
400.544	207.39
400.758	333.13
400.971	195.57
401.185	244.98
401.398	177.36
401.612	284.89
401.826	246.14
402.039	259.51
402.253	211.65
402.466	264.74
402.68	244.4
402.893	257.18
403.106	244.59
403.32	215.53
403.533	265.9
403.747	204.87
403.96	227.54
404.174	258.15
404.387	197.32
404.6	237.23
404.814	278.69
405.027	226.76
405.24	229.48
405.454	228.7
405.667	277.91
405.88	178.72
406.094	256.6
406.307	282.37
406.52	255.83
406.733	193.05
406.947	165.15
407.16	299.23
407.373	285.28
407.586	216.11
407.799	213.2
408.012	269.2
408.226	260.28
408.439	320.34
408.652	194.6
408.865	298.45
409.078	321.89
409.291	289.93
409.504	216.3
409.717	291.86
409.93	288.38
410.143	260.86
410.357	199.25
410.57	216.3
410.783	252.73
410.996	245.56
411.209	277.14
411.421	294.58
411.634	305.62
411.847	273.65
412.06	297.29
412.273	304.46
412.486	308.14
412.699	393.19
412.912	309.69
413.125	283.92
413.338	295.16
413.55	338.17
413.763	316.66
413.976	337.59
414.189	280.63
414.402	298.26
414.615	372.85
414.827	282.18
415.04	343.01
415.253	307.75
415.466	346.5
415.678	395.91
415.891	330.23
416.104	322.09
416.316	317.83
416.529	307.75
416.742	361.61
416.954	370.91
417.167	358.51
417.38	320.34
417.592	384.67
417.805	299.42
418.017	277.91
418.23	350.18
418.442	301.75
418.655	324.61
418.868	330.81
419.08	368.01
419.293	396.88
419.505	336.43
419.718	329.64
419.93	406.17
420.142	361.61
420.355	397.46
420.567	381.38
420.78	350.76
420.992	340.49
421.205	402.69
421.417	326.35
421.629	341.85
421.842	318.99
422.054	314.53
422.266	387.38
422.479	412.18
422.691	349.79
422.903	391.84
423.115	317.05
423.328	316.47
423.54	356.96
423.752	379.05
423.964	359.48
424.177	342.82
424.389	364.71
424.601	498.01
424.813	373.63
425.025	427.1
425.238	422.06
425.45	373.63
425.662	352.7
425.874	708.81
426.086	370.14
426.298	386.22
426.51	374.01
426.722	379.24
426.934	372.66
427.146	408.31
427.358	339.14
427.57	422.64
427.782	358.71
427.994	359.68
428.206	327.13
428.418	353.09
428.63	434.85
428.842	435.43
429.054	402.3
429.266	414.12
429.478	352.51
429.69	394.55
429.902	329.45
430.114	388.74
430.325	388.74
430.537	347.66
430.749	339.53
430.961	263.38
431.173	321.7
431.384	345.14
431.596	249.63
431.808	324.61
432.02	379.24
432.231	427.49
432.443	486.77
432.655	445.7
432.867	411.79
433.078	481.93
433.29	524.75
433.502	476.51
433.713	513.12
433.925	483.48
434.136	498.79
434.348	402.69
434.56	392.42
434.771	534.24
434.983	378.28
435.194	446.09
435.406	451.9
435.617	536.95
435.829	537.15
436.04	524.94
436.252	529.59
436.463	523
436.675	561.95
436.886	545.67
437.098	547.42
437.309	577.64
437.521	535.79
437.732	513.7
437.943	527.46
438.155	499.95
438.366	465.27
438.578	570.28
438.789	494.33
439	516.22
439.211	489.49
439.423	504.4
439.634	541.41
439.845	563.3
440.057	548.19
440.268	570.67
440.479	527.07
440.69	583.07
440.902	504.21
441.113	486.58
441.324	518.35
441.535	584.23
441.746	621.23
441.957	531.92
442.168	552.45
442.38	594.5
442.591	629.95
442.802	578.42
443.013	588.68
443.224	619.88
443.435	594.69
443.646	569.12
443.857	574.93
444.068	591.78
444.279	584.81
444.49	670.64
444.701	645.26
444.912	738.84
445.123	667.15
445.334	675.87
445.545	623.37
445.756	597.4
445.967	560.4
446.178	641.58
446.388	671.03
446.599	623.56
446.81	644.1
447.021	604.57
447.232	658.43
447.443	684.01
447.653	636.73
447.864	698.35
448.075	673.93
448.286	691.18
448.496	657.66
448.707	705.13
448.918	647.78
449.129	733.22
449.339	630.53
449.55	671.03
449.761	666.18
449.971	711.52
450.182	647.97
450.393	700.28
450.603	674.32
450.814	753.76
451.024	725.08
451.235	778.94
451.446	763.25
451.656	785.73
451.867	712.68
452.077	728.57
452.288	772.74
452.498	787.47
452.709	701.83
452.919	712.88
453.13	685.95
453.34	738.06
453.55	641.77
453.761	725.08
453.971	706.29
454.182	721.6
454.392	729.73
454.602	826.61
454.813	724.5
455.023	745.62
455.233	670.06
455.444	739.42
455.654	657.27
455.864	718.11
456.075	707.06
456.285	688.46
456.495	736.71
456.705	767.51
456.916	800.06
457.126	827.38
457.336	730.9
457.546	682.65
457.756	722.37
457.967	794.25
458.177	751.63
458.387	785.92
458.597	699.9
458.807	748.33
459.017	701.06
459.227	722.95
459.437	741.16
459.647	758.79
459.857	802.97
460.068	731.09
460.278	805.29
460.488	768.48
460.698	845.01
460.908	764.8
461.117	729.73
461.327	767.32
461.537	804.13
461.747	820.02
461.957	810.53
462.167	949.44
462.377	819.24
462.587	806.65
462.797	857.22
463.007	830.09
463.216	888.41
463.426	887.25
463.636	843.27
463.846	784.56
464.056	785.34
464.265	850.63
464.475	777.98
464.685	815.37
464.895	876.59
465.104	792.12
465.314	843.66
465.524	797.74
465.733	802.58
465.943	925.22
466.153	890.35
466.362	925.8
466.572	864.39
466.782	818.86
466.991	821.18
467.201	888.61
467.41	747.56
467.62	834.36
467.829	850.24
468.039	865.55
468.249	848.69
468.458	869.23
468.668	867.29
468.877	911.47
469.086	947.89
469.296	914.76
469.505	909.53
469.715	957.39
469.924	906.43
470.134	965.52
470.343	977.73
470.552	865.94
470.762	901.78
470.971	879.69
471.18	897.91
471.39	933.75
471.599	866.13
471.808	943.05
472.018	949.44
472.227	982.38
472.436	991.68
472.645	948.47
472.855	971.53
473.064	1044.38
473.273	1018.22
473.482	1021.13
473.691	1053.29
473.901	1023.26
474.11	990.9
474.319	1126.72
474.528	1010.47
474.737	1081.77
474.946	1088.36
475.155	1085.26
475.364	1120.13
475.573	1083.13
475.783	1107.35
475.992	1132.92
476.201	1130.79
476.41	1058.91
476.619	1012.02
476.828	1096.3
477.037	1063.56
477.245	1069.76
477.454	1145.13
477.663	1121.88
477.872	1127.69
478.081	1218.36
478.29	1119.55
478.499	1266.03
478.708	1187.36
478.917	1229.41
479.125	1168.76
479.334	1201.12
479.543	1145.9
479.752	1214.49
479.961	1232.31
480.169	1246.07
480.378	1192.01
480.587	1384.99
480.796	1276.1
481.004	1228.05
481.213	1283.85
481.422	1291.99
481.63	1307.49
481.839	1341.2
482.048	1348.56
482.256	1295.67
482.465	1344.11
482.674	1379.17
482.882	1354.37
483.091	1427.61
483.299	1362.9
483.508	1380.53
483.716	1360.57
483.925	1366.97
484.134	1349.14
484.342	1362.51
484.551	1415.02
484.759	1400.68
484.967	1420.64
485.176	1401.65
485.384	1416.95
485.593	1430.32
485.801	1430.71
486.01	1343.52
486.218	1291.6
486.426	1219.14
486.635	1201.31
486.843	1183.3
487.051	1246.46
487.26	1245.49
487.468	1277.84
487.676	1349.14
487.885	1295.86
488.093	1349.92
488.301	1422.19
488.509	1427.8
488.717	1479.53
488.926	1445.44
489.134	1421.8
489.342	1449.7
489.55	1393.12
489.758	1478.95
489.967	1477.6
490.175	1623.68
490.383	1498.91
490.591	1592.88
490.799	1487.28
491.007	1542.31
491.215	1570.6
491.423	1556.06
491.631	1542.11
491.839	1531.85
492.047	1586.1
492.255	1472.95
492.463	1478.37
492.671	1482.63
492.879	1610.31
493.087	1511.12
493.295	1555.29
493.503	1577.96
493.711	1640.15
493.919	1654.29
494.127	1631.43
494.334	1637.44
494.542	1565.56
494.75	1632.21
494.958	1629.3
495.166	1706.41
495.374	1698.47
495.581	1689.56
495.789	1701.38
495.997	1764.54
496.205	1644.03
496.412	1657.78
496.62	1671.54
496.828	1681.23
497.035	1683.36
497.243	1724.43
497.451	1713
497.658	1699.83
497.866	1721.52
498.074	1787.01
498.281	1690.72
498.489	1831.19
498.696	1687.23
498.904	1670.57
499.112	1677.93
499.319	1755.82
499.527	1715.52
499.734	1761.44
499.942	1634.14
500.149	1662.24
500.357	1777.91
500.564	1654.49
500.771	1697.5
500.979	1681.61
501.186	1639.57
501.394	1676.77
501.601	1662.82
501.808	1711.45
502.016	1673.28
502.223	1677.35
502.43	1726.56
502.638	1679.09
502.845	1695.18
503.052	1786.04
503.26	1725.79
503.467	1801.15
503.674	1719.59
503.881	1776.36
504.089	1829.83
504.296	1745.94
504.503	1667.47
504.71	1750.97
504.917	1713
505.125	1757.95
505.332	1797.67
505.539	1802.51
505.746	1868
505.953	1864.12
506.16	1862.19
506.367	1908.68
506.574	1951.12
506.781	1942.01
506.988	1863.54
507.195	1897.64
507.402	1875.17
507.609	1933.48
507.816	1850.17
508.023	1870.71
508.23	1828.09
508.437	1780.81
508.644	1872.45
508.851	1923.22
509.058	1899.97
509.265	1914.88
509.472	1923.6
509.679	2008.27
509.885	1900.16
510.092	1944.92
510.299	1926.32
510.506	1924.18
510.713	1960.42
510.92	1916.24
511.126	1953.63
511.333	1993.74
511.54	1941.62
511.746	2029.39
511.953	2021.06
512.16	2055.93
512.367	1964.87
512.573	1994.32
512.78	1989.86
512.987	1943.37
513.193	1919.53
513.4	1871.1
513.606	1981.53
513.813	1981.15
514.02	1970.88
514.226	2022.61
514.433	2016.6
514.639	1915.47
514.846	1967.97
515.052	1958.09
515.259	1998.39
515.465	1989.86
515.672	1978.24
515.878	2121.61
516.085	2033.07
516.291	2085.38
516.497	2057.87
516.704	1992.58
516.91	1938.52
517.117	1874.39
517.323	1802.51
517.529	1816.85
517.736	1803.48
517.942	1799.41
518.148	1835.84
518.354	1915.85
518.561	1940.85
518.767	1898.42
518.973	1950.92
519.179	1973.2
519.386	1966.23
519.592	1968.55
519.798	1947.24
520.004	2082.67
520.21	2048.76
520.417	2100.3
520.623	2142.73
520.829	2167.14
521.035	2140.79
521.241	2163.27
521.447	2192.91
521.653	2292.69
521.859	2164.82
522.065	2213.45
522.271	2301.41
522.477	2257.24
522.683	2300.25
522.889	2237.09
523.095	2206.47
523.301	2231.08
523.507	2160.94
523.713	2207.83
523.919	2174.31
524.125	2297.34
524.331	2303.35
524.537	2362.05
524.742	2355.66
524.948	2388.98
525.154	2411.46
525.36	2529.45
525.566	2410.1
525.772	2420.37
525.977	2326.02
526.183	2388.98
526.389	2443.23
526.595	2328.15
526.8	2354.3
527.006	2218.68
527.212	2160.75
527.417	2143.31
527.623	2125.49
527.829	2258.59
528.034	2277.97
528.24	2274.87
528.446	2298.5
528.651	2456.41
528.857	2427.93
529.062	2469
529.268	2485.66
529.473	2522.67
529.679	2522.09
529.884	2621.67
530.09	2580.6
530.295	2518.79
530.501	2512.59
530.706	2517.05
530.912	2453.7
531.117	2559.29
531.323	2559.68
531.528	2637.56
531.733	2646.28
531.939	2558.9
532.144	2587.96
532.35	2584.86
532.555	2635.62
532.76	2584.48
532.966	2553.67
533.171	2539.91
533.376	2452.53
533.581	2455.63
533.787	2544.95
533.992	2561.61
534.197	2606.37
534.402	2577.69
534.607	2613.15
534.813	2689.49
535.018	2567.81
535.223	2603.66
535.428	2636.59
535.633	2671.27
535.838	2686.97
536.043	2670.11
536.249	2780.16
536.454	2716.03
536.659	2738.12
536.864	2658.1
537.069	2695.88
537.274	2668.76
537.479	2667.79
537.684	2695.1
537.889	2625.94
538.094	2786.17
538.299	2653.26
538.504	2706.15
538.708	2724.94
538.913	2722.04
539.118	2700.14
539.323	2736.76
539.528	2670.11
539.733	2688.71
539.938	2670.5
540.142	2668.37
540.347	2643.18
540.552	2620.9
540.757	2629.23
540.962	2636.98
541.166	2577.5
541.371	2581.96
541.576	2642.02
541.781	2532.74
541.985	2676.5
542.19	2667.59
542.395	2761.17
542.599	2796.43
542.804	2732.69
543.008	2791.98
543.213	2700.92
543.418	2655
543.622	2744.9
543.827	2657.32
544.031	2774.54
544.236	2799.92
544.44	2764.08
544.645	2816.97
544.849	2761.95
545.054	2838.09
545.258	2873.74
545.463	2840.8
545.667	2741.22
545.872	2822.98
546.076	2812.52
546.281	2775.51
546.485	2807.48
546.689	2820.27
546.894	2846.81
547.098	2758.46
547.302	2732.69
547.507	2801.86
547.711	2835.96
547.915	2823.56
548.119	2744.51
548.324	2753.42
548.528	2857.66
548.732	2782.29
548.936	2846.03
549.141	2852.23
549.345	2781.13
549.549	2781.13
549.753	2789.07
549.957	2881.68
550.161	2865.21
550.366	2801.28
550.57	2816.78
550.774	2793.72
550.978	2825.3
551.182	2873.74
551.386	2772.6
551.59	2800.31
551.794	2770.28
551.998	2808.25
552.202	2812.52
552.406	2787.91
552.61	2842.35
552.814	2837.32
553.018	2918.69
553.222	2812.32
553.426	2826.08
553.63	2906.29
553.833	2850.49
554.037	2768.53
554.241	2834.99
554.445	2827.43
554.649	2803.22
554.853	2791.01
555.056	2886.72
555.26	2862.31
555.464	2862.11
555.668	2881.1
555.871	2873.55
556.075	2881.68
556.279	2816.39
556.483	2755.94
556.686	2832.86
556.89	2792.95
557.094	2820.27
557.297	2726.88
557.501	2791.4
557.704	2689.1
557.908	2771.83
558.112	2709.05
558.315	2801.08
558.519	2753.42
558.722	2742.38
558.926	2703.05
559.129	2639.11
559.333	2636.79
559.536	2649.38
559.74	2626.32
559.943	2627.87
560.147	2579.44
560.35	2646.67
560.553	2685.61
560.757	2580.79
560.96	2710.41
561.164	2659.46
561.367	2787.52
561.57	2716.42
561.774	2720.1
561.977	2679.6
562.18	2645.31
562.384	2731.92
562.587	2634.85
562.79	2641.63
562.993	2660.81
563.197	2686.58
563.4	2719.9
563.603	2732.3
563.806	2743.74
564.009	2663.14
564.212	2679.99
564.416	2557.54
564.619	2633.69
564.822	2614.31
565.025	2654.03
565.228	2601.14
565.431	2660.42
565.634	2531.78
565.837	2602.3
566.04	2511.24
566.243	2533.33
566.446	2430.64
566.649	2567.04
566.852	2451.95
567.055	2506.59
567.258	2553.48
567.461	2594.94
567.664	2575.95
567.867	2483.92
568.07	2517.05
568.273	2543.01
568.475	2607.72
568.678	2537.39
568.881	2532.55
569.084	2518.41
569.287	2390.73
569.489	2430.06
569.692	2479.27
569.895	2524.61
570.098	2388.4
570.3	2438.2
570.503	2353.72
570.706	2381.23
570.909	2376.2
571.111	2327.37
571.314	2312.65
571.516	2359.92
571.719	2363.8
571.922	2337.06
572.124	2323.11
572.327	2379.88
572.529	2282.04
572.732	2345.97
572.935	2368.25
573.137	2462.03
573.34	2347.52
573.542	2361.28
573.745	2397.32
573.947	2407.78
574.15	2380.07
574.352	2355.85
574.554	2432.96
574.757	2312.26
574.959	2284.36
575.162	2308.58
575.364	2275.06
575.566	2411.85
575.769	2248.71
575.971	2268.86
576.173	2156.49
576.376	2244.06
576.578	2296.37
576.78	2334.54
576.982	2204.92
577.185	2264.6
577.387	2244.45
577.589	2231.47
577.791	2289.4
577.993	2316.91
578.196	2258.4
578.398	2278.74
578.6	2270.6
578.802	2178.57
579.004	2168.5
579.206	2152.61
579.408	2237.67
579.61	2177.41
579.812	2246.39
580.014	2203.76
580.216	2206.28
580.418	2208.41
580.62	2213.06
580.822	2158.04
581.024	2252.2
581.226	2196.21
581.428	2213.45
581.63	2306.84
581.832	2185.36
582.034	2239.6
582.236	2185.94
582.438	2275.84
582.64	2274.48
582.841	2326.4
583.043	2343.45
583.245	2216.55
583.447	2260.53
583.649	2231.47
583.85	2217.91
584.052	2290.56
584.254	2185.55
584.456	2231.08
584.657	2187.68
584.859	2242.12
585.061	2195.24
585.262	2180.32
585.464	2091.39
585.666	2202.02
585.867	2132.46
586.069	2208.41
586.27	2180.9
586.472	2164.04
586.674	2173.15
586.875	2120.64
587.077	2134.01
587.278	2163.27
587.48	2157.07
587.681	2255.49
587.883	2157.65
588.084	2090.23
588.285	2107.47
588.487	2123.74
588.688	2122.58
588.89	2074.73
589.091	2002.46
589.292	1945.69
589.494	1945.11
589.695	1917.4
589.896	1857.73
590.098	1828.86
590.299	1901.71
590.5	1910.04
590.702	1913.33
590.903	1954.41
591.104	2026.29
591.305	2002.46
591.507	2043.53
591.708	2032.68
591.909	2014.28
592.11	2104.37
592.311	2027.26
592.512	1977.27
592.714	1908.88
592.915	1970.3
593.116	1965.26
593.317	1989.28
593.518	1992.19
593.719	1987.35
593.92	2045.86
594.121	2060.58
594.322	2021.25
594.523	2010.01
594.724	1940.46
594.925	2003.43
595.126	1985.6
595.327	1954.22
595.528	1984.83
595.729	2019.31
595.929	1990.64
596.13	2005.95
596.331	2001.68
596.532	2022.8
596.733	2073.95
596.934	2057.1
597.135	2022.22
597.335	2038.3
597.536	1978.24
597.737	1982.31
597.938	1964.1
598.138	2004.59
598.339	1958.48
598.54	2008.66
598.74	1966.81
598.941	1990.45
599.142	2004.98
599.342	1982.5
599.543	1968.17
599.744	1939.68
599.944	1990.64
600.145	2014.66
600.345	1986.38
600.546	2028.42
600.746	1992.77
600.947	2056.51
601.147	1966.03
601.348	2030.55
601.548	1940.07
601.749	1957.32
601.949	1921.86
602.15	1915.47
602.35	1901.32
602.551	2005.75
602.751	1915.27
602.951	1901.13
603.152	1877.69
603.352	1976.88
603.552	1970.3
603.753	1977.27
603.953	1998.97
604.153	2002.07
604.354	1948.4
604.554	1969.33
604.754	1951.7
604.954	1883.89
605.155	1970.68
605.355	1978.63
605.555	1982.5
605.755	2013.31
605.955	1947.43
606.155	2004.78
606.356	1963.32
606.556	1978.43
606.756	1957.9
606.956	1878.85
607.156	1962.93
607.356	1866.45
607.556	1938.91
607.756	1932.13
607.956	1995.87
608.156	1935.62
608.356	1886.4
608.556	1934.07
608.756	1914.88
608.956	1861.02
609.156	1906.94
609.356	1859.09
609.556	1830.41
609.755	1888.53
609.955	1862.57
610.155	1861.99
610.355	1884.27
610.555	1808.32
610.755	1857.73
610.954	1775.19
611.154	1853.47
611.354	1860.05
611.554	1851.53
611.753	1852.3
611.953	1812.39
612.153	1829.64
612.352	1865.48
612.552	1804.06
612.752	1737.61
612.951	1819.95
613.151	1827.7
613.351	1768.8
613.55	1800.38
613.75	1796.89
613.949	1768.61
614.149	1807.55
614.348	1739.54
