Data from gum_old_FLMT105791__67__15-43-55-257.txt Node

Date: Mon Mar 20 15:43:55 GMT 2023
User: antho
Spectrometer: FLMT10579
Trigger mode: 0
Integration Time (sec): 1.000000E-1
Scans to average: 10
Electric dark correction enabled: true
Nonlinearity correction enabled: false
Boxcar width: 0
XAxis mode: Wavelengths
Number of Pixels in Spectrum: 3648
>>>>>Begin Spectral Data<<<<<
345.248	-173.73
345.464	-173.73
345.681	-173.73
345.898	-152.03
346.114	-174.5
346.331	-39.85
346.548	32.03
346.764	2.58
346.981	-8.07
347.197	-0.13
347.414	29.71
347.631	-15.63
347.847	55.86
348.064	-4
348.28	25.25
348.497	-61.16
348.713	-16.6
348.93	6.07
349.146	53.93
349.363	28.55
349.579	15.18
349.796	13.63
350.012	24.28
350.229	58.58
350.445	18.47
350.661	14.21
350.878	34.36
351.094	20.02
351.311	40.75
351.527	46.18
351.743	19.05
351.96	72.53
352.176	58.58
352.392	58.77
352.609	46.76
352.825	19.83
353.041	15.76
353.257	27.58
353.474	21.57
353.69	40.56
353.906	40.36
354.122	-1.29
354.339	70.39
354.555	18.28
354.771	8.2
354.987	79.5
355.203	107.98
355.42	8.59
355.636	23.12
355.852	0.06
356.068	43.66
356.284	-15.24
356.5	95.19
356.716	61.29
356.932	43.85
357.148	73.88
357.364	1.81
357.58	98.49
357.796	64.39
358.012	38.62
358.228	49.08
358.444	-34.03
358.66	89.19
358.876	34.16
359.092	22.93
359.308	29.51
359.524	49.86
359.74	21.18
359.956	32.42
360.172	17.5
360.388	73.49
360.604	-9.82
360.819	118.83
361.035	29.13
361.251	64.19
361.467	11.5
361.683	64.58
361.898	58.58
362.114	57.22
362.33	77.56
362.546	87.44
362.762	32.61
362.977	32.81
363.193	14.4
363.409	78.92
363.624	29.32
363.84	32.61
364.056	38.43
364.271	44.43
364.487	66.52
364.703	37.46
364.918	9.56
365.134	43.46
365.35	36.1
365.565	142.47
365.781	61.87
365.996	89.96
366.212	97.71
366.427	89.38
366.643	46.37
366.858	33.78
367.074	43.66
367.289	123.09
367.505	138.98
367.72	29.71
367.936	59.54
368.151	105.27
368.367	81.05
368.582	99.65
368.798	48.31
369.013	107.4
369.228	70.01
369.444	82.02
369.659	85.7
369.874	79.69
370.09	128.13
370.305	-13.5
370.52	42.88
370.736	155.84
370.951	72.33
371.166	101.2
371.381	110.69
371.597	109.34
371.812	35.71
372.027	50.83
372.242	59.54
372.458	134.91
372.673	34.55
372.888	58.19
373.103	70.39
373.318	154.09
373.533	85.31
373.749	64.78
373.964	1.03
374.179	99.26
374.394	39.98
374.609	88.8
374.824	28.35
375.039	93.84
375.254	65.55
375.469	104.88
375.684	68.84
375.899	98.29
376.114	70.78
376.329	93.64
376.544	107.79
376.759	122.71
376.974	75.82
377.189	67.88
377.404	84.93
377.619	119.61
377.834	12.27
378.049	47.53
378.264	58.96
378.478	71.56
378.693	72.53
378.908	121.74
379.123	114.76
379.338	118.44
379.553	99.65
379.767	72.53
379.982	92.29
380.197	87.44
380.412	86.28
380.626	116.89
380.841	150.8
381.056	118.64
381.271	147.89
381.485	60.51
381.7	57.03
381.915	104.3
382.129	75.04
382.344	100.43
382.559	99.07
382.773	137.82
382.988	17.7
383.202	87.25
383.417	33.97
383.632	157.77
383.846	60.32
384.061	92.87
384.275	74.85
384.49	72.14
384.704	117.67
384.919	105.27
385.133	84.34
385.348	105.27
385.562	69.62
385.777	117.28
385.991	103.91
386.206	74.08
386.42	63.23
386.634	135.49
386.849	128.13
387.063	116.7
387.277	79.31
387.492	96.16
387.706	73.49
387.92	86.67
388.135	155.84
388.349	114.57
388.563	118.44
388.778	124.84
388.992	135.3
389.206	141.69
389.42	184.12
389.635	113.41
389.849	133.56
390.063	166.69
390.277	132.98
390.491	187.22
390.706	171.92
390.92	159.91
391.134	151.77
391.348	183.93
391.562	111.86
391.776	140.73
391.99	145.38
392.205	187.42
392.419	140.14
392.633	120.96
392.847	186.45
393.061	95
393.275	185.67
393.489	111.66
393.703	102.17
393.917	125.61
394.131	59.74
394.345	140.14
394.559	141.89
394.773	105.85
394.986	157.58
395.2	140.53
395.414	177.34
395.628	138.21
395.842	160.68
396.056	156.61
396.27	108.18
396.484	164.56
396.697	146.34
396.911	186.45
397.125	130.84
397.339	146.92
397.553	137.43
397.766	234.3
397.98	166.69
398.194	165.14
398.408	164.17
398.621	225.97
398.835	235.27
399.049	229.46
399.262	279.84
399.476	265.11
399.69	242.64
399.903	284.29
400.117	211.06
400.331	268.6
400.544	220.55
400.758	362.57
400.971	254.45
401.185	291.07
401.398	240.89
401.612	300.37
401.826	288.75
402.039	283.52
402.253	238.57
402.466	308.12
402.68	258.52
402.893	297.85
403.106	271.31
403.32	268.6
403.533	287.2
403.747	269.18
403.96	289.91
404.174	341.45
404.387	237.6
404.6	260.65
404.814	325.75
405.027	286.04
405.24	305.99
405.454	268.6
405.667	344.35
405.88	227.52
406.094	312
406.307	296.69
406.52	317.42
406.733	253.49
406.947	230.82
407.16	345.71
407.373	333.12
407.586	280.22
407.799	260.07
408.012	313.55
408.226	319.55
408.439	369.93
408.652	262.4
408.865	330.21
409.078	363.34
409.291	345.9
409.504	276.15
409.717	332.92
409.93	353.07
410.143	336.99
410.357	278.09
410.57	248.25
410.783	295.72
410.996	305.41
411.209	304.64
411.421	381.36
411.634	366.63
411.847	336.02
412.06	353.65
412.273	343.97
412.486	310.06
412.699	441.61
412.912	357.92
413.125	400.54
413.338	368.57
413.55	355.59
413.763	367.41
413.976	361.02
414.189	354.82
414.402	346.68
414.615	425.73
414.827	318.2
415.04	419.91
415.253	388.92
415.466	400.93
415.678	447.81
415.891	379.23
416.104	396.86
416.316	380.58
416.529	379.81
416.742	432.31
416.954	433.86
417.167	363.92
417.38	383.3
417.592	434.45
417.805	335.05
418.017	334.67
418.23	423.98
418.442	365.67
418.655	396.28
418.868	390.27
419.08	424.56
419.293	414.3
419.505	392.02
419.718	427.47
419.93	447.23
420.142	377.68
420.355	395.31
420.567	435.61
420.78	428.83
420.992	398.6
421.205	462.15
421.417	359.47
421.629	416.43
421.842	413.13
422.054	377.29
422.266	457.5
422.479	476.1
422.691	424.18
422.903	438.32
423.115	391.05
423.328	401.9
423.54	404.22
423.752	416.23
423.964	373.8
424.177	420.3
424.389	416.43
424.601	535.58
424.813	425.53
425.025	495.28
425.238	459.63
425.45	424.37
425.662	417.59
425.874	711.31
426.086	449.17
426.298	425.53
426.51	453.63
426.722	418.95
426.934	426.7
427.146	474.55
427.358	424.37
427.57	471.84
427.782	421.85
427.994	419.53
428.206	403.45
428.418	391.05
428.63	457.11
428.842	476.88
429.054	442.78
429.266	468.35
429.478	395.5
429.69	435.8
429.902	366.25
430.114	444.13
430.325	422.63
430.537	338.15
430.749	367.8
430.961	314.13
431.173	326.72
431.384	386.4
431.596	288.75
431.808	371.67
432.02	460.41
432.231	490.44
432.443	561.54
432.655	522.21
432.867	470.29
433.078	509.43
433.29	568.91
433.502	520.28
433.713	526.09
433.925	546.82
434.136	552.63
434.348	457.31
434.56	435.41
434.771	545.46
434.983	420.11
435.194	478.04
435.406	524.34
435.617	541.39
435.829	630.71
436.04	555.73
436.252	543.14
436.463	601.07
436.675	604.94
436.886	565.61
437.098	592.93
437.309	638.46
437.521	579.76
437.732	588.86
437.943	562.9
438.155	557.28
438.366	533.26
438.578	601.07
438.789	546.63
439	547.01
439.211	514.85
439.423	533.84
439.634	574.72
439.845	575.11
440.057	574.91
440.268	619.67
440.479	575.49
440.69	618.89
440.902	593.12
441.113	560.96
441.324	602.62
441.535	632.07
441.746	669.27
441.957	607.85
442.168	637.3
442.38	641.95
442.591	658.42
442.802	601.07
443.013	639.24
443.224	646.6
443.435	660.16
443.646	630.71
443.857	633.42
444.068	625.09
444.279	571.43
444.49	705.5
444.701	650.67
444.912	749.48
445.123	727
445.334	684.96
445.545	722.16
445.756	634.59
445.967	656.09
446.178	677.6
446.388	683.8
446.599	661.71
446.81	670.24
447.021	629.16
447.232	688.84
447.443	734.17
447.653	672.37
447.864	747.35
448.075	721.77
448.286	726.62
448.496	688.64
448.707	740.37
448.918	678.95
449.129	793.27
449.339	687.48
449.55	716.74
449.761	702.01
449.971	759.36
450.182	742.31
450.393	748.9
450.603	713.64
450.814	747.54
451.024	768.85
451.235	809.35
451.446	839.77
451.656	815.35
451.867	728.94
452.077	760.72
452.288	825.62
452.498	792.88
452.709	767.3
452.919	751.8
453.13	709.37
453.34	747.93
453.55	701.43
453.761	751.42
453.971	752
454.182	769.05
454.392	755.87
454.602	825.62
454.813	792.88
455.023	812.25
455.233	706.85
455.444	772.53
455.654	667.14
455.864	725.84
456.075	738.24
456.285	713.83
456.495	744.25
456.705	815.74
456.916	850.42
457.126	854.88
457.336	806.83
457.546	714.41
457.756	755.49
457.967	869.6
458.177	759.17
458.387	796.56
458.597	768.66
458.807	752.77
459.017	743.09
459.227	766.92
459.437	761.3
459.647	812.06
459.857	810.51
460.068	770.6
460.278	840.73
460.488	836.28
460.698	846.16
460.908	795.78
461.117	748.51
461.327	800.24
461.537	833.76
461.747	846.93
461.957	826.2
462.167	947.49
462.377	881.42
462.587	829.69
462.797	882.58
463.007	852.94
463.216	900.02
463.426	928.7
463.636	885.49
463.846	798.11
464.056	850.61
464.265	860.69
464.475	822.13
464.685	841.7
464.895	875.8
465.104	845
465.314	881.61
465.524	828.92
465.733	816.71
465.943	932.57
466.153	937.8
466.362	933.54
466.572	876.19
466.782	830.66
466.991	862.63
467.201	937.8
467.41	786.1
467.62	894.6
467.829	849.26
468.039	907.58
468.249	894.79
468.458	880.45
468.668	904.67
468.877	920.75
469.086	955.63
469.296	958.34
469.505	878.9
469.715	998.25
469.924	935.48
470.134	995.54
470.343	987.01
470.552	940.32
470.762	884.33
470.971	877.16
471.18	934.12
471.39	919.4
471.599	887.43
471.808	944
472.018	940.9
472.227	1030.61
472.436	1037.97
472.645	1002.71
472.855	959.31
473.064	1084.08
473.273	1038.36
473.482	1063.35
473.691	1101.71
473.901	1051.92
474.11	995.15
474.319	1110.62
474.528	1030.02
474.737	1122.25
474.946	1095.51
475.155	1105.01
475.364	1111.79
475.573	1115.08
475.783	1145.5
475.992	1130.19
476.201	1154.6
476.41	1130.97
476.619	1070.13
476.828	1113.53
477.037	1081.76
477.245	1113.14
477.454	1143.56
477.663	1155.19
477.872	1155.96
478.081	1248.38
478.29	1129.42
478.499	1257.87
478.708	1240.05
478.917	1264.07
479.125	1199.94
479.334	1224.93
479.543	1195.48
479.752	1251.48
479.961	1249.73
480.169	1280.54
480.378	1227.45
480.587	1402.21
480.796	1309.41
481.004	1308.05
481.213	1290.42
481.422	1269.88
481.63	1321.81
481.839	1329.95
482.048	1388.26
482.256	1373.93
482.465	1397.18
482.674	1388.65
482.882	1381.68
483.091	1476.42
483.299	1340.21
483.508	1413.84
483.716	1405.7
483.925	1398.53
484.134	1345.06
484.342	1399.31
484.551	1393.49
484.759	1410.35
484.967	1444.26
485.176	1455.3
485.384	1474.67
485.593	1445.03
485.801	1442.9
486.01	1388.07
486.218	1336.73
486.426	1246.25
486.635	1230.94
486.843	1208.85
487.051	1264.27
487.26	1278.8
487.468	1327.23
487.676	1359.98
487.885	1360.56
488.093	1414.81
488.301	1467.31
488.509	1468.47
488.717	1510.71
488.926	1498.7
489.134	1471.38
489.342	1475.06
489.55	1416.36
489.758	1475.84
489.967	1508.19
490.175	1593.44
490.383	1560.12
490.591	1644.4
490.799	1561.09
491.007	1615.72
491.215	1585.11
491.423	1548.88
491.631	1559.92
491.839	1554.11
492.047	1597.9
492.255	1524.08
492.463	1496.18
492.671	1507.03
492.879	1592.67
493.087	1552.95
493.295	1576.2
493.503	1619.4
493.711	1664.55
493.919	1651.18
494.127	1645.56
494.334	1655.63
494.542	1594.8
494.75	1662.42
494.958	1628.9
495.166	1706.01
495.374	1695.16
495.581	1729.65
495.789	1704.65
495.997	1728.1
496.205	1666.29
496.412	1653.5
496.62	1654.47
496.828	1720.73
497.035	1685.08
497.243	1733.13
497.451	1740.3
497.658	1721.12
497.866	1710.66
498.074	1791.45
498.281	1686.05
498.489	1764.52
498.696	1712.98
498.904	1660.09
499.112	1676.95
499.319	1782.35
499.527	1733.71
499.734	1757.35
499.942	1704.46
500.149	1700.39
500.357	1771.5
500.564	1691.87
500.771	1719.96
500.979	1657.77
501.186	1686.44
501.394	1699.81
501.601	1671.52
501.808	1710.08
502.016	1702.91
502.223	1644.59
502.43	1700.39
502.638	1681.4
502.845	1679.27
503.052	1782.93
503.26	1709.88
503.467	1841.05
503.674	1759.29
503.881	1779.44
504.089	1839.5
504.296	1784.28
504.503	1671.72
504.71	1714.34
504.917	1692.45
505.125	1746.7
505.332	1771.88
505.539	1779.25
505.746	1875.15
505.953	1839.11
506.16	1869.14
506.367	1929.4
506.574	1928.62
506.781	1954.39
506.988	1845.7
507.195	1836.59
507.402	1848.61
507.609	1855
507.816	1820.32
508.023	1840.86
508.23	1796.1
508.437	1785.83
508.644	1838.73
508.851	1860.62
509.058	1921.65
509.265	1855.78
509.472	1894.52
509.679	1964.08
509.885	1898.21
510.092	1907.7
510.299	1903.63
510.506	1871.47
510.713	1893.36
510.92	1859.26
511.126	1899.95
511.333	1953.42
511.54	1904.21
511.746	1964.47
511.953	1987.14
512.16	2013.49
512.367	1949.16
512.573	1924.75
512.78	1970.86
512.987	1895.69
513.193	1892.39
513.4	1809.47
513.606	1911.77
513.813	1920.49
514.02	1864.11
514.226	1981.9
514.433	1948.97
514.639	1855.39
514.846	1848.41
515.052	1852.29
515.259	1911.96
515.465	1863.33
515.672	1900.14
515.878	1976.29
516.085	1959.62
516.291	1965.24
516.497	1898.4
516.704	1898.01
516.91	1805.98
517.117	1792.23
517.323	1695.74
517.529	1721.7
517.736	1692.83
517.942	1720.73
518.148	1757.55
518.354	1819.93
518.561	1815.86
518.767	1798.81
518.973	1864.11
519.179	1874.18
519.386	1798.62
519.592	1874.57
519.798	1838.34
520.004	1957.11
520.21	1941.61
520.417	1998.76
520.623	2026.08
520.829	2046.42
521.035	2017.36
521.241	2022.01
521.447	2013.87
521.653	2175.85
521.859	2013.1
522.065	2107.84
522.271	2170.23
522.477	2113.27
522.683	2161.7
522.889	2126.25
523.095	2075.29
523.301	2088.47
523.507	2051.07
523.713	2086.53
523.919	2027.63
524.125	2134.77
524.331	2125.67
524.537	2204.13
524.742	2207.23
524.948	2180.88
525.154	2206.85
525.36	2320.58
525.566	2213.43
525.772	2281.05
525.977	2180.11
526.183	2217.7
526.389	2264.58
526.595	2175.26
526.8	2202
527.006	2095.44
527.212	2028.6
527.417	2000.12
527.623	2022.01
527.829	2069.67
528.034	2133.61
528.24	2115.78
528.446	2140.2
528.651	2279.69
528.857	2226.61
529.062	2317.48
529.268	2249.47
529.473	2308.95
529.679	2295.97
529.884	2412.41
530.09	2343.63
530.295	2331.04
530.501	2351.19
530.706	2323.87
530.912	2305.08
531.117	2353.9
531.323	2350.8
531.528	2396.91
531.733	2399.62
531.939	2350.22
532.144	2375.99
532.35	2415.71
532.555	2427.14
532.76	2363.01
532.966	2375.79
533.171	2330.46
533.376	2316.51
533.581	2243.08
533.787	2319.22
533.992	2331.81
534.197	2367.07
534.402	2360.87
534.607	2384.12
534.813	2468.6
535.018	2378.12
535.223	2385.09
535.428	2365.72
535.633	2453.29
535.838	2445.35
536.043	2451.74
536.249	2572.25
536.454	2486.81
536.659	2492.04
536.864	2449.61
537.069	2457.75
537.274	2457.75
537.479	2447.09
537.684	2450.39
537.889	2379.28
538.094	2515.48
538.299	2452.52
538.504	2450.39
538.708	2478.87
538.913	2493.01
539.118	2461.43
539.323	2504.05
539.528	2423.65
539.733	2434.5
539.938	2485.26
540.142	2466.47
540.347	2395.75
540.552	2387.42
540.757	2398.66
540.962	2397.49
541.166	2341.69
541.371	2357
541.576	2380.44
541.781	2305.46
541.985	2432.56
542.19	2396.72
542.395	2497.66
542.599	2527.11
542.804	2480.61
543.008	2526.33
543.213	2437.21
543.418	2398.85
543.622	2513.16
543.827	2411.44
544.031	2537.38
544.236	2529.82
544.44	2505.02
544.645	2594.15
544.849	2518.39
545.054	2526.72
545.258	2607.13
545.463	2558.88
545.667	2487.78
545.872	2521.3
546.076	2563.34
546.281	2559.27
546.485	2486.62
546.689	2545.9
546.894	2580.39
547.098	2561.02
547.302	2484.49
547.507	2546.29
547.711	2583.1
547.915	2588.53
548.119	2511.42
548.324	2488.36
548.528	2582.52
548.732	2514.52
548.936	2548.42
549.141	2574
549.345	2552.68
549.549	2556.37
549.753	2565.47
549.957	2678.62
550.161	2634.06
550.366	2570.12
550.57	2546.87
550.774	2561.6
550.978	2552.3
551.182	2554.43
551.386	2539.9
551.59	2530.4
551.794	2559.27
551.998	2558.69
552.202	2542.8
552.406	2524.78
552.61	2611.39
552.814	2552.3
553.018	2635.61
553.222	2590.85
553.426	2562.18
553.63	2646.65
553.833	2537.18
554.037	2490.3
554.241	2554.82
554.445	2545.13
554.649	2561.21
554.853	2543.19
555.056	2587.75
555.26	2619.91
555.464	2630.38
555.668	2567.41
555.871	2609.06
556.075	2620.11
556.279	2549.97
556.483	2487.97
556.686	2533.89
556.89	2530.4
557.094	2505.6
557.297	2450.77
557.501	2579.23
557.704	2400.59
557.908	2501.15
558.112	2433.72
558.315	2566.25
558.519	2483.32
558.722	2457.94
558.926	2458.52
559.129	2432.37
559.333	2362.62
559.536	2352.54
559.74	2368.24
559.943	2377.73
560.147	2359.71
560.35	2393.23
560.553	2399.62
560.757	2349.83
560.96	2479.06
561.164	2373.66
561.367	2480.22
561.57	2381.41
561.774	2449.61
561.977	2386.64
562.18	2392.07
562.384	2485.45
562.587	2386.06
562.79	2396.14
562.993	2361.07
563.197	2414.35
563.4	2467.24
563.603	2444.96
563.806	2514.13
564.009	2384.51
564.212	2413.19
564.416	2319.61
564.619	2386.06
564.822	2353.9
565.025	2401.17
565.228	2374.05
565.431	2363.97
565.634	2263.81
565.837	2296.55
566.04	2301.39
566.243	2268.84
566.446	2212.08
566.649	2285.31
566.852	2205.49
567.055	2272.91
567.258	2272.91
567.461	2356.03
567.664	2334.33
567.867	2236.1
568.07	2333.75
568.273	2284.93
568.475	2368.62
568.678	2256.83
568.881	2240.95
569.084	2229.71
569.287	2126.25
569.489	2173.71
569.692	2268.46
569.895	2275.04
570.098	2164.8
570.3	2166.16
570.503	2117.53
570.706	2138.65
570.909	2136.32
571.111	2083.04
571.314	2086.14
571.516	2113.85
571.719	2161.9
571.922	2069.48
572.124	2090.02
572.327	2107.65
572.529	2088.08
572.732	2099.7
572.935	2107.65
573.137	2201.23
573.34	2118.69
573.542	2202
573.745	2140.2
573.947	2160.15
574.15	2125.47
574.352	2113.85
574.554	2177.78
574.757	2070.83
574.959	2067.15
575.162	2097.77
575.364	2084.01
575.566	2183.98
575.769	2043.9
575.971	2064.25
576.173	1956.33
576.376	2041.39
576.578	2085.75
576.78	2125.86
576.982	1974.35
577.185	2036.35
577.387	1981.71
577.589	2012.71
577.791	2031.7
577.993	2057.47
578.196	2029.18
578.398	2032.86
578.6	2016
578.802	1969.31
579.004	1960.21
579.206	1956.14
579.408	2000.5
579.61	1929.59
579.812	2037.51
580.014	1958.66
580.216	1953.42
580.418	1948
580.62	1961.76
580.822	1925.72
581.024	1957.11
581.226	2001.67
581.428	1988.3
581.63	2068.32
581.832	1969.7
582.034	1989.46
582.236	1943.74
582.438	2017.94
582.64	2025.69
582.841	2028.6
583.043	2080.52
583.245	1978.81
583.447	2020.27
583.649	1959.82
583.85	1976.09
584.052	2034.02
584.254	1985.59
584.456	2057.66
584.657	1962.92
584.859	2013.87
585.061	1972.8
585.262	1965.24
585.464	1903.63
585.666	2025.11
585.867	1942.77
586.069	2024.72
586.27	1972.22
586.472	1964.27
586.674	1924.56
586.875	1922.62
587.077	1914.09
587.278	1957.69
587.48	1906.73
587.681	2037.51
587.883	1924.94
588.084	1862.17
588.285	1905.37
588.487	1910.61
588.688	1954.01
588.89	1809.86
589.091	1773.43
589.292	1809.66
589.494	1721.31
589.695	1718.6
589.896	1646.72
590.098	1693.03
590.299	1663.97
590.5	1672.3
590.702	1731.97
590.903	1734.68
591.104	1831.56
591.305	1777.89
591.507	1824.19
591.708	1843.18
591.909	1767.04
592.11	1868.76
592.311	1841.24
592.512	1787.58
592.714	1751.93
592.915	1780.21
593.116	1757.74
593.317	1816.83
593.518	1801.14
593.719	1774.98
593.92	1819.16
594.121	1852.09
594.322	1808.69
594.523	1798.81
594.724	1751.15
594.925	1766.26
595.126	1814.89
595.327	1809.47
595.528	1788.35
595.729	1807.92
595.929	1765.49
596.13	1808.11
596.331	1781.38
596.532	1782.93
596.733	1870.11
596.934	1826.33
597.135	1842.02
597.335	1832.33
597.536	1787.58
597.737	1805.21
597.938	1744.95
598.138	1784.28
598.339	1764.71
598.54	1766.46
598.74	1759.68
598.941	1755.61
599.142	1820.71
599.342	1806.37
599.543	1745.15
599.744	1755.61
599.944	1753.48
600.145	1760.45
600.345	1770.33
600.546	1847.64
600.746	1810.24
600.947	1855
601.147	1767.81
601.348	1783.31
601.548	1736.23
601.749	1747.08
601.949	1731.39
602.15	1727.9
602.35	1754.45
602.551	1761.03
602.751	1727.71
602.951	1723.45
603.152	1676.56
603.352	1778.08
603.552	1725.19
603.753	1769.95
603.953	1777.89
604.153	1810.44
604.354	1768.78
604.554	1725
604.754	1772.85
604.954	1685.28
605.155	1776.15
605.355	1762.58
605.555	1814.31
605.755	1820.32
605.955	1731.58
606.155	1787
606.356	1770.91
606.556	1758.71
606.756	1800.36
606.956	1707.17
607.156	1807.53
607.356	1726.35
607.556	1768.2
607.756	1744.95
607.956	1774.21
608.156	1764.71
608.356	1698.26
608.556	1798.43
608.756	1719.38
608.956	1681.6
609.156	1743.79
609.356	1664.16
609.556	1675.2
609.755	1738.95
609.955	1679.85
610.155	1724.41
610.355	1691.09
610.555	1652.92
610.755	1675.01
610.954	1594.22
611.154	1693.61
611.354	1725
611.554	1641.1
611.753	1651.18
611.953	1642.85
612.153	1702.91
612.352	1697.48
612.552	1627.54
612.752	1587.05
612.951	1640.91
613.151	1645.75
613.351	1585.69
613.55	1632.58
613.75	1674.62
613.949	1628.12
614.149	1610.3
614.348	1633.55
614.548	1573.29
