Data from gum_old_FLMT105791__8__15-42-30-259.txt Node

Date: Mon Mar 20 15:42:30 GMT 2023
User: antho
Spectrometer: FLMT10579
Trigger mode: 0
Integration Time (sec): 1.000000E-1
Scans to average: 10
Electric dark correction enabled: true
Nonlinearity correction enabled: false
Boxcar width: 0
XAxis mode: Wavelengths
Number of Pixels in Spectrum: 3648
>>>>>Begin Spectral Data<<<<<
345.248	-161.41
345.464	-161.41
345.681	-161.41
345.898	-153.08
346.114	-155.79
346.331	-34.31
346.548	47.26
346.764	1.73
346.981	5.22
347.197	-31.6
347.414	13.74
347.631	-28.3
347.847	49.58
348.064	14.32
348.28	25.36
348.497	-42.06
348.713	-20.94
348.93	30.21
349.146	65.08
349.363	24.2
349.579	56.17
349.796	37.96
350.012	17.03
350.229	29.82
350.445	15.48
350.661	30.01
350.878	27.3
351.094	29.82
351.311	36.8
351.527	82.33
351.743	1.92
351.96	84.65
352.176	60.05
352.392	45.13
352.609	64.11
352.825	10.25
353.041	40.09
353.257	18.39
353.474	45.32
353.69	19.94
353.906	55.98
354.122	-3.7
354.339	81.36
354.555	45.71
354.771	15.29
354.987	79.81
355.203	117.39
355.42	10.64
355.636	23.81
355.852	34.86
356.068	39.7
356.284	-4.28
356.5	68.18
356.716	48.61
356.932	47.45
357.148	61.4
357.364	18.2
357.58	54.04
357.796	110.81
358.012	71.67
358.228	54.04
358.444	-47.29
358.66	93.76
358.876	49
359.092	28.46
359.308	30.79
359.524	69.73
359.74	38.35
359.956	48.81
360.172	32.92
360.388	88.91
360.604	40.67
360.819	125.92
361.035	74.19
361.251	74
361.467	13.93
361.683	57.14
361.898	58.3
362.114	67.6
362.33	81.75
362.546	74.96
362.762	52.3
362.977	63.53
363.193	-8.54
363.409	77.1
363.624	35.63
363.84	40.09
364.056	21.88
364.271	93.18
364.487	47.06
364.703	57.91
364.918	32.53
365.134	54.04
365.35	33.31
365.565	154.21
365.781	60.82
365.996	89.11
366.212	133.67
366.427	104.99
366.643	66.05
366.858	50.16
367.074	59.08
367.289	104.22
367.505	149.36
367.72	40.28
367.936	62.95
368.151	113.52
368.367	95.69
368.582	88.14
368.798	57.14
369.013	119.91
369.228	59.66
369.444	68.18
369.659	107.9
369.874	94.15
370.09	149.75
370.305	29.82
370.52	66.44
370.736	134.06
370.951	88.72
371.166	115.84
371.381	134.25
371.597	96.66
371.812	42.41
372.027	51.33
372.242	87.56
372.458	145.49
372.673	50.94
372.888	90.08
373.103	108.09
373.318	166.99
373.533	107.9
373.749	94.34
373.964	53.65
374.179	125.34
374.394	51.52
374.609	119.72
374.824	53.65
375.039	115.65
375.254	41.64
375.469	130.76
375.684	96.08
375.899	127.28
376.114	123.4
376.329	116.04
376.544	135.8
376.759	128.24
376.974	57.53
377.189	65.86
377.404	83.68
377.619	140.45
377.834	66.05
378.049	80.39
378.264	51.91
378.478	97.05
378.693	76.51
378.908	138.32
379.123	84.26
379.338	148.98
379.553	90.66
379.767	91.63
379.982	106.74
380.197	132.51
380.412	93.95
380.626	111.97
380.841	170.48
381.056	138.9
381.271	186.37
381.485	106.74
381.7	68.18
381.915	117.2
382.129	89.11
382.344	117.78
382.559	90.46
382.773	110.23
382.988	15.68
383.202	78.65
383.417	49.58
383.632	185.21
383.846	76.71
384.061	104.99
384.275	75.16
384.49	101.89
384.704	123.21
384.919	104.61
385.133	118.94
385.348	127.28
385.562	83.68
385.777	161.96
385.991	108.09
386.206	88.53
386.42	88.14
386.634	155.95
386.849	129.21
387.063	136.38
387.277	108.87
387.492	104.8
387.706	64.5
387.92	77.68
388.135	166.8
388.349	150.53
388.563	148.39
388.778	137.16
388.992	141.81
389.206	110.81
389.42	196.83
389.635	139.48
389.849	196.44
390.063	193.92
390.277	171.26
390.491	220.47
390.706	176.88
390.92	185.79
391.134	156.73
391.348	207.49
391.562	127.86
391.776	140.84
391.99	176.88
392.205	218.14
392.419	98.99
392.633	162.15
392.847	227.83
393.061	122.43
393.275	186.17
393.489	135.8
393.703	105.19
393.917	145.29
394.131	102.28
394.345	159.24
394.559	153.82
394.773	126.89
394.986	167.77
395.2	177.84
395.414	188.69
395.628	159.83
395.842	200.12
396.056	182.11
396.27	146.26
396.484	205.74
396.697	187.92
396.911	195.28
397.125	166.61
397.339	147.23
397.553	175.52
397.766	219.11
397.98	185.98
398.194	245.46
398.408	216.01
398.621	238.87
398.835	274.14
399.049	283.44
399.262	285.95
399.476	288.86
399.69	311.14
399.903	327.03
400.117	265.61
400.331	303.97
400.544	236.94
400.758	381.67
400.971	305.72
401.185	315.21
401.398	257.28
401.612	346.6
401.826	315.4
402.039	340.98
402.253	309.59
402.466	345.82
402.68	301.07
402.893	348.15
403.106	308.43
403.32	334.2
403.533	328.58
403.747	306.49
403.96	343.11
404.174	347.18
404.387	291.96
404.6	315.4
404.814	358.8
405.027	323.74
405.24	309.01
405.454	317.15
405.667	370.23
405.88	272.78
406.094	346.4
406.307	389.61
406.52	338.07
406.733	304.94
406.947	273.75
407.16	380.31
407.373	377.79
407.586	316.37
407.799	319.86
408.012	379.92
408.226	346.21
408.439	413.83
408.652	287.12
408.865	387.48
409.078	433.4
409.291	385.35
409.504	344.47
409.717	402.59
409.93	440.76
410.143	366.36
410.357	309.2
410.57	300.1
410.783	325.29
410.996	365.78
411.209	365.2
411.421	414.22
411.634	368.49
411.847	378.18
412.06	377.79
412.273	390.58
412.486	425.07
412.699	484.93
412.912	412.67
413.125	418.67
413.338	427.97
413.55	441.15
413.763	405.11
413.976	430.3
414.189	340.98
414.402	402.01
414.615	481.64
414.827	382.63
415.04	456.06
415.253	439.02
415.466	463.81
415.678	500.63
415.891	424.68
416.104	419.06
416.316	427.39
416.529	413.25
416.742	447.15
416.954	482.8
417.167	433.2
417.38	417.51
417.592	481.64
417.805	428.75
418.017	385.54
418.23	444.25
418.442	396.39
418.655	428.55
418.868	422.55
419.08	452.96
419.293	480.28
419.505	456.65
419.718	483
419.93	487.45
420.142	425.65
420.355	469.24
420.567	471.18
420.78	468.66
420.992	450.25
421.205	496.56
421.417	441.15
421.629	478.93
421.842	453.16
422.054	458.58
422.266	521.55
422.479	522.91
422.691	452.38
422.903	491.13
423.115	438.05
423.328	434.37
423.54	461.88
423.752	464.98
423.964	469.82
424.177	494.43
424.389	449.28
424.601	597.69
424.813	518.45
425.025	524.85
425.238	510.31
425.45	469.24
425.662	501.01
425.874	767.8
426.086	485.13
426.298	495.98
426.51	505.66
426.722	487.45
426.934	490.55
427.146	535.5
427.358	471.18
427.57	530.27
427.782	510.7
427.994	463.23
428.206	462.85
428.418	451.22
428.63	512.45
428.842	560.69
429.054	538.02
429.266	518.84
429.478	508.76
429.69	485.51
429.902	420.61
430.114	494.43
430.325	477.96
430.537	397.75
430.749	402.59
430.961	363.45
431.173	414.41
431.384	409.57
431.596	347.18
431.808	457.23
432.02	499.08
432.231	564.37
432.443	580.84
432.655	590.72
432.867	529.69
433.078	570.57
433.29	612.23
433.502	593.43
433.713	622.3
433.925	610.48
434.136	615.71
434.348	538.41
434.56	484.93
434.771	637.8
434.983	486.1
435.194	563.01
435.406	597.5
435.617	608.54
435.829	659.5
436.04	653.69
436.252	623.46
436.463	684.49
436.675	704.06
436.886	674.81
437.098	711.42
437.309	720.14
437.521	673.26
437.732	660.08
437.943	636.83
438.155	641.87
438.366	615.13
438.578	670.93
438.789	603.12
439	647.29
439.211	597.11
439.423	638.57
439.634	670.35
439.845	685.27
440.057	678.49
440.268	682.36
440.479	658.34
440.69	681.2
440.902	655.82
441.113	654.66
441.324	636.64
441.535	715.49
441.746	765.48
441.957	679.46
442.168	689.34
442.38	750.37
442.591	764.51
442.802	698.25
443.013	741.26
443.224	760.64
443.435	720.34
443.646	731.96
443.857	748.04
444.068	722.08
444.279	737.19
444.49	808.49
444.701	778.07
444.912	862.55
445.123	816.63
445.334	766.45
445.545	763.54
445.756	786.02
445.967	726.15
446.178	769.94
446.388	778.46
446.599	772.07
446.81	748.82
447.021	733.12
447.232	774
447.443	826.51
447.653	774
447.864	793.96
448.075	806.75
448.286	832.71
448.496	797.25
448.707	813.53
448.918	766.64
449.129	890.83
449.339	796.87
449.55	849.57
449.761	798.22
449.971	858.28
450.182	822.83
450.393	838.13
450.603	819.15
450.814	879.4
451.024	875.14
451.235	880.57
451.446	929.39
451.656	920.67
451.867	862.16
452.077	856.54
452.288	911.95
452.498	889.48
452.709	831.16
452.919	832.9
453.13	791.44
453.34	862.35
453.55	768.58
453.761	846.85
453.971	859.06
454.182	882.7
454.392	842.4
454.602	892.19
454.813	896.65
455.023	879.6
455.233	797.45
455.444	865.26
455.654	788.73
455.864	839.88
456.075	849.76
456.285	850.34
456.495	863.9
456.705	883.47
456.916	918.54
457.126	941.4
457.336	877.47
457.546	834.26
457.756	881.53
457.967	951.48
458.177	909.43
458.387	886.96
458.597	816.63
458.807	918.93
459.017	879.79
459.227	884.83
459.437	843.56
459.647	893.93
459.857	954.58
460.068	867.97
460.278	940.63
460.488	900.71
460.698	972.21
460.908	931.13
461.117	878.82
461.327	925.32
461.537	939.27
461.747	913.7
461.957	920.86
462.167	1037.5
462.377	1004.18
462.587	933.85
462.797	957.48
463.007	976.08
463.216	1001.27
463.426	1042.15
463.636	1007.66
463.846	901.3
464.056	939.85
464.265	1011.15
464.475	907.11
464.685	989.26
464.895	961.55
465.104	938.5
465.314	996.23
465.524	913.11
465.733	937.53
465.943	1059.39
466.153	1031.49
466.362	1004.37
466.572	978.6
466.782	991.78
466.991	1000.69
467.201	1022.78
467.41	898
467.62	992.94
467.829	983.83
468.039	1005.34
468.249	1017.74
468.458	1032.27
468.668	1048.16
468.877	1031.88
469.086	1093.88
469.296	1055.71
469.505	1033.82
469.715	1141.16
469.924	1075.67
470.134	1097.37
470.343	1102.99
470.552	1043.12
470.762	1049.13
470.971	1006.89
471.18	1072.37
471.39	1050.68
471.599	1017.74
471.808	1088.84
472.018	1041.57
472.227	1129.53
472.436	1202.57
472.645	1133.41
472.855	1085.36
473.064	1205.48
473.273	1176.61
473.482	1199.47
473.691	1203.54
473.901	1191.34
474.11	1138.44
474.319	1251.98
474.528	1170.8
474.737	1266.32
474.946	1239
475.155	1229.12
475.364	1284.33
475.573	1250.43
475.783	1307.58
475.992	1263.99
476.201	1278.72
476.41	1249.85
476.619	1216.52
476.828	1238.61
477.037	1242.48
477.245	1251.98
477.454	1328.7
477.663	1294.02
477.872	1322.31
478.081	1381.98
478.29	1312.43
478.499	1454.25
478.708	1379.27
478.917	1444.18
479.125	1353.5
479.334	1369.78
479.543	1368.42
479.752	1417.24
479.961	1407.17
480.169	1469.56
480.378	1424.22
480.587	1566.43
480.796	1506.95
481.004	1476.73
481.213	1464.91
481.422	1447.86
481.63	1501.91
481.839	1514.12
482.048	1544.73
482.256	1533.69
482.465	1570.69
482.674	1555.97
482.882	1547.44
483.091	1620.29
483.299	1505.79
483.508	1596.46
483.716	1571.27
483.925	1605.95
484.134	1541.63
484.342	1566.43
484.551	1631.92
484.759	1594.14
484.967	1629.4
485.176	1621.26
485.384	1630.37
485.593	1628.82
485.801	1610.02
486.01	1551.71
486.218	1473.63
486.426	1411.24
486.635	1428.29
486.843	1373.26
487.051	1448.05
487.26	1435.65
487.468	1469.56
487.676	1548.41
487.885	1519.93
488.093	1610.22
488.301	1632.69
488.509	1681.52
488.717	1691.59
488.926	1704.77
489.134	1662.72
489.342	1696.63
489.55	1621.07
489.758	1682.29
489.967	1716.78
490.175	1815.59
490.383	1770.45
490.591	1900.64
490.799	1756.69
491.007	1827.02
491.215	1779.94
491.423	1796.41
491.631	1759.21
491.839	1768.51
492.047	1808.61
492.255	1722.4
492.463	1690.82
492.671	1678.61
492.879	1788.46
493.087	1763.47
493.295	1775.1
493.503	1828.57
493.711	1866.74
493.919	1860.73
494.127	1848.72
494.334	1896.96
494.542	1820.05
494.75	1901.42
494.958	1843.1
495.166	1933
495.374	1904.13
495.581	1955.67
495.789	1919.05
495.997	1932.22
496.205	1862.28
496.412	1864.8
496.62	1905.1
496.828	1926.61
497.035	1928.74
497.243	1995.39
497.451	1917.5
497.658	1933.39
497.866	1957.99
498.074	2022.51
498.281	1935.71
498.489	1997.13
498.696	1902.19
498.904	1882.04
499.112	1893.67
499.319	1985.89
499.527	1944.82
499.734	1987.25
499.942	1915.76
500.149	1936.87
500.357	1970.78
500.564	1925.25
500.771	1943.27
500.979	1917.31
501.186	1914.59
501.394	1923.89
501.601	1884.37
501.808	1935.91
502.016	1932.22
502.223	1904.91
502.43	1933
502.638	1881.27
502.845	1895.99
503.052	2001.01
503.26	1965.16
503.467	2043.82
503.674	1970.78
503.881	1971.56
504.089	2045.95
504.296	1991.9
504.503	1885.14
504.71	1945.01
504.917	1940.75
505.125	1959.74
505.332	1986.47
505.539	2033.17
505.746	2091.49
505.953	2104.85
506.16	2097.49
506.367	2141.67
506.574	2141.08
506.781	2130.04
506.988	2055.06
507.195	2080.64
507.402	2085.87
507.609	2069.4
507.816	2048.09
508.023	2067.07
508.23	2026.97
508.437	1968.26
508.644	2051.96
508.851	2081.41
509.058	2122.29
509.265	2065.91
509.472	2116.87
509.679	2171.7
509.885	2124.62
510.092	2157.36
510.299	2086.64
510.506	2119.38
510.713	2087.8
510.92	2104.66
511.126	2119.77
511.333	2126.17
511.54	2128.68
511.746	2173.05
511.953	2205.6
512.16	2216.06
512.367	2124.62
512.573	2116.28
512.78	2155.03
512.987	2103.3
513.193	2075.79
513.4	2043.82
513.606	2102.34
513.813	2107.18
514.02	2093.04
514.226	2179.83
514.433	2171.7
514.639	2091.49
514.846	2088
515.052	2079.09
515.259	2105.82
515.465	2096.91
515.672	2148.64
515.878	2238.54
516.085	2137.79
516.291	2194.56
516.497	2148.25
516.704	2128.3
516.91	2073.08
517.117	1950.05
517.323	1924.48
517.529	1902.58
517.736	1905.49
517.942	1918.08
518.148	1961.29
518.354	2029.29
518.561	2040.92
518.767	2006.82
518.973	2032.97
519.179	2073.47
519.386	2033.55
519.592	2068.43
519.798	2065.33
520.004	2172.28
520.21	2138.37
520.417	2193.4
520.623	2253.85
520.829	2255.78
521.035	2254.43
521.241	2234.08
521.447	2245.32
521.653	2381.33
521.859	2254.43
522.065	2319.53
522.271	2390.05
522.477	2341.81
522.683	2399.93
522.889	2357.31
523.095	2311
523.301	2346.84
523.507	2288.72
523.713	2311.78
523.919	2261.01
524.125	2354.59
524.331	2360.21
524.537	2493.12
524.742	2500.29
524.948	2469.29
525.154	2482.08
525.36	2544.27
525.566	2446.82
525.772	2533.04
525.977	2396.25
526.183	2468.52
526.389	2494.48
526.595	2400.32
526.8	2398.38
527.006	2300.73
527.212	2247.65
527.417	2224.78
527.623	2253.07
527.829	2336.58
528.034	2348.59
528.24	2395.09
528.446	2388.69
528.651	2491.19
528.857	2503.2
529.062	2582.25
529.268	2524.12
529.473	2573.14
529.679	2585.15
529.884	2673.5
530.09	2640.76
530.295	2618.48
530.501	2607.05
530.706	2628.75
530.912	2550.28
531.117	2626.23
531.323	2631.46
531.528	2679.9
531.733	2698.11
531.939	2623.32
532.144	2654.32
532.35	2614.6
532.555	2694.43
532.76	2626.23
532.966	2625.07
533.171	2593.48
533.376	2546.6
533.581	2485.18
533.787	2578.37
533.992	2620.8
534.197	2674.66
534.402	2633.59
534.607	2636.69
534.813	2722.13
535.018	2647.93
535.223	2634.56
535.428	2679.9
535.633	2735.89
535.838	2719.42
536.043	2723.88
536.249	2839.35
536.454	2751.97
536.659	2803.12
536.864	2755.65
537.069	2679.31
537.274	2712.25
537.479	2699.27
537.684	2719.61
537.889	2676.6
538.094	2817.84
538.299	2748.48
538.504	2731.63
538.708	2741.51
538.913	2779.29
539.118	2741.51
539.323	2760.69
539.528	2694.62
539.733	2699.46
539.938	2735.69
540.142	2722.52
540.347	2676.41
540.552	2642.5
540.757	2669.82
540.962	2652.38
541.166	2587.87
541.371	2630.3
541.576	2658.39
541.781	2588.64
541.985	2711.48
542.19	2700.43
542.395	2805.06
542.599	2810.87
542.804	2736.28
543.008	2829.08
543.213	2727.17
543.418	2712.64
543.622	2747.51
543.827	2677.76
544.031	2762.24
544.236	2832.37
544.44	2794.01
544.645	2870.54
544.849	2806.41
545.054	2858.72
545.258	2879.84
545.463	2840.32
545.667	2777.16
545.872	2789.94
546.076	2807.57
546.281	2808.16
546.485	2749.45
546.689	2816.49
546.894	2833.54
547.098	2776.19
547.302	2771.15
547.507	2815.13
547.711	2824.43
547.915	2841.48
548.119	2743.64
548.324	2734.34
548.528	2803.12
548.732	2744.99
548.936	2836.83
549.141	2835.86
549.345	2790.33
549.549	2824.04
549.753	2813.19
549.957	2929.64
550.161	2882.36
550.366	2836.83
550.57	2807.96
550.774	2826.76
550.978	2821.91
551.182	2797.31
551.386	2771.15
551.59	2806.22
551.794	2746.54
551.998	2849.81
552.202	2793.63
552.406	2775.8
552.61	2823.07
552.814	2828.11
553.018	2853.88
553.222	2823.85
553.426	2772.7
553.63	2888.95
553.833	2785.68
554.037	2727.94
554.241	2793.24
554.445	2825.79
554.649	2839.35
554.853	2740.73
555.056	2885.27
555.26	2863.76
555.464	2831.21
555.668	2805.25
555.871	2812.22
556.075	2816.49
556.279	2792.66
556.483	2746.93
556.686	2791.3
556.89	2765.34
557.094	2762.82
557.297	2710.12
557.501	2783.16
557.704	2683.77
557.908	2767.47
558.112	2715.35
558.315	2822.3
558.519	2707.99
558.722	2712.06
558.926	2694.43
559.129	2627.78
559.333	2617.7
559.536	2642.5
559.74	2574.88
559.943	2572.75
560.147	2554.93
560.35	2587.28
560.553	2617.51
560.757	2640.18
560.96	2691.71
561.164	2622.16
561.367	2741.7
561.57	2667.5
561.774	2699.85
561.977	2646.96
562.18	2597.75
562.384	2672.53
562.587	2595.03
562.79	2603.75
562.993	2630.88
563.197	2628.17
563.4	2684.55
563.603	2683
563.806	2702.18
564.009	2631.85
564.212	2625.07
564.416	2537.3
564.619	2573.72
564.822	2543.5
565.025	2614.22
565.228	2550.47
565.431	2573.53
565.634	2526.45
565.837	2515.6
566.04	2512.69
566.243	2478.98
566.446	2391.02
566.649	2521.41
566.852	2484.02
567.055	2483.82
567.258	2506.88
567.461	2549.5
567.664	2551.83
567.867	2480.92
568.07	2522.38
568.273	2515.99
568.475	2576.82
568.678	2465.03
568.881	2458.83
569.084	2469.87
569.287	2310.42
569.489	2370.09
569.692	2449.34
569.895	2413.88
570.098	2390.63
570.3	2358.28
570.503	2317.98
570.706	2349.56
570.909	2322.04
571.111	2256.56
571.314	2293.95
571.516	2287.17
571.719	2308.09
571.922	2287.36
572.124	2328.24
572.327	2369.51
572.529	2244.35
572.732	2287.17
572.935	2354.59
573.137	2420.66
573.34	2293.76
573.542	2366.03
573.745	2297.44
573.947	2349.75
574.15	2323.4
574.352	2283.49
574.554	2409.81
574.757	2305.96
574.959	2275.55
575.162	2272.64
575.364	2238.35
575.566	2383.66
575.769	2225.95
575.971	2233.5
576.173	2122.29
576.376	2210.64
576.578	2296.28
576.78	2290.27
576.982	2173.05
577.185	2218.78
577.387	2176.35
577.589	2210.64
577.791	2226.91
577.993	2256.95
578.196	2222.65
578.398	2176.35
578.6	2217.61
578.802	2157.55
579.004	2092.45
579.206	2131.2
579.408	2154.65
579.61	2114.54
579.812	2171.31
580.014	2144.38
580.216	2119.38
580.418	2148.83
580.62	2125.58
580.822	2103.11
581.024	2176.15
581.226	2224.78
581.428	2136.63
581.63	2210.25
581.832	2116.09
582.034	2185.84
582.236	2143.99
582.438	2187.39
582.64	2249
582.841	2208.9
583.043	2279.42
583.245	2157.94
583.447	2259.66
583.649	2169.95
583.85	2184.1
584.052	2202.5
584.254	2178.28
584.456	2229.05
584.657	2124.81
584.859	2178.09
585.061	2156.97
585.262	2106.02
585.464	2079.47
585.666	2156.39
585.867	2094.2
586.069	2205.6
586.27	2129.85
586.472	2113.77
586.674	2083.93
586.875	2073.47
587.077	2075.02
587.278	2149.22
587.48	2092.26
587.681	2179.25
587.883	2111.05
588.084	2048.09
588.285	2089.94
588.487	2066.69
588.688	2060.87
588.89	1966.52
589.091	1972.14
589.292	1922.54
589.494	1875.07
589.695	1858.6
589.896	1784.98
590.098	1804.74
590.299	1860.54
590.5	1833.03
590.702	1869.06
590.903	1883.79
591.104	1937.46
591.305	1948.11
591.507	1994.42
591.708	1969.04
591.909	1946.17
592.11	1994.03
592.311	2001.2
592.512	1941.72
592.714	1907.81
592.915	1922.15
593.116	1924.67
593.317	1982.6
593.518	1963.42
593.719	1940.94
593.92	1980.86
594.121	2006.43
594.322	1953.34
594.523	1958.19
594.724	1895.61
594.925	1912.27
595.126	1942.49
595.327	1970.39
595.528	1969.04
595.729	1932.81
595.929	1920.6
596.13	1960.51
596.331	2009.53
596.532	1965.74
596.733	2026.58
596.934	2008.17
597.135	1968.65
597.335	1981.24
597.536	1920.79
597.737	1945.98
597.938	1941.14
598.138	1958.77
598.339	1947.34
598.54	1947.14
598.74	1902.19
598.941	1947.72
599.142	1951.41
599.342	1976.98
599.543	1896.96
599.744	1918.86
599.944	1910.14
600.145	1916.92
600.345	1934.55
600.546	1992.87
600.746	1945.21
600.947	1998.49
601.147	1935.71
601.348	1958.57
601.548	1868.68
601.749	1894.83
601.949	1869.06
602.15	1881.08
602.35	1875.65
602.551	1928.54
602.751	1846.98
602.951	1887.28
603.152	1835.93
603.352	1939.01
603.552	1900.26
603.753	1877.78
603.953	1940.56
604.153	1926.22
604.354	1868.29
604.554	1917.11
604.754	1944.24
604.954	1853.56
605.155	1927.38
605.355	1879.33
605.555	1925.25
605.755	1954.31
605.955	1915.37
606.155	1906.26
606.356	1897.93
606.556	1926.61
606.756	1882.24
606.956	1852.4
607.156	1950.63
607.356	1831.67
607.556	1944.82
607.756	1886.5
607.956	1949.66
608.156	1881.27
608.356	1851.43
608.556	1905.68
608.756	1853.18
608.956	1826.44
609.156	1865.96
609.356	1813.07
609.556	1824.5
609.755	1850.85
609.955	1828.18
610.155	1844.26
610.355	1847.56
610.555	1776.26
610.755	1812.88
610.954	1750.68
611.154	1825.86
611.354	1836.9
611.554	1789.05
611.753	1808.23
611.953	1764.83
612.153	1828.38
612.352	1842.33
612.552	1780.91
612.752	1720.65
612.951	1791.56
613.151	1799.31
613.351	1765.99
613.55	1776.45
