Data from gum_old_FLMT105791__87__15-44-15-256.txt Node

Date: Mon Mar 20 15:44:15 GMT 2023
User: antho
Spectrometer: FLMT10579
Trigger mode: 0
Integration Time (sec): 1.000000E-1
Scans to average: 10
Electric dark correction enabled: true
Nonlinearity correction enabled: false
Boxcar width: 0
XAxis mode: Wavelengths
Number of Pixels in Spectrum: 3648
>>>>>Begin Spectral Data<<<<<
345.248	-160.15
345.464	-160.15
345.681	-160.15
345.898	-173.52
346.114	-199.09
346.331	-38.09
346.548	30.5
346.764	-37.89
346.981	-7.86
347.197	10.16
347.414	19.26
347.631	-20.84
347.847	64.4
348.064	4.54
348.28	5.31
348.497	-16.78
348.713	-12.71
348.93	5.31
349.146	37.67
349.363	25.66
349.579	39.61
349.796	7.44
350.012	4.54
350.229	59.95
350.445	17.71
350.661	-19.1
350.878	36.7
351.094	29.53
351.311	45.61
351.527	53.17
351.743	8.99
351.96	43.29
352.176	49.1
352.392	27.79
352.609	39.22
352.825	3.18
353.041	28.95
353.257	-0.89
353.474	11.51
353.69	19.46
353.906	35.15
354.122	2.79
354.339	115.75
354.555	21.78
354.771	15.77
354.987	77.39
355.203	54.91
355.42	12.09
355.636	7.83
355.852	-12.9
356.068	30.31
356.284	-13.29
356.5	84.55
356.716	38.44
356.932	13.84
357.148	64.6
357.364	29.34
357.58	95.6
357.796	70.99
358.012	84.75
358.228	43.29
358.444	-34.21
358.66	80.29
358.876	41.74
359.092	-4.38
359.308	26.24
359.524	75.45
359.74	14.03
359.956	31.27
360.172	27.79
360.388	78.94
360.604	29.53
360.819	134.54
361.035	17.32
361.251	35.15
361.467	35.34
361.683	70.22
361.898	82.42
362.114	82.04
362.33	41.93
362.546	86.3
362.762	63.24
362.977	50.46
363.193	30.5
363.409	70.02
363.624	3.18
363.84	10.93
364.056	22.75
364.271	60.53
364.487	40.19
364.703	55.88
364.918	13.26
365.134	25.07
365.35	42.51
365.565	150.62
365.781	56.27
365.996	73.9
366.212	115.55
366.427	64.6
366.643	37.28
366.858	44.06
367.074	42.71
367.289	127.95
367.505	156.43
367.72	8.22
367.936	61.69
368.151	71.57
368.367	98.5
368.582	49.49
368.798	45.42
369.013	104.32
369.228	61.11
369.444	89.4
369.659	102.77
369.874	99.28
370.09	111.49
370.305	11.12
370.52	19.65
370.736	104.7
370.951	78.16
371.166	119.24
371.381	156.05
371.597	112.65
371.812	36.7
372.027	48.52
372.242	46.97
372.458	138.8
372.673	52
372.888	70.22
373.103	99.28
373.318	160.7
373.533	78.55
373.749	81.84
373.964	-2.24
374.179	95.21
374.394	46.19
374.609	92.89
374.824	57.82
375.039	110.71
375.254	22.75
375.469	112.65
375.684	61.3
375.899	115.94
376.114	55.69
376.329	91.14
376.544	124.08
376.759	104.12
376.974	32.05
377.189	67.31
377.404	82.23
377.619	79.9
377.834	36.51
378.049	21.97
378.264	62.27
378.478	72.54
378.693	77.77
378.908	100.83
379.123	50.84
379.338	151.01
379.553	116.52
379.767	84.36
379.982	101.99
380.197	95.6
380.412	77.39
380.626	125.82
380.841	183.75
381.056	99.67
381.271	172.52
381.485	89.98
381.7	66.15
381.915	104.9
382.129	74.67
382.344	70.41
382.559	79.32
382.773	133.96
382.988	20.04
383.202	82.23
383.417	45.42
383.632	161.47
383.846	70.22
384.061	88.82
384.275	32.44
384.49	78.16
384.704	105.29
384.919	98.12
385.133	110.9
385.348	126.6
385.562	51.42
385.777	147.52
385.991	70.8
386.206	93.85
386.42	87.07
386.634	124.27
386.849	95.21
387.063	132.6
387.277	90.37
387.492	76.03
387.706	64.02
387.92	66.54
388.135	131.64
388.349	109.74
388.563	118.65
388.778	114.39
388.992	110.9
389.206	136.29
389.42	164.57
389.635	108.77
389.849	168.45
390.063	174.07
390.277	132.8
390.491	193.63
390.706	155.85
390.92	172.32
391.134	127.57
391.348	163.22
391.562	111.87
391.776	146.75
391.99	115.75
392.205	164.18
392.419	98.89
392.633	111.49
392.847	166.12
393.061	93.47
393.275	165.73
393.489	85.52
393.703	107.8
393.917	134.35
394.131	81.65
394.345	123.5
394.559	144.62
394.773	120.79
394.986	145.78
395.2	139.58
395.414	195.77
395.628	101.22
395.842	168.83
396.056	161.67
396.27	91.53
396.484	175.42
396.697	160.7
396.911	170.19
397.125	128.54
397.339	125.63
397.553	132.99
397.766	197.7
397.98	177.17
398.194	196.93
398.408	147.72
398.621	202.74
398.835	206.62
399.049	174.65
399.262	256.8
399.476	237.23
399.69	248.27
399.903	280.63
400.117	210.68
400.331	227.93
400.544	228.9
400.758	325.96
400.971	274.04
401.185	253.5
401.398	193.25
401.612	279.46
401.826	305.81
402.039	279.66
402.253	247.3
402.466	273.07
402.68	272.1
402.893	320.54
403.106	268.23
403.32	260.48
403.533	272.1
403.747	283.92
403.96	278.88
404.174	287.6
404.387	233.35
404.6	287.41
404.814	314.53
405.027	285.86
405.24	295.16
405.454	244.78
405.667	313.18
405.88	224.25
406.094	288.57
406.307	320.93
406.52	294.19
406.733	236.45
406.947	257.76
407.16	348.63
407.373	330.42
407.586	254.28
407.799	261.83
408.012	302.71
408.226	319.38
408.439	312.98
408.652	267.65
408.865	305.04
409.078	357.16
409.291	325.58
409.504	290.12
409.717	349.41
409.93	341.46
410.143	323.25
410.357	250.6
410.57	256.99
410.783	279.85
410.996	305.43
411.209	291.67
411.421	338.17
411.634	343.4
411.847	294.77
412.06	344.76
412.273	362.78
412.486	344.56
412.699	437.76
412.912	364.71
413.125	359.68
413.338	325.77
413.55	353.86
413.763	361.61
413.976	337.01
414.189	310.27
414.402	330.61
414.615	420.12
414.827	347.08
415.04	415.47
415.253	363.16
415.466	377.11
415.678	429.23
415.891	346.31
416.104	357.93
416.316	384.86
416.529	359.68
416.742	417.41
416.954	375.18
417.167	375.37
417.38	356.96
417.592	397.65
417.805	324.8
418.017	320.15
418.23	398.43
418.442	356.96
418.655	365.49
418.868	371.88
419.08	403.46
419.293	428.84
419.505	367.04
419.718	412.76
419.93	425.94
420.142	352.12
420.355	429.62
420.567	416.06
420.78	392.03
420.992	391.64
421.205	431.17
421.417	373.04
421.629	398.81
421.842	373.82
422.054	358.51
422.266	450.35
422.479	446.67
422.691	376.73
422.903	425.94
423.115	359.29
423.328	358.9
423.54	357.93
423.752	388.74
423.964	349.41
424.177	419.54
424.389	402.3
424.601	518.74
424.813	429.62
425.025	439.69
425.238	438.53
425.45	386.03
425.662	382.15
425.874	736.32
426.086	419.74
426.298	421.48
426.51	431.75
426.722	401.72
426.934	424.77
427.146	442.21
427.358	391.45
427.57	450.74
427.782	409.47
427.994	392.61
428.206	407.53
428.418	375.18
428.63	446.28
428.842	484.06
429.054	432.52
429.266	468.56
429.478	365.88
429.69	429.23
429.902	382.93
430.114	413.34
430.325	383.51
430.537	357.16
430.749	338.75
430.961	289.35
431.173	349.21
431.384	355.99
431.596	284.31
431.808	368.59
432.02	393.58
432.231	475.15
432.443	518.35
432.655	480.96
432.867	435.82
433.078	468.37
433.29	521.84
433.502	507.5
433.713	532.5
433.925	508.28
434.136	520.87
434.348	417.61
434.56	393
434.771	582.68
434.983	405.79
435.194	423.03
435.406	499.75
435.617	527.85
435.829	564.08
436.04	550.13
436.252	541.41
436.463	599.53
436.675	596.43
436.886	563.3
437.098	587.72
437.309	616.39
437.521	510.99
437.732	558.07
437.943	545.87
438.155	521.26
438.366	515.25
438.578	602.25
438.789	526.1
439	526.88
439.211	513.32
439.423	525.33
439.634	533.47
439.845	588.1
440.057	560.4
440.268	620.85
440.479	538.31
440.69	609.22
440.902	554.59
441.113	553.23
441.324	527.27
441.535	583.07
441.746	629.18
441.957	572.22
442.168	598.37
442.38	614.07
442.591	631.31
442.802	580.74
443.013	587.72
443.224	634.22
443.435	622.98
443.646	604.18
443.857	601.67
444.068	623.95
444.279	605.35
444.49	691.37
444.701	600.12
444.912	744.65
445.123	690.01
445.334	669.67
445.545	650.68
445.756	624.92
445.967	632.28
446.178	611.74
446.388	676.65
446.599	654.17
446.81	638.87
447.021	614.26
447.232	671.03
447.443	701.25
447.653	632.86
447.864	694.66
448.075	678.58
448.286	719.85
448.496	653.01
448.707	724.89
448.918	641.38
449.129	758.6
449.339	657.47
449.55	712.49
449.761	632.28
449.971	726.83
450.182	688.08
450.393	712.68
450.603	668.31
450.814	755.89
451.024	746.98
451.235	777.2
451.446	792.89
451.656	788.63
451.867	706.29
452.077	723.53
452.288	801.03
452.498	755.69
452.709	735.74
452.919	732.64
453.13	670.25
453.34	747.36
453.55	660.18
453.761	693.89
453.971	725.08
454.182	720.24
454.392	698.73
454.602	825.83
454.813	747.17
455.023	774.49
455.233	709.58
455.444	741.75
455.654	669.48
455.864	710.75
456.075	710.16
456.285	733.8
456.495	695.63
456.705	758.79
456.916	771.97
457.126	827.19
457.336	778.75
457.546	698.93
457.756	717.53
457.967	780.49
458.177	734.77
458.387	762.28
458.597	695.83
458.807	742.13
459.017	725.28
459.227	716.95
459.437	701.25
459.647	761.31
459.857	804.52
460.068	748.72
460.278	823.89
460.488	797.93
460.698	814.79
460.908	771.19
461.117	728.18
461.327	755.89
461.537	799.68
461.747	800.06
461.957	787.28
462.167	916.31
462.377	855.28
462.587	797.74
462.797	842.3
463.007	810.53
463.216	832.61
463.426	853.73
463.636	842.3
463.846	758.21
464.056	782.63
464.265	820.79
464.475	775.46
464.685	833.78
464.895	835.71
465.104	809.56
465.314	859.35
465.524	802.58
465.733	778.94
465.943	897.13
466.153	897.32
466.362	853.15
466.572	844.04
466.782	833.58
466.991	829.9
467.201	883.18
467.41	774.29
467.62	846.17
467.829	846.76
468.039	845.4
468.249	842.88
468.458	866.52
468.668	865.55
468.877	877.95
469.086	911.27
469.296	940.53
469.505	892.29
469.715	957.97
469.924	908.37
470.134	965.91
470.343	944.79
470.552	896.16
470.762	900.42
470.971	855.09
471.18	918.06
471.39	874.85
471.599	859.16
471.808	923.09
472.018	885.89
472.227	974.63
472.436	1002.14
472.645	951.19
472.855	930.26
473.064	1045.93
473.273	994.78
473.482	1009.7
473.691	1044.18
473.901	1004.66
474.11	990.13
474.319	1068.21
474.528	1003.69
474.737	1113.74
474.946	1026.55
475.155	1068.21
475.364	1097.08
475.573	1011.25
475.783	1077.9
475.992	1079.64
476.201	1088.36
476.41	1082.35
476.619	1010.09
476.828	1072.67
477.037	1046.32
477.245	1064.72
477.454	1106.96
477.663	1083.9
477.872	1148.81
478.081	1198.6
478.29	1086.42
478.499	1233.67
478.708	1174.38
478.917	1260.99
479.125	1145.32
479.334	1183.49
479.543	1150.75
479.752	1202.28
479.961	1197.05
480.169	1261.57
480.378	1223.01
480.587	1335.77
480.796	1234.64
481.004	1242.97
481.213	1249.94
481.422	1246.84
481.63	1274.16
481.839	1280.36
482.048	1321.24
482.256	1272.61
482.465	1321.05
482.674	1322.41
482.882	1321.63
483.091	1419.47
483.299	1358.44
483.508	1359.99
483.716	1336.94
483.925	1334.03
484.134	1287.14
484.342	1310.97
484.551	1383.44
484.759	1369.49
484.967	1373.94
485.176	1388.47
485.384	1408.04
485.593	1426.64
485.801	1378.59
486.01	1319.69
486.218	1270.48
486.426	1164.7
486.635	1179.61
486.843	1172.64
487.051	1197.44
487.26	1233.86
487.468	1292.57
487.676	1300.12
487.885	1320.66
488.093	1323.76
488.301	1400.49
488.509	1396.61
488.717	1451.63
488.926	1415.6
489.134	1397.19
489.342	1411.14
489.55	1343.33
489.758	1416.37
489.967	1404.55
490.175	1538.43
490.383	1456.09
490.591	1566.33
490.799	1490.38
491.007	1589.2
491.215	1516.54
491.423	1479.73
491.631	1516.15
491.839	1486.9
492.047	1536.69
492.255	1420.64
492.463	1436.52
492.671	1467.33
492.879	1496.58
493.087	1478.37
493.295	1502.01
493.503	1525.26
493.711	1606.83
493.919	1603.73
494.127	1614.96
494.334	1590.94
494.542	1521
494.75	1573.5
494.958	1561.1
495.166	1641.7
495.374	1632.98
495.581	1657.59
495.789	1604.89
495.997	1693.24
496.205	1589.78
496.412	1576.6
496.62	1669.79
496.828	1596.75
497.035	1625.62
497.243	1639.96
497.451	1655.84
497.658	1621.75
497.866	1647.51
498.074	1716.29
498.281	1625.43
498.489	1740.9
498.696	1621.55
498.904	1627.56
499.112	1578.54
499.319	1720.56
499.527	1660.88
499.734	1701.76
499.942	1581.64
500.149	1654.68
500.357	1681.81
500.564	1639.76
500.771	1640.34
500.979	1595.4
501.186	1604.11
501.394	1635.31
501.601	1602.56
501.808	1643.44
502.016	1600.24
502.223	1569.82
502.43	1621.94
502.638	1601.21
502.845	1602.95
503.052	1696.14
503.26	1641.7
503.467	1735.47
503.674	1684.13
503.881	1692.08
504.089	1753.88
504.296	1702.34
504.503	1623.88
504.71	1677.16
504.917	1618.06
505.125	1672.89
505.332	1651.58
505.539	1699.24
505.746	1805.03
505.953	1760.47
506.16	1757.56
506.367	1780.04
506.574	1842.81
506.781	1797.47
506.988	1771.9
507.195	1759.89
507.402	1761.05
507.609	1787.01
507.816	1743.22
508.023	1749.62
508.23	1693.82
508.437	1665.14
508.644	1750.59
508.851	1760.47
509.058	1786.82
509.265	1736.83
509.472	1778.1
509.679	1864.12
509.885	1794.96
510.092	1820.72
510.299	1793.02
510.506	1783.33
510.713	1801.74
510.92	1775.39
511.126	1802.9
511.333	1854.24
511.54	1862.77
511.746	1879.04
511.953	1899.19
512.16	1925.54
512.367	1886.02
512.573	1830.41
512.78	1835.45
512.987	1842.42
513.193	1821.89
513.4	1785.27
513.606	1799.22
513.813	1845.14
514.02	1833.12
514.226	1863.35
514.433	1832.54
514.639	1786.04
514.846	1808.71
515.052	1777.13
515.259	1808.52
515.465	1800.57
515.672	1840.49
515.878	1938.52
516.085	1866.06
516.291	1920.31
516.497	1841.07
516.704	1832.54
516.91	1735.28
517.117	1677.35
517.323	1607.6
517.529	1652.16
517.736	1641.89
517.942	1654.88
518.148	1664.95
518.354	1755.04
518.561	1744
518.767	1756.4
518.973	1779.26
519.179	1779.26
519.386	1758.92
519.592	1755.43
519.798	1751.94
520.004	1911.98
520.21	1856.76
520.417	1900.55
520.623	1910.82
520.829	1928.64
521.035	1926.51
521.241	1926.9
521.447	1954.02
521.653	2071.43
521.859	1925.73
522.065	1987.35
522.271	2082.67
522.477	2028.61
522.683	2046.05
522.889	2037.53
523.095	2024.35
523.301	1990.64
523.507	1987.73
523.713	1987.54
523.919	1921.47
524.125	2028.03
524.331	2011.37
524.537	2158.81
524.742	2122.58
524.948	2139.24
525.154	2148.35
525.36	2207.83
525.566	2134.79
525.772	2180.32
525.977	2085.38
526.183	2141.38
526.389	2187.49
526.595	2080.54
526.8	2080.93
527.006	2007.88
527.212	1933.87
527.417	1938.13
527.623	1921.28
527.829	2043.34
528.034	2043.92
528.24	2050.31
528.446	2083.83
528.651	2184.39
528.857	2169.86
529.062	2217.13
529.268	2210.74
529.473	2234.76
529.679	2211.12
529.884	2320.79
530.09	2256.65
530.295	2282.23
530.501	2243.67
530.706	2234.76
530.912	2238.44
531.117	2251.23
531.323	2285.52
531.528	2331.05
531.733	2365.93
531.939	2328.73
532.144	2345.78
532.35	2304.32
532.555	2359.92
532.76	2297.92
532.966	2291.14
533.171	2281.45
533.376	2207.06
533.581	2212.29
533.787	2235.54
533.992	2281.84
534.197	2329.89
534.402	2285.91
534.607	2309.74
534.813	2421.34
535.018	2289.4
535.223	2326.02
535.428	2349.85
535.633	2390.34
535.838	2397.9
536.043	2405.65
536.249	2496.71
536.454	2391.5
536.659	2466.48
536.864	2412.23
537.069	2381.82
537.274	2330.28
537.479	2370.77
537.684	2382.98
537.889	2328.73
538.094	2475.98
538.299	2378.72
538.504	2398.28
538.708	2413.2
538.913	2465.71
539.118	2430.06
539.323	2417.27
539.528	2366.12
539.733	2383.56
539.938	2390.34
540.142	2393.05
540.347	2367.48
540.552	2345.97
540.757	2382.2
540.962	2331.44
541.166	2283.59
541.371	2267.7
541.576	2335.51
541.781	2230.69
541.985	2378.91
542.19	2359.53
542.395	2447.11
542.599	2477.14
542.804	2470.75
543.008	2460.09
543.213	2395.57
543.418	2368.25
543.622	2468.03
543.827	2351.2
544.031	2476.95
544.236	2456.8
544.44	2469.39
544.645	2555.41
544.849	2434.9
545.054	2487.99
545.258	2538.17
545.463	2483.53
545.667	2417.66
545.872	2474.43
546.076	2500.39
546.281	2479.85
546.485	2413.78
546.689	2490.12
546.894	2501.94
547.098	2467.45
547.302	2431.61
547.507	2462.03
547.711	2479.08
547.915	2549.99
548.119	2456.21
548.324	2446.53
548.528	2504.26
548.732	2472.68
548.936	2510.27
549.141	2540.3
549.345	2473.65
549.549	2512.21
549.753	2517.44
549.957	2550.38
550.161	2564.33
550.366	2500.78
550.57	2452.73
550.774	2498.45
550.978	2470.94
551.182	2530.61
551.386	2445.95
551.59	2486.05
551.794	2449.82
551.998	2505.23
552.202	2461.45
552.406	2425.21
552.61	2549.02
552.814	2506.78
553.018	2541.27
553.222	2493.03
553.426	2495.35
553.63	2562.58
553.833	2506.2
554.037	2391.7
554.241	2488.96
554.445	2463.38
554.649	2472.49
554.853	2463
555.056	2536.62
555.26	2525.77
555.464	2502.91
555.668	2542.82
555.871	2564.71
556.075	2524.99
556.279	2506.2
556.483	2433.93
556.686	2471.71
556.89	2479.08
557.094	2472.3
557.297	2398.67
557.501	2472.88
557.704	2352.37
557.908	2476.75
558.112	2416.11
558.315	2504.84
558.519	2453.5
558.722	2375.42
558.926	2410.1
559.129	2337.64
559.333	2344.03
559.536	2357.98
559.74	2325.24
559.943	2277
560.147	2295.21
560.35	2319.43
560.553	2335.51
560.757	2293.85
560.96	2349.27
561.164	2333.77
561.367	2430.06
561.57	2323.11
561.774	2347.72
561.977	2350.62
562.18	2357.4
562.384	2402.35
562.587	2280.29
562.79	2360.12
562.993	2312.65
563.197	2339.77
563.4	2391.89
563.603	2391.31
563.806	2448.66
564.009	2289.2
564.212	2378.13
564.416	2248.71
564.619	2323.5
564.822	2290.95
565.025	2356.82
565.228	2262.08
565.431	2299.86
565.634	2182.64
565.837	2252.78
566.04	2231.86
566.243	2213.45
566.446	2127.43
566.649	2253.94
566.852	2177.02
567.055	2218.29
567.258	2224.69
567.461	2300.05
567.664	2293.85
567.867	2134.79
568.07	2235.15
568.273	2233.99
568.475	2245.61
568.678	2213.06
568.881	2199.11
569.084	2185.74
569.287	2073.95
569.489	2118.9
569.692	2192.72
569.895	2181.67
570.098	2086.93
570.3	2090.61
570.503	2049.35
570.706	2062.13
570.909	2062.13
571.111	2001.88
571.314	2010.79
571.516	2047.02
571.719	2052.06
571.922	2026.87
572.124	2030.16
572.327	2077.05
572.529	2004.01
572.732	2019.9
572.935	2079.76
573.137	2154.16
573.34	2057.29
573.542	2117.16
573.745	2084.8
573.947	2095.65
574.15	2066.98
574.352	2009.24
574.554	2132.27
574.757	2057.1
574.959	1978.82
575.162	2013.89
575.364	1998.58
575.566	2095.84
575.769	1988.9
575.971	2011.95
576.173	1884.27
576.376	1964.48
576.578	2046.63
576.78	2057.48
576.982	1923.6
577.185	1984.25
577.387	1892.6
577.589	1935.42
577.791	1972.23
577.993	1977.66
578.196	1948.4
578.398	1976.3
578.6	2000.13
578.802	1896.09
579.004	1900.55
579.206	1878.07
579.408	1940.07
579.61	1887.37
579.812	1954.22
580.014	1914.69
580.216	1909.07
580.418	1899
580.62	1925.93
580.822	1887.57
581.024	1931.16
581.226	1897.25
581.428	1892.02
581.63	1970.88
581.832	1890.86
582.034	1942.01
582.236	1912.37
582.438	1961.38
582.64	1951.31
582.841	1984.63
583.043	2034.43
583.245	1954.22
583.447	1955.57
583.649	1928.25
583.85	1930.38
584.052	1976.69
584.254	1880.79
584.456	1966.03
584.657	1846.49
584.859	1948.21
585.061	1916.24
585.262	1889.7
585.464	1824.02
585.666	1942.59
585.867	1836.61
586.069	1922.63
586.27	1882.72
586.472	1876.33
586.674	1856.18
586.875	1870.52
587.077	1836.8
587.278	1867.22
587.48	1830.41
587.681	1990.45
587.883	1900.35
588.084	1810.84
588.285	1861.41
588.487	1800.57
588.688	1871.49
588.89	1748.07
589.091	1734.51
589.292	1753.49
589.494	1690.53
589.695	1650.61
589.896	1582.41
590.098	1596.56
590.299	1651.97
590.5	1592.88
590.702	1648.68
590.903	1717.65
591.104	1753.69
591.305	1750.97
591.507	1810.84
591.708	1759.11
591.909	1742.84
592.11	1843.97
592.311	1822.27
592.512	1745.16
592.714	1709.32
592.915	1727.72
593.116	1735.86
593.317	1776.55
593.518	1749.42
593.719	1744
593.92	1776.16
594.121	1835.84
594.322	1778.49
594.523	1767.25
594.724	1711.84
594.925	1775.97
595.126	1771.9
595.327	1773.06
595.528	1716.29
595.729	1732.18
595.929	1744.77
596.13	1731.02
596.331	1781.01
596.532	1773.84
596.733	1825.95
596.934	1806.97
597.135	1792.82
597.335	1810.07
597.536	1751.17
597.737	1778.1
597.938	1729.47
598.138	1806.97
598.339	1765.89
598.54	1755.43
598.74	1734.89
598.941	1718.62
599.142	1763.96
599.342	1753.69
599.543	1717.46
599.744	1765.51
599.944	1722.11
600.145	1747.1
600.345	1775.58
600.546	1846.1
600.746	1801.15
600.947	1829.44
601.147	1764.34
601.348	1781.01
601.548	1706.61
601.749	1750.78
601.949	1693.82
602.15	1735.67
602.35	1715.91
602.551	1734.12
602.751	1688.2
602.951	1712.03
603.152	1626.39
603.352	1739.93
603.552	1700.02
603.753	1776.55
603.953	1746.52
604.153	1775.97
604.354	1723.85
604.554	1712.61
604.754	1720.17
604.954	1647.71
605.155	1757.95
605.355	1718.62
605.555	1724.43
605.755	1774.03
605.955	1711.26
606.155	1735.67
606.356	1703.89
606.556	1707.77
606.756	1702.73
606.956	1665.92
607.156	1754.46
607.356	1659.72
607.556	1728.31
607.756	1701.38
607.956	1772.09
608.156	1702.93
608.356	1666.31
608.556	1668.63
608.756	1699.24
608.956	1671.15
609.156	1662.43
609.356	1625.04
609.556	1586.1
609.755	1669.79
609.955	1651.19
610.155	1667.66
610.355	1697.69
610.555	1615.93
610.755	1628.33
610.954	1579.9
611.154	1634.92
611.354	1674.06
611.554	1610.7
611.753	1593.46
611.953	1556.65
612.153	1634.92
612.352	1648.48
612.552	1615.74
612.752	1545.99
612.951	1588.81
613.151	1578.15
613.351	1567.3
613.55	1591.13
613.75	1582.03
613.949	1569.63
614.149	1603.92
