Data from gum_old_FLMT105791__7__15-42-29-259.txt Node

Date: Mon Mar 20 15:42:29 GMT 2023
User: antho
Spectrometer: FLMT10579
Trigger mode: 0
Integration Time (sec): 1.000000E-1
Scans to average: 10
Electric dark correction enabled: true
Nonlinearity correction enabled: false
Boxcar width: 0
XAxis mode: Wavelengths
Number of Pixels in Spectrum: 3648
>>>>>Begin Spectral Data<<<<<
345.248	-167.03
345.464	-167.03
345.681	-167.03
345.898	-179.62
346.114	-205.78
346.331	-39.54
346.548	21.3
346.764	-25.01
346.981	1.73
347.197	-9.51
347.414	46.29
347.631	-31.6
347.847	65.86
348.064	10.06
348.28	30.6
348.497	-55.23
348.713	-14.93
348.93	30.4
349.146	36.02
349.363	-2.34
349.579	38.54
349.796	17.03
350.012	21.49
350.229	46.68
350.445	34.28
350.661	-8.15
350.878	26.91
351.094	49.39
351.311	26.72
351.527	53.07
351.743	4.25
351.96	77.48
352.176	50.94
352.392	46.68
352.609	55.01
352.825	28.27
353.041	5.41
353.257	1.53
353.474	26.33
353.69	42.61
353.906	31.76
354.122	6.18
354.339	57.53
354.555	38.54
354.771	11.61
354.987	93.18
355.203	80.97
355.42	19.36
355.636	18
355.852	7.15
356.068	20.71
356.284	-22.49
356.5	86.01
356.716	24.98
356.932	12.38
357.148	71.28
357.364	13.35
357.58	65.47
357.796	101.12
358.012	61.01
358.228	40.48
358.444	-41.67
358.66	66.05
358.876	46.68
359.092	0.37
359.308	41.83
359.524	69.93
359.74	24.2
359.956	46.1
360.172	56.75
360.388	81.16
360.604	37.18
360.819	125.14
361.035	63.92
361.251	75.16
361.467	12.19
361.683	52.1
361.898	65.28
362.114	51.71
362.33	62.56
362.546	70.7
362.762	59.08
362.977	45.32
363.193	-18.23
363.409	90.85
363.624	0.57
363.84	18.2
364.056	26.33
364.271	66.05
364.487	72.45
364.703	58.3
364.918	34.66
365.134	42.03
365.35	48.61
365.565	112.74
365.781	55.01
365.996	98.6
366.212	98.79
366.427	77.87
366.643	59.66
366.858	54.04
367.074	45.13
367.289	118.36
367.505	177.26
367.72	17.81
367.936	39.12
368.151	90.46
368.367	86.78
368.582	68.76
368.798	63.53
369.013	118.75
369.228	60.24
369.444	78.26
369.659	111.39
369.874	94.53
370.09	127.66
370.305	-3.12
370.52	42.61
370.736	143.94
370.951	70.31
371.166	117.2
371.381	109.64
371.597	91.05
371.812	48.03
372.027	51.91
372.242	46.29
372.458	116.23
372.673	89.11
372.888	57.53
373.103	75.35
373.318	181.72
373.533	112.74
373.749	74.38
373.964	5.99
374.179	126.89
374.394	56.75
374.609	110.81
374.824	28.27
375.039	98.02
375.254	62.56
375.469	105.19
375.684	89.5
375.899	123.21
376.114	90.27
376.329	91.43
376.544	123.21
376.759	88.14
376.974	72.83
377.189	70.7
377.404	60.24
377.619	138.13
377.834	36.02
378.049	40.09
378.264	79.81
378.478	107.32
378.693	96.08
378.908	132.12
379.123	84.85
379.338	118.56
379.553	100.34
379.767	103.83
379.982	89.11
380.197	97.24
380.412	94.34
380.626	125.92
380.841	177.84
381.056	113.33
381.271	163.7
381.485	71.67
381.7	78.06
381.915	103.06
382.129	81.16
382.344	87.95
382.559	71.67
382.773	127.66
382.988	61.6
383.202	86.98
383.417	56.56
383.632	176.49
383.846	61.4
384.061	86.2
384.275	73.8
384.49	101.7
384.704	92.79
384.919	97.83
385.133	131.34
385.348	125.34
385.562	77.68
385.777	146.65
385.991	96.86
386.206	92.4
386.42	104.8
386.634	139.87
386.849	139.48
387.063	94.92
387.277	78.84
387.492	84.26
387.706	102.48
387.92	93.76
388.135	141.42
388.349	126.31
388.563	109.45
388.778	112.36
388.992	117.59
389.206	158.28
389.42	190.05
389.635	136.58
389.849	178.23
390.063	185.4
390.277	156.73
390.491	215.43
390.706	174.74
390.92	204.39
391.134	140.45
391.348	198.57
391.562	122.82
391.776	169.32
391.99	132.51
392.205	181.33
392.419	130.57
392.633	151.88
392.847	184.04
393.061	101.12
393.275	203.42
393.489	111.78
393.703	118.94
393.917	121.85
394.131	73.22
394.345	145.88
394.559	160.79
394.773	128.83
394.986	159.83
395.2	179.98
395.414	192.96
395.628	176.1
395.842	182.11
396.056	173.97
396.27	117.78
396.484	173.97
396.697	192.18
396.911	195.47
397.125	156.73
397.339	159.05
397.553	117.2
397.766	175.71
397.98	205.94
398.194	207.68
398.408	190.82
398.621	230.16
398.835	236.36
399.049	247.21
399.262	277.04
399.476	296.42
399.69	271.42
399.903	342.92
400.117	256.12
400.331	289.25
400.544	253.79
400.758	371.4
400.971	305.72
401.185	309.4
401.398	245.46
401.612	354.15
401.826	312.69
402.039	296.8
402.253	274.14
402.466	331.49
402.68	292.74
402.893	315.4
403.106	313.66
403.32	311.14
403.533	340.79
403.747	289.83
403.96	304.75
404.174	327.61
404.387	290.22
404.6	312.5
404.814	348.54
405.027	320.64
405.24	321.02
405.454	285.18
405.667	366.55
405.88	251.47
406.094	326.06
406.307	358.22
406.52	334
406.733	285.18
406.947	274.72
407.16	400.65
407.373	339.43
407.586	294.48
407.799	316.37
408.012	364.62
408.226	359.19
408.439	368.49
408.652	325.48
408.865	371.78
409.078	409.37
409.291	388.06
409.504	343.89
409.717	391.74
409.93	401.62
410.143	328.58
410.357	294.87
410.57	294.48
410.783	312.3
410.996	351.05
411.209	339.62
411.421	398.33
411.634	394.45
411.847	367.91
412.06	382.63
412.273	401.23
412.486	397.55
412.699	497.33
412.912	409.37
413.125	419.25
413.338	377.21
413.55	432.82
413.763	375.85
413.976	430.1
414.189	378.76
414.402	402.2
414.615	460.52
414.827	378.18
415.04	399.68
415.253	408.79
415.466	443.47
415.678	473.31
415.891	413.05
416.104	382.63
416.316	395.42
416.529	396.97
416.742	456.84
416.954	454.13
417.167	426.62
417.38	435.33
417.592	470.21
417.805	421.38
418.017	383.41
418.23	408.4
418.442	403.95
418.655	415.77
418.868	424.68
419.08	453.93
419.293	463.43
419.505	449.86
419.718	446.76
419.93	482.03
420.142	411.5
420.355	471.37
420.567	446.18
420.78	467.11
420.992	397.36
421.205	480.09
421.417	408.02
421.629	449.86
421.842	459.94
422.054	420.42
422.266	513.03
422.479	507.6
422.691	434.56
422.903	490.16
423.115	429.91
423.328	425.07
423.54	434.95
423.752	442.7
423.964	457.03
424.177	460.91
424.389	465.75
424.601	559.72
424.813	481.06
425.025	538.21
425.238	501.01
425.45	472.34
425.662	488.03
425.874	774.2
426.086	468.08
426.298	514.58
426.51	485.32
426.722	476.41
426.934	479.12
427.146	507.02
427.358	438.24
427.57	511.67
427.782	473.11
427.994	470.4
428.206	418.87
428.418	465.95
428.63	549.45
428.842	536.08
429.054	482.03
429.266	489.58
429.478	434.56
429.69	465.56
429.902	428.17
430.114	502.56
430.325	491.33
430.537	391.93
430.749	395.42
430.961	335.17
431.173	352.6
431.384	411.5
431.596	346.4
431.808	412.86
432.02	489.78
432.231	559.33
432.443	598.66
432.655	560.11
432.867	502.18
433.078	538.6
433.29	601.18
433.502	594.01
433.713	633.15
433.925	588.59
434.136	641.48
434.348	522.71
434.56	480.48
434.771	616.49
434.983	517.68
435.194	545.58
435.406	590.91
435.617	620.94
435.829	676.16
436.04	621.52
436.252	602.73
436.463	651.75
436.675	660.47
436.886	641.67
437.098	674.22
437.309	700.57
437.521	650.97
437.732	651.94
437.943	619.78
438.155	637.99
438.366	555.84
438.578	695.15
438.789	586.65
439	583.74
439.211	581.42
439.423	610.68
439.634	648.07
439.845	689.14
440.057	671.32
440.268	701.35
440.479	639.16
440.69	632.18
440.902	636.06
441.113	627.53
441.324	630.82
441.535	670.35
441.746	746.1
441.957	659.5
442.168	704.64
442.38	698.64
442.591	727.31
442.802	684.3
443.013	693.79
443.224	745.91
443.435	744.36
443.646	727.5
443.857	712.97
444.068	706.97
444.279	675.97
444.49	806.55
444.701	754.05
444.912	872.23
445.123	823.22
445.334	770.9
445.545	779.62
445.756	720.53
445.967	700.57
446.178	750.17
446.388	742.23
446.599	735.64
446.81	740.87
447.021	694.37
447.232	746.88
447.443	792.41
447.653	743.97
447.864	817.79
448.075	789.12
448.286	806.94
448.496	787.95
448.707	820.31
448.918	755.4
449.129	856.73
449.339	763.35
449.55	792.8
449.761	779.04
449.971	827.28
450.182	801.13
450.393	829.42
450.603	817.6
450.814	867
451.024	813.53
451.235	891.22
451.446	901.88
451.656	914.08
451.867	822.05
452.077	849.57
452.288	894.13
452.498	893.35
452.709	815.27
452.919	836.2
453.13	777.88
453.34	839.68
453.55	766.25
453.761	823.41
453.971	783.69
454.182	830
454.392	833.48
454.602	916.99
454.813	869.91
455.023	851.89
455.233	821.67
455.444	858.09
455.654	761.22
455.864	836
456.075	866.62
456.285	812.56
456.495	817.6
456.705	865.45
456.916	913.7
457.126	897.23
457.336	896.65
457.546	807.52
457.756	864.68
457.967	926.68
458.177	842.78
458.387	883.08
458.597	827.67
458.807	850.53
459.017	841.82
459.227	822.44
459.437	845.69
459.647	900.52
459.857	875.14
460.068	879.6
460.278	935.98
460.488	884.05
460.698	934.81
460.908	874.17
461.117	848.98
461.327	875.14
461.537	937.53
461.747	929.58
461.957	929.2
462.167	1003.4
462.377	983.64
462.587	909.82
462.797	961.55
463.007	955.55
463.216	1001.27
463.426	1018.9
463.636	983.83
463.846	895.1
464.056	931.91
464.265	997.01
464.475	899.16
464.685	955.16
464.895	946.25
465.104	899.94
465.314	974.92
465.524	948.18
465.733	906.33
465.943	1058.42
466.153	1038.86
466.362	991
466.572	1012.89
466.782	973.18
466.991	1012.12
467.201	1031.69
467.41	898.78
467.62	989.26
467.829	972.4
468.039	1006.89
468.249	1020.84
468.458	985.96
468.668	982.67
468.877	1039.83
469.086	1079.16
469.296	1087.49
469.505	1025.49
469.715	1096.79
469.924	1046.03
470.134	1087.1
470.343	1075.28
470.552	1043.12
470.762	1007.28
470.971	1008.24
471.18	1060.94
471.39	1058.23
471.599	1011.34
471.808	1067.53
472.018	1055.33
472.227	1125.07
472.436	1164.99
472.645	1132.82
472.855	1128.37
473.064	1174.29
473.273	1162.08
473.482	1166.92
473.691	1196.95
473.901	1137.28
474.11	1121.59
474.319	1232.6
474.528	1143.29
474.737	1251.78
474.946	1227.95
475.155	1241.13
475.364	1255.27
475.573	1230.86
475.783	1231.25
475.992	1284.53
476.201	1266.51
476.41	1255.27
476.619	1200.44
476.828	1266.7
477.037	1205.87
477.245	1237.45
477.454	1268.64
477.663	1281.62
477.872	1312.82
478.081	1391.86
478.29	1295.38
478.499	1419.96
478.708	1400.97
478.917	1410.27
479.125	1353.89
479.334	1323.47
479.543	1375.78
479.752	1389.54
479.961	1350.21
480.169	1458.51
480.378	1405.81
480.587	1556.55
480.796	1439.72
481.004	1423.06
481.213	1486.22
481.422	1448.05
481.63	1479.05
481.839	1506.17
482.048	1553.64
482.256	1503.85
482.465	1558.87
482.674	1555.19
482.882	1554.61
483.091	1607.7
483.299	1530.97
483.508	1593.36
483.716	1573.99
483.925	1558.68
484.134	1529.23
484.342	1525.36
484.551	1551.32
484.759	1578.25
484.967	1630.37
485.176	1631.34
485.384	1596.07
485.593	1640.25
485.801	1601.11
486.01	1536.4
486.218	1444.95
486.426	1367.45
486.635	1395.74
486.843	1335.1
487.051	1424.99
487.26	1424.22
487.468	1511.79
487.676	1511.41
487.885	1538.34
488.093	1586.58
488.301	1636.95
488.509	1608.09
488.717	1702.63
488.926	1677.45
489.134	1658.27
489.342	1673.57
489.55	1592.78
489.758	1658.07
489.967	1655.17
490.175	1783.23
490.383	1735.38
490.591	1793.11
490.799	1713.29
491.007	1815.2
491.215	1779.16
491.423	1767.35
491.631	1759.6
491.839	1787.5
492.047	1774.51
492.255	1701.28
492.463	1665.44
492.671	1693.92
492.879	1792.73
493.087	1726.47
493.295	1740.61
493.503	1797.96
493.711	1838.26
493.919	1871
494.127	1839.42
494.334	1835.93
494.542	1772.77
494.75	1842.13
494.958	1852.59
495.166	1912.85
495.374	1883.98
495.581	1917.11
495.789	1916.34
495.997	1982.79
496.205	1855.31
496.412	1864.99
496.62	1893.67
496.828	1885.14
497.035	1909.75
497.243	1953.54
497.451	1934.55
497.658	1942.11
497.866	1927.38
498.074	1986.28
498.281	1910.33
498.489	1969.62
498.696	1873.33
498.904	1845.81
499.112	1862.67
499.319	1980.66
499.527	1900.06
499.734	1990.54
499.942	1875.65
500.149	1911.88
500.357	1920.6
500.564	1863.25
500.771	1918.86
500.979	1877.39
501.186	1863.25
501.394	1952.76
501.601	1850.66
501.808	1898.71
502.016	1873.13
502.223	1827.02
502.43	1899.09
502.638	1883.21
502.845	1838.84
503.052	1994.22
503.26	1942.88
503.467	2001.01
503.674	1948.5
503.881	1967.1
504.089	2043.05
504.296	1979.11
504.503	1938.42
504.71	1936.68
504.917	1889.02
505.125	1955.47
505.332	1964
505.539	1982.79
505.746	2040.72
505.953	2045.57
506.16	2067.46
506.367	2088.97
506.574	2147.87
506.781	2136.05
506.988	2019.8
507.195	2075.21
507.402	2073.85
507.609	2069.98
507.816	2032.2
508.023	2026.58
508.23	2004.69
508.437	1950.24
508.644	2023.09
508.851	2028.71
509.058	2076.37
509.265	2028.52
509.472	2076.18
509.679	2167.82
509.885	2069.98
510.092	2098.46
510.299	2065.52
510.506	2069.59
510.713	2057.19
510.92	2039.75
511.126	2094.2
511.333	2130.23
511.54	2174.99
511.746	2161.43
511.953	2140.5
512.16	2189.33
512.367	2132.56
512.573	2122.87
512.78	2141.28
512.987	2110.67
513.193	2074.44
513.4	2006.62
513.606	2080.44
513.813	2146.51
514.02	2096.72
514.226	2155.81
514.433	2137.21
514.639	2026.97
514.846	2101.56
515.052	2063.59
515.259	2118.42
515.465	2134.69
515.672	2125.78
515.878	2223.04
516.085	2129.85
516.291	2164.53
516.497	2126.17
516.704	2129.07
516.91	2039.75
517.117	1962.26
517.323	1879.53
517.529	1873.91
517.736	1905.1
517.942	1906.46
518.148	1929.51
518.354	1957.8
518.561	1966.91
518.767	1974.27
518.973	2026
519.179	2022.12
519.386	2028.32
519.592	2020.57
519.798	2037.62
520.004	2149.8
520.21	2093.62
520.417	2185.65
520.623	2216.84
520.829	2213.16
521.035	2213.16
521.241	2215.87
521.447	2219.36
521.653	2357.69
521.859	2227.11
522.065	2294.53
522.271	2358.28
522.477	2337.74
522.683	2376.1
522.889	2272.06
523.095	2299.96
523.301	2273.03
523.507	2273.61
523.713	2320.3
523.919	2243.96
524.125	2371.64
524.331	2319.72
524.537	2432.29
524.742	2404.39
524.948	2428.61
525.154	2442.17
525.36	2527.22
525.566	2395.67
525.772	2464.06
525.977	2405.36
526.183	2446.43
526.389	2456.89
526.595	2372.42
526.8	2362.54
527.006	2293.18
527.212	2194.75
527.417	2184.68
527.623	2198.63
527.829	2281.74
528.034	2269.73
528.24	2337.74
528.446	2357.31
528.651	2481.3
528.857	2425.7
529.062	2532.45
529.268	2481.5
529.473	2539.43
529.679	2532.65
529.884	2617.7
530.09	2587.48
530.295	2579.53
530.501	2589.61
530.706	2567.33
530.912	2516.37
531.117	2563.84
531.323	2606.27
531.528	2634.56
531.733	2629.52
531.939	2586.7
532.144	2608.4
532.35	2620.61
532.555	2655.48
532.76	2604.53
532.966	2593.29
533.171	2547.57
533.376	2528.58
533.581	2483.63
533.787	2532.26
533.992	2578.76
534.197	2570.62
534.402	2600.85
534.607	2596.39
534.813	2696.36
535.018	2600.07
535.223	2649.09
535.428	2651.03
535.633	2725.23
535.838	2697.33
536.043	2741.7
536.249	2786.07
536.454	2730.66
536.659	2719.42
536.864	2689.78
537.069	2688.03
537.274	2662.26
537.479	2688.03
537.684	2650.45
537.889	2600.65
538.094	2770.76
538.299	2683
538.504	2695.01
538.708	2744.99
538.913	2734.73
539.118	2696.56
539.323	2744.22
539.528	2637.08
539.733	2657.61
539.938	2673.5
540.142	2666.91
540.347	2631.46
540.552	2621.58
540.757	2623.9
540.962	2595.23
541.166	2554.35
541.371	2574.11
541.576	2613.83
541.781	2559
541.985	2658.97
542.19	2625.84
542.395	2747.13
542.599	2739.96
542.804	2694.81
543.008	2737.24
543.213	2686.48
543.418	2685.71
543.622	2720
543.827	2676.99
544.031	2699.08
544.236	2769.41
544.44	2754.29
544.645	2808.35
544.849	2726.01
545.054	2758.75
545.258	2833.92
545.463	2817.84
545.667	2687.65
545.872	2767.08
546.076	2777.35
546.281	2755.26
546.485	2697.14
546.689	2788.98
546.894	2807.77
547.098	2758.75
547.302	2694.43
547.507	2741.89
547.711	2760.69
547.915	2791.11
548.119	2698.11
548.324	2707.41
548.528	2751.19
548.732	2674.08
548.936	2738.79
549.141	2736.28
549.345	2730.08
549.549	2747.32
549.753	2756.04
549.957	2800.99
550.161	2837.99
550.366	2785.68
550.57	2720.19
550.774	2762.82
550.978	2757.39
551.182	2827.72
551.386	2738.79
551.59	2738.21
551.794	2715.74
551.998	2788.2
552.202	2730.46
552.406	2702.37
552.61	2800.6
552.814	2783.36
553.018	2810.29
553.222	2744.41
553.426	2780.84
553.63	2826.37
553.833	2736.08
554.037	2721.94
554.241	2754.88
554.445	2766.11
554.649	2759.14
554.853	2689.2
555.056	2791.11
555.26	2827.72
555.464	2762.63
555.668	2780.64
555.871	2801.76
556.075	2792.66
556.279	2740.15
556.483	2688.81
556.686	2730.08
556.89	2733.37
557.094	2743.25
557.297	2652.38
557.501	2757.39
557.704	2632.81
557.908	2715.93
558.112	2679.9
558.315	2744.99
558.519	2669.24
558.722	2675.63
558.926	2645.41
559.129	2580.5
559.333	2574.88
559.536	2606.27
559.74	2555.7
559.943	2553.18
560.147	2538.65
560.35	2577.02
560.553	2571.4
560.757	2527.61
560.96	2639.21
561.164	2612.86
561.367	2648.9
561.57	2640.76
561.774	2614.41
561.977	2590.58
562.18	2576.24
562.384	2654.13
562.587	2554.15
562.79	2593.1
562.993	2582.25
563.197	2614.6
563.4	2616.15
563.603	2634.36
563.806	2690.16
564.009	2557.64
564.212	2615.38
564.416	2544.08
564.619	2595.42
564.822	2477.43
565.025	2609.95
565.228	2551.63
565.431	2543.88
565.634	2439.46
565.837	2505.72
566.04	2444.88
566.243	2485.18
566.446	2360.21
566.649	2464.06
566.852	2391.21
567.055	2434.03
567.258	2481.89
567.461	2522.57
567.664	2489.05
567.867	2403.61
568.07	2483.82
568.273	2433.64
568.475	2521.6
568.678	2408.84
568.881	2439.46
569.084	2416.01
569.287	2292.59
569.489	2337.16
569.692	2423.18
569.895	2390.82
570.098	2344.91
570.3	2316.43
570.503	2268.38
570.706	2316.62
570.909	2302.86
571.111	2236.99
571.314	2239.31
571.516	2270.7
571.719	2287.56
571.922	2275.16
572.124	2248.03
572.327	2278.65
572.529	2222.07
572.732	2263.15
572.935	2264.11
573.137	2373.39
573.34	2268.96
573.542	2319.91
573.745	2320.11
573.947	2344.91
574.15	2290.46
574.352	2274.19
574.554	2358.08
574.757	2242.8
574.959	2197.66
575.162	2213.55
575.364	2175.18
575.566	2301.12
575.769	2175.38
575.971	2222.85
576.173	2106.4
576.376	2204.05
576.578	2239.31
576.78	2271.28
576.982	2105.05
577.185	2220.91
577.387	2193.59
577.589	2181.58
577.791	2194.17
577.993	2217.03
578.196	2164.53
578.398	2168.98
578.6	2218.97
578.802	2070.75
579.004	2119.38
579.206	2110.47
579.408	2171.5
579.61	2120.93
579.812	2149.8
580.014	2130.62
580.216	2149.42
580.418	2132.56
580.62	2111.44
580.822	2105.82
581.024	2117.25
581.226	2194.36
581.428	2125
581.63	2169.57
581.832	2098.65
582.034	2209.48
582.236	2163.17
582.438	2147.09
582.64	2186.81
582.841	2244.16
583.043	2224.01
583.245	2161.23
583.447	2160.07
583.649	2156.58
583.85	2156.2
584.052	2220.91
584.254	2113.77
584.456	2200.95
584.657	2114.15
584.859	2126.55
585.061	2114.15
585.262	2125
585.464	2076.57
585.666	2144.57
585.867	2072.69
586.069	2143.8
586.27	2086.45
586.472	2054.67
586.674	2042.08
586.875	2060.49
587.077	2066.88
587.278	2097.69
587.48	2039.37
587.681	2184.1
587.883	2058.94
588.084	1990.35
588.285	2058.16
588.487	2027.16
588.688	2023.87
588.89	1970.78
589.091	1915.76
589.292	1926.03
589.494	1874.49
589.695	1839.23
589.896	1783.04
590.098	1777.42
590.299	1835.35
590.5	1809.2
590.702	1839.23
590.903	1880.49
591.104	1942.88
591.305	1957.41
591.507	1973.11
591.708	1919.63
591.909	1898.71
592.11	1985.51
592.311	1967.87
592.512	1940.17
592.714	1872.55
592.915	1903.94
593.116	1918.08
593.317	1940.17
593.518	1927.77
593.719	1936.68
593.92	1926.99
594.121	2001.39
594.322	1927.19
594.523	1955.67
594.724	1891.15
594.925	1930.48
595.126	1890.96
595.327	1938.62
595.528	1946.95
595.729	1948.5
595.929	1931.06
596.13	1915.18
596.331	1947.14
596.532	1920.21
596.733	2017.28
596.934	2001.59
597.135	1999.84
597.335	1978.34
597.536	1926.03
597.737	1939.01
597.938	1952.18
598.138	1950.82
598.339	1934.16
598.54	1966.32
598.74	1905.29
598.941	1887.66
599.142	1963.42
599.342	1904.52
599.543	1872.55
599.744	1916.92
599.944	1919.63
600.145	1916.14
600.345	1923.89
600.546	1963.61
600.746	1954.51
600.947	1968.65
601.147	1913.04
601.348	1948.69
601.548	1868.87
601.749	1911.11
601.949	1838.84
602.15	1858.21
602.35	1873.52
602.551	1893.09
602.751	1852.98
602.951	1864.99
603.152	1790.6
603.352	1906.65
603.552	1864.61
603.753	1920.99
603.953	1952.76
604.153	1912.85
604.354	1905.1
604.554	1896.77
604.754	1915.95
604.954	1884.76
605.155	1930.29
605.355	1840.2
605.555	1926.61
605.755	1919.83
605.955	1893.28
606.155	1913.63
606.356	1871.19
606.556	1902.19
606.756	1924.86
606.956	1827.6
607.156	1939.01
607.356	1841.16
607.556	1886.31
607.756	1877.78
607.956	1948.89
608.156	1869.26
608.356	1844.26
608.556	1880.88
608.756	1821.4
608.956	1796.41
609.156	1836.13
609.356	1820.43
609.556	1821.6
609.755	1840.2
609.955	1805.51
610.155	1821.79
610.355	1846.59
610.555	1794.47
610.755	1830.9
610.954	1729.57
611.154	1815.98
611.354	1842.91
611.554	1767.15
611.753	1790.4
611.953	1761.15
612.153	1825.28
612.352	1810.55
612.552	1736.93
612.752	1721.23
612.951	1802.61
613.151	1789.43
613.351	1726.27
613.55	1773.55
613.75	1758.43
613.949	1762.5
