Data from gum_old_FLMT105791__128__15-46-17-253.txt Node

Date: Mon Mar 20 15:46:17 GMT 2023
User: antho
Spectrometer: FLMT10579
Trigger mode: 0
Integration Time (sec): 1.000000E-1
Scans to average: 10
Electric dark correction enabled: true
Nonlinearity correction enabled: false
Boxcar width: 0
XAxis mode: Wavelengths
Number of Pixels in Spectrum: 3648
>>>>>Begin Spectral Data<<<<<
345.248	-193.83
345.464	-193.83
345.681	-193.83
345.898	-195.38
346.114	-178.52
346.331	-24.88
346.548	29.37
346.764	-9.19
346.981	-1.05
347.197	-12.87
347.414	38.86
347.631	-26.43
347.847	83.23
348.064	1.47
348.28	6.7
348.497	-63.44
348.713	-21.78
348.93	8.83
349.146	22.78
349.363	-5.7
349.579	16
349.796	19.88
350.012	6.51
350.229	32.47
350.445	11.74
350.661	-10.74
350.878	32.08
351.094	44.67
351.311	25.3
351.527	34.21
351.743	5.34
351.96	48.55
352.176	50.1
352.392	54.56
352.609	52.42
352.825	-5.12
353.041	16.58
353.257	17.74
353.474	0.89
353.69	30.92
353.906	17.36
354.122	-8.61
354.339	70.06
354.555	27.04
354.771	-1.24
354.987	75.09
355.203	45.45
355.42	-7.44
355.636	-3.37
355.852	-19.26
356.068	6.31
356.284	0.69
356.5	67.73
356.716	58.24
356.932	29.18
357.148	59.79
357.364	10.58
357.58	65.02
357.796	56.69
358.012	55.33
358.228	48.36
358.444	-71.96
358.66	64.05
358.876	55.72
359.092	-15
359.308	24.91
359.524	18.71
359.74	26.46
359.956	1.86
360.172	7.48
360.388	63.86
360.604	21.04
360.819	109.58
361.035	19.29
361.251	63.08
361.467	-27.79
361.683	43.71
361.898	25.49
362.114	53.59
362.33	41.38
362.546	74.9
362.762	28.21
362.977	40.02
363.193	15.23
363.409	53.01
363.624	-16.55
363.84	21.81
364.056	20.26
364.271	46.03
364.487	67.15
364.703	28.21
364.918	-4.92
365.134	11.16
365.35	15.42
365.565	145.23
365.781	42.74
365.996	56.49
366.212	107.26
366.427	53.59
366.643	24.14
366.858	24.91
367.074	7.86
367.289	106.48
367.505	135.54
367.72	-16.74
367.936	28.01
368.151	76.84
368.367	73.35
368.582	40.8
368.798	39.83
369.013	95.24
369.228	53.59
369.444	50.68
369.659	96.02
369.874	49.52
370.09	95.82
370.305	-31.47
370.52	-5.51
370.736	90.01
370.951	41.96
371.166	72.96
371.381	101.44
371.597	80.52
371.812	14.06
372.027	49.52
372.242	31.31
372.458	111.13
372.673	22.01
372.888	42.93
373.103	66.18
373.318	134.57
373.533	70.06
373.749	56.88
373.964	-6.86
374.179	113.26
374.394	-5.7
374.609	96.79
374.824	4.96
375.039	68.7
375.254	1.66
375.469	78.77
375.684	38.67
375.899	94.86
376.114	36.34
376.329	70.44
376.544	95.82
376.759	74.51
376.974	46.22
377.189	47.58
377.404	34.99
377.619	104.74
377.834	5.54
378.049	-7.06
378.264	19.88
378.478	63.66
378.693	41.96
378.908	75.48
379.123	47.97
379.338	75.48
379.553	76.64
379.767	68.31
379.982	91.76
380.197	51.07
380.412	37.51
380.626	73.16
380.841	119.27
381.056	46.61
381.271	129.73
381.485	45.26
381.7	49.91
381.915	63.86
382.129	38.47
382.344	57.85
382.559	32.08
382.773	86.72
382.988	-20.42
383.202	52.81
383.417	60.37
383.632	144.07
383.846	64.63
384.061	56.49
384.275	38.47
384.49	51.46
384.704	78.39
384.919	95.05
385.133	61.53
385.348	122.95
385.562	45.06
385.777	106.48
385.991	70.64
386.206	46.22
386.42	95.24
386.634	112.49
386.849	97.18
387.063	59.21
387.277	47.39
387.492	53.39
387.706	35.38
387.92	44.09
388.135	89.24
388.349	71.61
388.563	50.29
388.778	67.92
388.992	96.79
389.206	72.96
389.42	134.38
389.635	72.57
389.849	119.85
390.063	130.31
390.277	122.95
390.491	152.4
390.706	122.17
390.92	133.8
391.134	98.15
391.348	134.19
391.562	65.41
391.776	96.99
391.99	64.44
392.205	122.95
392.419	93.31
392.633	101.06
392.847	145.23
393.061	85.17
393.275	140
393.489	69.86
393.703	76.06
393.917	85.17
394.131	19.68
394.345	112.68
394.559	100.09
394.773	70.06
394.986	95.44
395.2	79.55
395.414	136.12
395.628	96.21
395.842	112.49
396.056	145.42
396.27	61.92
396.484	114.42
396.697	114.42
396.911	137.48
397.125	114.62
397.339	114.62
397.553	97.18
397.766	163.25
397.98	132.44
398.194	163.83
398.408	93.31
398.621	138.64
398.835	161.5
399.049	140.58
399.262	194.05
399.476	178.36
399.69	165.38
399.903	238.42
400.117	139.8
400.331	171.39
400.544	141.55
400.758	273.3
400.971	200.64
401.185	186.89
401.398	129.92
401.612	239.58
401.826	181.27
402.039	202.19
402.253	152.4
402.466	182.82
402.68	208.59
402.893	198.9
403.106	205.68
403.32	182.62
403.533	223.31
403.747	176.42
403.96	203.16
404.174	217.69
404.387	134.96
404.6	200.25
404.814	241.72
405.027	204.13
405.24	190.76
405.454	157.24
405.667	213.04
405.88	136.12
406.094	208.2
406.307	231.64
406.52	209.94
406.733	188.63
406.947	134.57
407.16	246.95
407.373	236.29
407.586	173.32
407.799	138.84
408.012	207.04
408.226	227.57
408.439	238.62
408.652	153.56
408.865	228.54
409.078	239.2
409.291	218.47
409.504	189.99
409.717	232.03
409.93	257.22
410.143	220.21
410.357	171.77
410.57	137.67
410.783	192.5
410.996	215.17
411.209	195.99
411.421	255.28
411.634	235.13
411.847	201.42
412.06	256.63
412.273	229.9
412.486	264
412.699	330.06
412.912	241.91
413.125	284.34
413.338	238.03
413.55	273.49
413.763	262.64
413.976	223.5
414.189	198.32
414.402	220.02
414.615	297.32
414.827	203.94
415.04	259.93
415.253	267.68
415.466	303.71
415.678	311.27
415.891	268.45
416.104	233.77
416.316	215.37
416.529	217.88
416.742	291.7
416.954	278.53
417.167	254.12
417.38	259.54
417.592	311.27
417.805	231.64
418.017	206.07
418.23	281.63
418.442	236.87
418.655	240.94
418.868	260.9
419.08	309.33
419.293	303.33
419.505	273.88
419.718	265.16
419.93	301.78
420.142	248.3
420.355	303.71
420.567	293.83
420.78	291.7
420.992	254.5
421.205	335.49
421.417	238.62
421.629	253.92
421.842	254.12
422.054	224.86
422.266	300.23
422.479	314.37
422.691	244.62
422.903	304.88
423.115	245.98
423.328	250.43
423.54	277.75
423.752	282.98
423.964	223.7
424.177	294.8
424.389	256.25
424.601	389.54
424.813	265.93
425.025	277.37
425.238	330.06
425.45	274.07
425.662	277.17
425.874	605.19
426.086	280.27
426.298	316.89
426.51	294.22
426.722	286.67
426.934	280.85
427.146	335.1
427.358	238.03
427.57	355.45
427.782	284.73
427.994	258.18
428.206	255.86
428.418	227.77
428.63	324.45
428.842	327.93
429.054	303.91
429.266	299.26
429.478	254.89
429.69	279.69
429.902	220.4
430.114	283.76
430.325	294.42
430.537	250.82
430.749	240.75
430.961	194.05
431.173	256.83
431.384	259.54
431.596	176.42
431.808	237.45
432.02	290.93
432.231	323.09
432.443	349.63
432.655	328.32
432.867	262.45
433.078	330.65
433.29	391.87
433.502	343.05
433.713	358.35
433.925	332.58
434.136	381.21
434.348	287.05
434.56	276.59
434.771	438.95
434.983	290.35
435.194	296.74
435.406	307.78
435.617	389.16
435.829	425
436.04	395.16
436.252	392.45
436.463	412.02
436.675	401.94
436.886	394.39
437.098	370.75
437.309	449.41
437.521	382.38
437.732	366.68
437.943	370.95
438.155	362.81
438.366	307.59
438.578	432.56
438.789	380.83
439	376.76
439.211	359.9
439.423	371.72
439.634	379.66
439.845	408.53
440.057	399.04
440.268	431.01
440.479	369.01
440.69	394
440.902	357.19
441.113	375.79
441.324	380.05
441.535	415.12
441.746	478.09
441.957	356.03
442.168	382.96
442.38	428.49
442.591	428.88
442.802	378.11
443.013	394.39
443.224	439.53
443.435	430.43
443.646	438.56
443.857	421.13
444.068	416.86
444.279	395.55
444.49	479.25
444.701	423.06
444.912	557.91
445.123	454.64
445.334	427.13
445.545	440.11
445.756	455.61
445.967	408.92
446.178	454.84
446.388	440.69
446.599	449.61
446.81	438.37
447.021	418.61
447.232	458.13
447.443	502.11
447.653	421.32
447.864	463.75
448.075	479.44
448.286	463.17
448.496	489.32
448.707	501.53
448.918	454.26
449.129	551.52
449.339	429.46
449.55	489.91
449.761	430.04
449.971	533.5
450.182	463.56
450.393	477.7
450.603	470.92
450.814	529.82
451.024	509.47
451.235	547.64
451.446	572.64
451.656	568.57
451.867	479.44
452.077	505.99
452.288	569.73
452.498	545.12
452.709	492.42
452.919	519.74
453.13	478.28
453.34	526.33
453.55	431.78
453.761	518
453.971	522.46
454.182	515.09
454.392	523.42
454.602	575.35
454.813	533.69
455.023	548.42
455.233	460.65
455.444	506.18
455.654	428.29
455.864	493.01
456.075	508.7
456.285	468.01
456.495	517.03
456.705	519.74
456.916	567.02
457.126	557.52
457.336	504.63
457.546	449.99
457.756	521.87
457.967	573.02
458.177	518.19
458.387	541.64
458.597	507.73
458.807	519.36
459.017	478.67
459.227	490.49
459.437	487.19
459.647	561.79
459.857	570.12
460.068	495.33
460.278	592.2
460.488	527.3
460.698	594.34
460.908	521.49
461.117	476.73
461.327	496.69
461.537	537.37
461.747	537.76
461.957	531.37
462.167	667.77
462.377	587.94
462.587	559.85
462.797	594.92
463.007	547.26
463.216	600.15
463.426	653.04
463.636	564.11
463.846	532.34
464.056	566.24
464.265	576.51
464.475	533.5
464.685	572.05
464.895	579.61
465.104	564.11
465.314	619.91
465.524	566.82
465.733	519.94
465.943	634.05
466.153	640.25
466.362	619.14
466.572	576.9
466.782	576.51
466.991	581.16
467.201	635.41
467.41	512.77
467.62	570.12
467.829	572.83
468.039	592.98
468.249	585.04
468.458	613.9
468.668	594.92
468.877	613.9
469.086	659.24
469.296	645.68
469.505	585.23
469.715	694.89
469.924	645.49
470.134	672.03
470.343	673.58
470.552	601.31
470.762	591.62
470.971	584.84
471.18	620.3
471.39	614.87
471.599	580.58
471.808	661.57
472.018	617.97
472.227	693.15
472.436	704.38
472.645	669.7
472.855	633.09
473.064	725.5
473.273	680.94
473.482	681.52
473.691	728.22
473.901	736.35
474.11	668.15
474.319	783.63
474.528	682.68
474.737	763.86
474.946	740.23
475.155	742.16
475.364	793.51
475.573	744.88
475.783	749.14
475.992	770.84
476.201	794.09
476.41	691.21
476.619	710.39
476.828	749.33
477.037	708.65
477.245	734.61
477.454	792.54
477.663	737.32
477.872	754.18
478.081	825.09
478.29	716.98
478.499	865.78
478.708	816.37
478.917	865.39
479.125	788.47
479.334	827.41
479.543	801.84
479.752	824.89
479.961	838.84
480.169	893.29
480.378	823.15
480.587	948.51
480.796	861.13
481.004	850.86
481.213	868.88
481.422	870.23
481.63	863.45
481.839	899.68
482.048	934.56
482.256	889.03
482.465	910.92
482.674	922.74
482.882	933.01
483.091	980.86
483.299	906.27
483.508	938.24
483.716	915.57
483.925	927.19
484.134	931.65
484.342	895.61
484.551	970.59
484.759	964.97
484.967	950.44
485.176	967.69
485.384	980.09
485.593	960.13
485.801	938.82
486.01	950.83
486.218	879.92
486.426	824.12
486.635	818.89
486.843	832.45
487.051	863.84
487.26	852.79
487.468	919.06
487.676	941.92
487.885	881.86
488.093	952.38
488.301	969.43
488.509	989
488.717	1022.32
488.926	988.81
489.134	963.42
489.342	978.15
489.55	967.88
489.758	986.87
489.967	952.57
490.175	1086.65
490.383	1017.87
490.591	1125.2
490.799	1010.31
491.007	1059.91
491.215	1060.49
491.423	1034.14
491.631	1033.37
491.839	1076.38
492.047	1054.68
492.255	992.29
492.463	978.15
492.671	1000.62
492.879	1071.92
493.087	1046.93
493.295	1059.72
493.503	1100.6
493.711	1107.96
493.919	1137.8
494.127	1116.1
494.334	1162.79
494.542	1036.27
494.75	1111.25
494.958	1103.7
495.166	1149.62
495.374	1149.42
495.581	1146.52
495.789	1147.48
495.997	1207.74
496.205	1110.87
496.412	1118.03
496.62	1077.35
496.828	1145.55
497.035	1137.99
497.243	1155.43
497.451	1137.99
497.658	1152.33
497.866	1163.95
498.074	1202.9
498.281	1122.88
498.489	1229.83
498.696	1111.45
498.904	1136.44
499.112	1130.82
499.319	1211.61
499.527	1128.3
499.734	1205.41
499.942	1117.84
500.149	1138.38
500.357	1195.73
500.564	1116.29
500.771	1169.96
500.979	1121.52
501.186	1079.87
501.394	1135.28
501.601	1124.43
501.808	1170.54
502.016	1146.13
502.223	1091.3
502.43	1153.68
502.638	1099.63
502.845	1118.42
503.052	1223.82
503.26	1132.37
503.467	1220.33
503.674	1188.36
503.881	1163.95
504.089	1283.11
504.296	1207.35
504.503	1127.72
504.71	1164.92
504.917	1129.27
505.125	1164.15
505.332	1168.99
505.539	1211.23
505.746	1281.94
505.953	1221.3
506.16	1250.75
506.367	1304.03
506.574	1298.61
506.781	1317.79
506.988	1225.18
507.195	1269.16
507.402	1226.15
507.609	1281.94
507.816	1229.83
508.023	1234.67
508.23	1232.15
508.437	1156.2
508.644	1245.91
508.851	1280.39
509.058	1308.1
509.265	1242.03
509.472	1291.05
509.679	1380.37
509.885	1286.79
510.092	1300.35
510.299	1272.64
510.506	1276.13
510.713	1284.66
510.92	1275.36
511.126	1315.46
511.333	1347.04
511.54	1353.05
511.746	1367.58
511.953	1337.55
512.16	1383.27
512.367	1321.66
512.573	1288.14
512.78	1306.16
512.987	1317.98
513.193	1306.74
513.4	1214.33
513.606	1296.28
513.813	1344.33
514.02	1337.55
514.226	1410.4
514.433	1367.77
514.639	1261.79
514.846	1339.68
515.052	1276.71
515.259	1323.21
515.465	1338.13
515.672	1346.08
515.878	1447.4
516.085	1356.54
516.291	1386.37
516.497	1324.38
516.704	1315.66
516.91	1306.55
517.117	1235.25
517.323	1208.71
517.529	1211.23
517.736	1231.18
517.942	1231.96
518.148	1233.9
518.354	1297.83
518.561	1270.71
518.767	1306.55
518.973	1310.81
519.179	1315.08
519.386	1300.74
519.592	1324.96
519.798	1323.6
520.004	1419.51
520.21	1348.21
520.417	1439.46
520.623	1443.34
520.829	1474.92
521.035	1449.92
521.241	1420.86
521.447	1479.95
521.653	1559.78
521.859	1484.22
522.065	1507.47
522.271	1598.33
522.477	1517.15
522.683	1592.13
522.889	1554.74
523.095	1536.53
523.301	1538.27
523.507	1502.62
523.713	1504.56
523.919	1521.42
524.125	1575.08
524.331	1557.84
524.537	1632.82
524.742	1650.45
524.948	1648.9
525.154	1671.96
525.36	1785.3
525.566	1645.41
525.772	1718.65
525.977	1596.98
526.183	1677.38
526.389	1690.56
526.595	1610.15
526.8	1618.87
527.006	1546.6
527.212	1493.71
527.417	1528.97
527.623	1517.93
527.829	1589.23
528.034	1614.61
528.24	1631.66
528.446	1618.87
528.651	1719.43
528.857	1707.22
529.062	1725.82
529.268	1714.97
529.473	1749.26
529.679	1736.09
529.884	1824.05
530.09	1807
530.295	1826.57
530.501	1822.89
530.706	1799.44
530.912	1741.71
531.117	1800.02
531.323	1816.3
531.528	1849.04
531.733	1866.87
531.939	1801.96
532.144	1883.72
532.35	1852.92
532.555	1890.31
532.76	1895.93
532.966	1830.06
533.171	1794.41
533.376	1800.8
533.581	1734.93
533.787	1803.32
533.992	1890.5
534.197	1878.1
534.402	1833.54
534.607	1872.87
534.813	1934.68
535.018	1878.69
535.223	1875.78
535.428	1898.84
535.633	1941.85
535.838	1931.97
536.043	1918.6
536.249	2017.99
536.454	1946.5
536.659	1993.19
536.864	1937.59
537.069	1899.22
537.274	1917.63
537.479	1900.39
537.684	1943.2
537.889	1868.42
538.094	2013.73
538.299	1908.14
538.504	1955.99
538.708	1933.13
538.913	1989.9
539.118	1968.39
539.323	1990.28
539.528	1936.62
539.733	1953.67
539.938	1957.15
540.142	1936.42
540.347	1934.1
540.552	1890.31
540.757	1901.74
540.962	1911.82
541.166	1851.37
541.371	1833.93
541.576	1925.57
541.781	1829.86
541.985	1984.08
542.19	1910.65
542.395	2032.13
542.599	1999.78
542.804	1990.87
543.008	2047.63
543.213	1925.19
543.418	1905.42
543.622	1987.96
543.827	1932.74
544.031	2004.04
544.236	2022.83
544.44	2021.87
544.645	2078.83
544.849	1988.93
545.054	2034.65
545.258	2089.68
545.463	2052.48
545.667	1977.69
545.872	2024.77
546.076	2023.42
546.281	2000.94
546.485	1993.19
546.689	2043.95
546.894	2064.68
547.098	1985.83
547.302	1981.37
547.507	2019.35
547.711	2011.02
547.915	2051.31
548.119	1973.23
548.324	1990.09
548.528	2057.51
548.732	1995.32
548.936	2037.56
549.141	2042.21
549.345	1973.04
549.549	2000.75
549.753	2013.92
549.957	2098.01
550.161	2080.57
550.366	2033.49
550.57	2014.7
550.774	2008.88
550.978	2031.55
551.182	2076.31
551.386	2007.53
551.59	2016.63
551.794	2016.44
551.998	2082.51
552.202	2035.23
552.406	1986.6
552.61	2090.65
552.814	2033.3
553.018	2117
553.222	2006.17
553.426	2015.67
553.63	2093.94
553.833	2081.15
554.037	1973.62
554.241	2049.57
554.445	2023.8
554.649	2045.7
554.853	2009.08
555.056	2076.31
555.26	2095.68
555.464	2063.91
555.668	2077.08
555.871	2124.16
556.075	2066.43
556.279	2029.23
556.483	1999.39
556.686	2018.18
556.89	2044.15
557.094	2059.26
557.297	1964.32
557.501	2070.3
557.704	1901.16
557.908	2044.73
558.112	1954.83
558.315	2051.31
558.519	1961.42
558.722	1948.24
558.926	1980.98
559.129	1881.01
559.333	1855.63
559.536	1866.48
559.74	1874.42
559.943	1884.69
560.147	1870.55
560.35	1891.28
560.553	1897.48
560.757	1833.16
560.96	1963.16
561.164	1913.37
561.367	1978.85
561.57	1906.39
561.774	1924.02
561.977	1871.52
562.18	1890.7
562.384	1965.68
562.587	1899.61
562.79	1893.22
562.993	1875.59
563.197	1927.51
563.4	1924.99
563.603	1903.68
563.806	1980.6
564.009	1849.82
564.212	1896.51
564.416	1826.76
564.619	1883.92
564.822	1842.84
565.025	1917.05
565.228	1863.77
565.431	1885.85
565.634	1771.74
565.837	1796.92
566.04	1777.74
566.243	1767.67
566.446	1723.69
566.649	1807.97
566.852	1723.11
567.055	1729.69
567.258	1791.31
567.461	1863.38
567.664	1839.55
567.867	1712.45
568.07	1761.86
568.273	1789.56
568.475	1832.96
568.678	1734.73
568.881	1743.84
569.084	1732.6
569.287	1620.81
569.489	1680.29
569.692	1750.04
569.895	1721.36
570.098	1654.33
570.3	1618.48
570.503	1600.08
570.706	1635.53
570.909	1610.54
571.111	1584.97
571.314	1577.99
571.516	1608.8
571.719	1628.75
571.922	1575.28
572.124	1547.57
572.327	1615.38
572.529	1573.73
572.732	1584.19
572.935	1621.78
573.137	1664.4
573.34	1568.69
573.542	1626.43
573.745	1606.28
573.947	1595.82
574.15	1578.77
574.352	1551.06
574.554	1640.38
574.757	1527.03
574.959	1493.13
575.162	1542.53
575.364	1518.9
575.566	1653.94
575.769	1490.61
575.971	1551.45
576.173	1406.72
576.376	1544.67
576.578	1531.49
576.78	1573.92
576.982	1432.68
577.185	1486.35
577.387	1427.45
577.589	1456.7
577.791	1518.7
577.993	1502.43
578.196	1480.34
578.398	1480.73
578.6	1557.84
578.802	1424.35
579.004	1434.62
579.206	1430.94
579.408	1484.8
579.61	1443.34
579.812	1521.8
580.014	1428.81
580.216	1420.67
580.418	1426.09
580.62	1419.89
580.822	1372.04
581.024	1458.84
581.226	1483.64
581.428	1421.06
581.63	1491.77
581.832	1411.37
582.034	1464.84
582.236	1418.54
582.438	1447.21
582.64	1460.97
582.841	1503.2
583.043	1520.64
583.245	1464.26
583.447	1443.53
583.649	1437.91
583.85	1428.81
584.052	1467.75
584.254	1420.86
584.456	1445.27
584.657	1362.35
584.859	1450.5
585.061	1364.09
585.262	1375.91
585.464	1369.71
585.666	1434.42
585.867	1365.84
586.069	1486.93
586.27	1389.47
586.472	1378.43
586.674	1374.94
586.875	1367.77
587.077	1395.09
587.278	1387.54
587.48	1355.37
587.681	1497.2
587.883	1413.69
588.084	1311.98
588.285	1367.77
588.487	1354.21
588.688	1376.11
588.89	1314.3
589.091	1278.07
589.292	1286.79
589.494	1257.73
589.695	1231.96
589.896	1125.98
590.098	1151.55
590.299	1212.97
590.5	1175.19
590.702	1183.91
590.903	1215.88
591.104	1286.98
591.305	1281.56
591.507	1344.33
591.708	1304.23
591.909	1276.13
592.11	1379.4
592.311	1294.54
592.512	1277.29
592.714	1216.07
592.915	1216.65
593.116	1261.6
593.317	1262.57
593.518	1235.64
593.719	1228.28
593.92	1292.41
594.121	1297.06
594.322	1304.03
594.523	1250.17
594.724	1233.9
594.925	1300.16
595.126	1284.46
595.327	1287.18
595.528	1248.04
595.729	1291.24
595.929	1234.86
596.13	1269.74
596.331	1274.97
596.532	1254.63
596.733	1335.81
596.934	1312.17
597.135	1266.25
597.335	1273.81
597.536	1251.91
597.737	1277.68
597.938	1249.4
598.138	1281.56
598.339	1230.41
598.54	1309.65
598.74	1233.31
598.941	1257.92
599.142	1295.51
599.342	1271.48
599.543	1255.01
599.744	1268.96
599.944	1213.16
600.145	1229.44
600.345	1247.07
600.546	1330.38
600.746	1296.28
600.947	1348.59
601.147	1257.34
601.348	1299.77
601.548	1205.61
601.749	1247.85
601.949	1185.65
602.15	1229.05
602.35	1194.76
602.551	1253.46
602.751	1209.48
602.951	1212
603.152	1168.6
603.352	1260.63
603.552	1223.63
603.753	1241.45
603.953	1284.08
604.153	1256.56
604.354	1240.68
604.554	1217.62
604.754	1217.04
604.954	1179.45
605.155	1259.66
605.355	1191.27
605.555	1245.33
605.755	1255.6
605.955	1227.31
606.155	1251.14
606.356	1199.21
606.556	1251.91
606.756	1222.27
606.956	1191.66
607.156	1259.28
607.356	1178.29
607.556	1229.25
607.756	1186.62
607.956	1262.57
608.156	1208.71
608.356	1203.48
608.556	1208.71
608.756	1189.72
608.956	1154.65
609.156	1209.1
609.356	1169.96
609.556	1157.37
609.755	1149.23
609.955	1151.36
610.155	1172.09
610.355	1138.57
610.555	1138.18
610.755	1149.62
610.954	1071.34
611.154	1163.57
611.354	1168.22
611.554	1116.1
611.753	1122.88
611.953	1068.82
612.153	1132.18
612.352	1191.85
612.552	1065.72
612.752	1063.98
612.951	1106.02
613.151	1119.58
613.351	1081.61
613.55	1128.5
613.75	1138.96
613.949	1095.17
614.149	1101.18
614.348	1077.35
614.548	1061.46
614.747	1026
614.947	1059.91
615.146	997.14
615.346	1143.42
615.545	1105.05
