Data from gum_old_FLMT105791__63__15-43-51-257.txt Node

Date: Mon Mar 20 15:43:51 GMT 2023
User: antho
Spectrometer: FLMT10579
Trigger mode: 0
Integration Time (sec): 1.000000E-1
Scans to average: 10
Electric dark correction enabled: true
Nonlinearity correction enabled: false
Boxcar width: 0
XAxis mode: Wavelengths
Number of Pixels in Spectrum: 3648
>>>>>Begin Spectral Data<<<<<
345.248	-168.79
345.464	-168.79
345.681	-168.79
345.898	-167.04
346.114	-173.63
346.331	-36.65
346.548	32.71
346.764	-1.78
346.981	-3.33
347.197	-3.71
347.414	13.34
347.631	-23.09
347.847	50.92
348.064	4.62
348.28	15.08
348.497	-33.16
348.713	-14.95
348.93	72.43
349.146	29.42
349.363	7.14
349.579	38.72
349.796	18.57
350.012	-11.27
350.229	39.88
350.445	41.24
350.661	-30.26
350.878	21.47
351.094	48.6
351.311	32.13
351.527	36.78
351.743	-1
351.96	37.75
352.176	69.91
352.392	50.92
352.609	61.39
352.825	-4.68
353.041	34.45
353.257	5.59
353.474	35.62
353.69	64.49
353.906	28.25
354.122	-16.11
354.339	49.76
354.555	50.92
354.771	24.77
354.987	109.05
355.203	90.64
355.42	14.11
355.636	23.22
355.852	-12.63
356.068	63.32
356.284	-1.58
356.5	88.51
356.716	23.22
356.932	22.44
357.148	81.15
357.364	21.86
357.58	75.53
357.796	71.27
358.012	52.86
358.228	54.8
358.444	-39.56
358.66	73.59
358.876	40.27
359.092	26.51
359.308	41.82
359.524	65.84
359.74	33.1
359.956	18.18
360.172	39.88
360.388	56.93
360.604	29.8
360.819	119.9
361.035	59.06
361.251	55.57
361.467	27.48
361.683	124.93
361.898	42.79
362.114	59.64
362.33	50.54
362.546	71.65
362.762	43.17
362.977	60.8
363.193	19.15
363.409	79.02
363.624	-19.79
363.84	55.38
364.056	21.47
364.271	88.12
364.487	40.46
364.703	44.72
364.918	13.34
365.134	34.07
365.35	41.62
365.565	159.23
365.781	61.58
365.996	70.49
366.212	109.63
366.427	81.54
366.643	31.94
366.858	48.6
367.074	39.69
367.289	130.55
367.505	149.54
367.72	11.59
367.936	46.85
368.151	115.83
368.367	67.59
368.582	53.44
368.798	59.25
369.013	80.57
369.228	80.57
369.444	64.87
369.659	107.11
369.874	61.58
370.09	102.46
370.305	3.07
370.52	67.59
370.736	117.38
370.951	86.19
371.166	107.69
371.381	126.68
371.597	108.85
371.812	53.25
372.027	34.45
372.242	81.34
372.458	154.19
372.673	62.94
372.888	52.47
373.103	76.3
373.318	133.85
373.533	87.74
373.749	84.05
373.964	0.94
374.179	120.87
374.394	44.53
374.609	108.66
374.824	23.41
375.039	110.79
375.254	51.5
375.469	143.34
375.684	90.25
375.899	93.74
376.114	78.05
376.329	85.22
376.544	111.18
376.759	104.78
376.974	50.54
377.189	80.95
377.404	60.8
377.619	97.23
377.834	41.62
378.049	26.12
378.264	55.19
378.478	78.05
378.693	76.5
378.908	98
379.123	66.81
379.338	127.26
379.553	120.48
379.767	73.4
379.982	86.38
380.197	102.65
380.412	77.66
380.626	112.53
380.841	185.58
381.056	122.61
381.271	120.67
381.485	73.01
381.7	74.75
381.915	102.07
382.129	55.38
382.344	95.68
382.559	93.74
382.773	115.83
382.988	33.29
383.202	89.29
383.417	56.74
383.632	176.67
383.846	84.25
384.061	81.92
384.275	67.59
384.49	83.47
384.704	111.95
384.919	99.75
385.133	91.22
385.348	110.4
385.562	71.07
385.777	133.85
385.991	93.55
386.206	87.93
386.42	52.28
386.634	119.12
386.849	123.19
387.063	119.51
387.277	108.47
387.492	83.47
387.706	81.54
387.92	59.64
388.135	130.55
388.349	140.82
388.563	107.88
388.778	111.37
388.992	113.5
389.206	133.07
389.42	181.32
389.635	116.41
389.849	118.35
390.063	160.58
390.277	160.58
390.491	195.46
390.706	143.34
390.92	197.59
391.134	127.84
391.348	161.36
391.562	105.56
391.776	145.28
391.99	108.85
392.205	184.8
392.419	111.37
392.633	134.62
392.847	192.55
393.061	105.95
393.275	183.25
393.489	104.59
393.703	80.18
393.917	119.9
394.131	60.03
394.345	116.6
394.559	152.83
394.773	104.98
394.986	136.56
395.2	135.78
395.414	189.45
395.628	125.13
395.842	160.39
396.056	170.47
396.27	100.33
396.484	142.37
396.697	140.63
396.911	197.59
397.125	155.74
397.339	139.08
397.553	104.01
397.766	190.42
397.98	147.22
398.194	194.68
398.408	166.98
398.621	246.41
398.835	248.55
399.049	232.66
399.262	266.76
399.476	252.81
399.69	251.06
399.903	330.31
400.117	220.65
400.331	286.71
400.544	225.88
400.758	357.04
400.971	257.85
401.185	291.75
401.398	229.56
401.612	288.84
401.826	275.48
402.039	300.08
402.253	237.5
402.466	311.51
402.68	274.51
402.893	283.81
403.106	291.36
403.32	293.11
403.533	313.26
403.747	260.36
403.96	270.05
404.174	289.62
404.387	237.11
404.6	255.91
404.814	322.94
405.027	296.98
405.24	294.08
405.454	248.55
405.667	337.09
405.88	228.4
406.094	301.63
406.307	328.37
406.52	310.93
406.733	245.45
406.947	240.21
407.16	380.29
407.373	334.57
407.586	253
407.799	250.87
408.012	315.58
408.226	299.31
408.439	336.12
408.652	263.08
408.865	316.36
409.078	371.77
409.291	339.41
409.504	296.21
409.717	344.84
409.93	353.75
410.143	313.64
410.357	270.05
410.57	273.15
410.783	277.22
410.996	307.64
411.209	328.76
411.421	357.82
411.634	327.01
411.847	302.02
412.06	352.01
412.273	355.11
412.486	384.94
412.699	424.08
412.912	352.98
413.125	373.32
413.338	372.74
413.55	393.86
413.763	336.89
413.976	362.08
414.189	355.11
414.402	356.46
414.615	414.78
414.827	293.11
415.04	405.87
415.253	360.14
415.466	397.73
415.678	434.93
415.891	377
416.104	367.51
416.316	362.86
416.529	377.19
416.742	421.76
416.954	421.95
417.167	397.73
417.38	401.61
417.592	390.95
417.805	361.31
418.017	313.84
418.23	383.2
418.442	356.66
418.655	379.32
418.868	379.91
419.08	432.02
419.293	439.97
419.505	440.36
419.718	413.04
419.93	441.91
420.142	387.66
420.355	438.03
420.567	426.99
420.78	415.56
420.992	382.23
421.205	472.32
421.417	376.42
421.629	426.21
421.842	384.56
422.054	367.12
422.266	425.63
422.479	490.73
422.691	382.04
422.903	460.5
423.115	395.02
423.328	370.99
423.54	418.07
423.752	370.41
423.964	378.16
424.177	432.61
424.389	407.03
424.601	536.45
424.813	446.17
425.025	448.3
425.238	469.61
425.45	386.88
425.662	424.86
425.874	735.63
426.086	426.41
426.298	461.86
426.51	457.6
426.722	435.71
426.934	392.11
427.146	460.89
427.358	390.56
427.57	481.43
427.782	413.62
427.994	403.74
428.206	380.1
428.418	389.01
428.63	477.75
428.842	459.92
429.054	438.61
429.266	490.54
429.478	406.64
429.69	432.02
429.902	367.31
430.114	457.79
430.325	423.11
430.537	369.64
430.749	350.84
430.961	295.24
431.173	351.04
431.384	365.57
431.596	286.91
431.808	388.62
432.02	427.37
432.231	502.16
432.443	548.47
432.655	511.65
432.867	443.65
433.078	503.32
433.29	556.22
433.502	527.54
433.713	558.54
433.925	515.53
434.136	568.42
434.348	448.88
434.56	440.36
434.771	571.72
434.983	436.87
435.194	486.47
435.406	503.9
435.617	577.92
435.829	616.28
436.04	553.5
436.252	566.1
436.463	595.74
436.675	598.65
436.886	573.46
437.098	585.86
437.309	628.48
437.521	575.59
437.732	572.3
437.943	562.03
438.155	576.17
438.366	506.42
438.578	617.05
438.789	559.12
439	543.43
439.211	535.68
439.423	546.72
439.634	562.03
439.845	607.75
440.057	588.38
440.268	634.49
440.479	573.27
440.69	608.14
440.902	566.48
441.113	571.72
441.324	588.96
441.535	624.42
441.746	709.08
441.957	595.35
442.168	607.56
442.38	647.66
442.591	659.1
442.802	608.72
443.013	626.74
443.224	660.45
443.435	644.18
443.646	628.1
443.857	608.53
444.068	620.93
444.279	608.92
444.49	717.03
444.701	652.51
444.912	753.84
445.123	732.14
445.334	682.54
445.545	690.87
445.756	688.74
445.967	632.36
446.178	641.27
446.388	674.98
446.599	665.3
446.81	688.55
447.021	624.61
447.232	694.36
447.443	726.33
447.653	661.23
447.864	742.02
448.075	719.16
448.286	736.21
448.496	695.33
448.707	730.59
448.918	689.32
449.129	760.43
449.339	667.62
449.55	703.08
449.761	695.71
449.971	730.01
450.182	711.8
450.393	712.38
450.603	690.1
450.814	770.89
451.024	731.17
451.235	788.71
451.446	826.69
451.656	810.8
451.867	719.35
452.077	768.76
452.288	791.62
452.498	783.68
452.709	723.42
452.919	760.62
453.13	716.06
453.34	758.29
453.55	668.98
453.761	729.81
453.971	741.63
454.182	760.23
454.392	738.34
454.602	822.04
454.813	778.06
455.023	756.55
455.233	707.34
455.444	711.02
455.654	686.22
455.864	722.26
456.075	723.61
456.285	749.38
456.495	780.19
456.705	768.76
456.916	833.08
457.126	846.45
457.336	795.69
457.546	726.33
457.756	769.92
457.967	785.61
458.177	780.77
458.387	767.98
458.597	723.61
458.807	778.44
459.017	770.5
459.227	753.64
459.437	739.89
459.647	833.66
459.857	810.41
460.068	787.16
460.278	841.61
460.488	772.63
460.698	873.77
460.908	794.91
461.117	748.99
461.327	771.86
461.537	820.87
461.747	808.09
461.957	798.98
462.167	939.25
462.377	864.47
462.587	802.27
462.797	869.51
463.007	823.2
463.216	862.34
463.426	877.06
463.636	812.54
463.846	780.38
464.056	810.61
464.265	870.47
464.475	798.59
464.685	872.8
464.895	839.28
465.104	807.12
465.314	861.76
465.524	826.49
465.733	793.75
465.943	915.04
466.153	897.6
466.362	887.72
466.572	849.55
466.782	873.38
466.991	854.39
467.201	934.22
467.41	791.43
467.62	889.27
467.829	858.46
468.039	903.6
468.249	867.57
468.458	910.19
468.668	921.43
468.877	909.42
469.086	946.04
469.296	957.08
469.505	912.52
469.715	977.81
469.924	933.83
470.134	984.78
470.343	975.29
470.552	926.47
470.762	944.68
470.971	888.11
471.18	942.94
471.39	936.54
471.599	891.01
471.808	970.25
472.018	942.74
472.227	1031.67
472.436	1053.95
472.645	976.45
472.855	965.02
473.064	1076.04
473.273	1027.02
473.482	1015.4
473.691	1069.84
473.901	1053.76
474.11	1029.73
474.319	1123.51
474.528	1012.3
474.737	1145.4
474.946	1117.5
475.155	1065
475.364	1153.54
475.573	1118.47
475.783	1107.04
475.992	1139.01
476.201	1139.2
476.41	1116.73
476.619	1071.58
476.828	1090.18
477.037	1073.13
477.245	1087.86
477.454	1138.62
477.663	1114.6
477.872	1134.55
478.081	1235.11
478.29	1164.19
478.499	1259.52
478.708	1221.16
478.917	1276.37
479.125	1193.64
479.334	1190.35
479.543	1201.98
479.752	1209.14
479.961	1220.77
480.169	1266.69
480.378	1235.69
480.587	1387.59
480.796	1270.17
481.004	1254.48
481.213	1272.31
481.422	1299.24
481.63	1287.22
481.839	1340.12
482.048	1384.29
482.256	1308.34
482.465	1393.01
482.674	1350.97
482.882	1381.19
483.091	1438.35
483.299	1357.55
483.508	1386.04
483.716	1369.18
483.925	1428.66
484.134	1340.12
484.342	1369.57
484.551	1421.3
484.759	1385.45
484.967	1434.47
485.176	1415.87
485.384	1450.55
485.593	1421.68
485.801	1428.27
486.01	1363.37
486.218	1308.15
486.426	1208.76
486.635	1216.7
486.843	1202.36
487.051	1281.02
487.26	1288.58
487.468	1312.99
487.676	1350.58
487.885	1354.07
488.093	1414.71
488.301	1451.91
488.509	1448.81
488.717	1493.76
488.926	1478.84
489.134	1475.35
489.342	1486.98
489.55	1411.61
489.758	1495.89
489.967	1491.24
490.175	1605.16
490.383	1502.86
490.591	1633.45
490.799	1526.89
491.007	1578.62
491.215	1551.11
491.423	1552.08
491.631	1525.53
491.839	1568.16
492.047	1580.17
492.255	1526.31
492.463	1487.37
492.671	1478.26
492.879	1558.47
493.087	1522.05
493.295	1542.39
493.503	1592.57
493.711	1642.94
493.919	1627.06
494.127	1629.77
494.334	1647.01
494.542	1556.73
494.75	1615.43
494.958	1615.24
495.166	1704.36
495.374	1645.85
495.581	1704.17
495.789	1645.66
495.997	1693.51
496.205	1644.3
496.412	1622.99
496.62	1659.61
496.828	1703.2
497.035	1656.89
497.243	1691.57
497.451	1682.66
497.658	1703.39
497.866	1680.53
498.074	1791.55
498.281	1719.09
498.489	1756.48
498.696	1698.16
498.904	1647.59
499.112	1633.64
499.319	1750.09
499.527	1671.04
499.734	1733.42
499.942	1655.34
500.149	1717.34
500.357	1740.21
500.564	1641.98
500.771	1683.24
500.979	1657.28
501.186	1628.61
501.394	1716.76
501.601	1655.73
501.808	1697.19
502.016	1668.33
502.223	1656.7
502.43	1684.02
502.638	1652.05
502.845	1647.98
503.052	1755.51
503.26	1693.9
503.467	1760.74
503.674	1735.36
503.881	1734.59
504.089	1816.93
504.296	1751.83
504.503	1660.38
504.71	1687.12
504.917	1662.71
505.125	1693.71
505.332	1750.47
505.539	1773.72
505.746	1833.98
505.953	1813.05
506.16	1807.05
506.367	1867.5
506.574	1895.78
506.781	1914.19
506.988	1807.44
507.195	1853.55
507.402	1832.04
507.609	1850.64
507.816	1786.12
508.023	1778.37
508.23	1770.62
508.437	1741.56
508.644	1829.52
508.851	1876.6
509.058	1873.5
509.265	1856.26
509.472	1874.86
509.679	1946.16
509.885	1887.45
510.092	1902.95
510.299	1857.81
510.506	1849.48
510.713	1871.76
510.92	1877.38
511.126	1887.07
511.333	1915.35
511.54	1892.3
511.746	1934.15
511.953	1962.82
512.16	1988.59
512.367	1945.77
512.573	1885.13
512.78	1895.2
512.987	1894.62
513.193	1877.18
513.4	1821.19
513.606	1894.82
513.813	1895.01
514.02	1864.59
514.226	1937.05
514.433	1926.98
514.639	1844.44
514.846	1862.46
515.052	1870.21
515.259	1863.82
515.465	1889.39
515.672	1878.35
515.878	1965.34
516.085	1927.37
516.291	1959.91
516.497	1870.02
516.704	1868.85
516.91	1838.44
517.117	1760.74
517.323	1671.43
517.529	1726.06
517.736	1699.13
517.942	1731.49
518.148	1770.82
518.354	1815.57
518.561	1804.34
518.767	1806.66
518.973	1850.25
519.179	1834.17
519.386	1843.67
519.592	1808.79
519.798	1826.04
520.004	1983.55
520.21	1894.23
520.417	1979.87
520.623	1986.85
520.829	2025.79
521.035	2005.83
521.241	2003.51
521.447	2015.71
521.653	2096.12
521.859	2014.16
522.065	2061.63
522.271	2146.49
522.477	2122.08
522.683	2147.07
522.889	2049.43
523.095	2058.14
523.301	2049.43
523.507	1967.28
523.713	2070.16
523.919	2026.56
524.125	2163.54
524.331	2085.66
524.537	2189.12
524.742	2209.07
524.948	2198.42
525.154	2206.36
525.36	2297.42
525.566	2168.97
525.772	2209.27
525.977	2192.22
526.183	2198.81
526.389	2236.59
526.595	2170.71
526.8	2173.23
527.006	2073.84
527.212	2040.9
527.417	2009.51
527.623	1995.37
527.829	2062.79
528.034	2128.28
528.24	2141.84
528.446	2131.77
528.651	2240.46
528.857	2229.03
529.062	2323.77
529.268	2287.73
529.473	2273.98
529.679	2348.18
529.884	2349.15
530.09	2345.28
530.295	2321.83
530.501	2345.08
530.706	2341.79
530.912	2296.26
531.117	2351.28
531.323	2337.92
531.528	2370.08
531.733	2429.75
531.939	2338.11
532.144	2404.76
532.35	2410.18
532.555	2425.68
532.76	2343.34
532.966	2364.65
533.171	2336.95
533.376	2301.1
533.581	2216.05
533.787	2315.05
533.992	2346.05
534.197	2375.5
534.402	2326.1
534.607	2356.52
534.813	2471.99
535.018	2385
535.223	2388.29
535.428	2372.79
535.633	2413.48
535.838	2439.83
536.043	2463.27
536.249	2506.67
536.454	2440.02
536.659	2459.01
536.864	2391.97
537.069	2381.31
537.274	2402.43
537.479	2397.78
537.684	2382.09
537.889	2341.4
538.094	2521.78
538.299	2450.48
538.504	2425.88
538.708	2461.33
538.913	2465.21
539.118	2448.74
539.323	2470.44
539.528	2427.43
539.733	2398.36
539.938	2485.55
540.142	2428.78
540.347	2404.56
540.552	2400.88
540.757	2377.63
540.962	2388.48
541.166	2298.78
541.371	2300.72
541.576	2350.51
541.781	2255.38
541.985	2413.86
542.19	2369.69
542.395	2493.11
542.599	2478.96
542.804	2448.93
543.008	2463.85
543.213	2437.11
543.418	2368.53
543.622	2454.55
543.827	2391.2
544.031	2477.61
544.236	2483.23
544.44	2489.43
544.645	2541.16
544.849	2471.6
545.054	2519.84
545.258	2597.15
545.463	2555.11
545.667	2457.85
545.872	2541.93
546.076	2554.91
546.281	2528.56
546.485	2429.75
546.689	2510.93
546.894	2540.38
547.098	2509.96
547.302	2478.38
547.507	2513.26
547.711	2484
547.915	2530.69
548.119	2404.95
548.324	2447.38
548.528	2536.89
548.732	2467.34
548.936	2564.02
549.141	2524.3
549.345	2503.38
549.549	2506.28
549.753	2522.56
549.957	2561.31
550.161	2609.16
550.366	2548.91
550.57	2469.08
550.774	2531.08
550.978	2545.42
551.182	2612.84
551.386	2522.94
551.59	2519.26
551.794	2499.11
551.998	2528.18
552.202	2528.18
552.406	2487.49
552.61	2577.58
552.814	2518.68
553.018	2571.19
553.222	2491.36
553.426	2488.65
553.63	2578.74
553.833	2508.41
554.037	2477.03
554.241	2512.87
554.445	2533.02
554.649	2493.49
554.853	2499.89
555.056	2566.15
555.26	2597.73
555.464	2523.53
555.668	2576.22
555.871	2538.25
556.075	2553.56
556.279	2486.91
556.483	2472.57
556.686	2491.36
556.89	2499.11
557.094	2489.62
557.297	2384.61
557.501	2497.95
557.704	2393.13
557.908	2517.52
558.112	2426.46
558.315	2553.75
558.519	2518.1
558.722	2415.8
558.926	2402.05
559.129	2347.02
559.333	2347.02
559.536	2328.42
559.74	2351.87
559.943	2332.88
560.147	2327.45
560.35	2327.65
560.553	2378.8
560.757	2325.71
560.96	2424.13
561.164	2347.02
561.367	2477.99
561.57	2408.05
561.774	2407.47
561.977	2384.8
562.18	2357.29
562.384	2473.54
562.587	2363.68
562.79	2349.73
562.993	2326.48
563.197	2425.3
563.4	2450.87
563.603	2427.62
563.806	2478.38
564.009	2363.1
564.212	2405.15
564.416	2318.35
564.619	2371.82
564.822	2304.01
565.025	2379.18
565.228	2324.16
565.431	2368.14
565.634	2268.17
565.837	2340.63
566.04	2269.91
566.243	2260.42
566.446	2188.15
566.649	2294.13
566.852	2168
567.055	2231.94
567.258	2339.27
567.461	2329.2
567.664	2354.19
567.867	2205.39
568.07	2262.35
568.273	2283.67
568.475	2333.46
568.678	2229.03
568.881	2232.9
569.084	2215.27
569.287	2094.18
569.489	2160.06
569.692	2229.42
569.895	2217.21
570.098	2145.52
570.3	2169.55
570.503	2096.31
570.706	2122.86
570.909	2103.68
571.111	2046.33
571.314	2070.74
571.516	2095.73
571.719	2121.11
571.922	2053.49
572.124	2031.99
572.327	2109.1
572.529	2035.09
572.732	2091.86
572.935	2104.84
573.137	2175.94
573.34	2092.63
573.542	2183.69
573.745	2127.89
573.947	2160.44
574.15	2102.9
574.352	2087.4
574.554	2162.57
574.757	2079.65
574.959	2034.12
575.162	2028.5
575.364	2069.77
575.566	2160.83
575.769	2008.35
575.971	2045.55
576.173	1948.48
576.376	1997.89
576.578	2043.23
576.78	2097.28
576.982	1964.18
577.185	2052.91
577.387	1977.93
577.589	2050.98
577.791	2063.57
577.993	2056.79
578.196	1995.37
578.398	2047.68
578.6	1979.29
578.802	1931.24
579.004	1944.41
579.206	1937.63
579.408	1992.08
579.61	1953.91
579.812	2011.84
580.014	1950.81
580.216	1927.95
580.418	1963.79
580.62	1964.37
580.822	1906.25
581.024	1959.33
581.226	1987.62
581.428	1930.66
581.63	2024.82
581.832	1932.98
582.034	2036.06
582.236	1950.61
582.438	1978.51
582.64	1979.29
582.841	2025.21
583.043	2075.19
583.245	1967.28
583.447	1957.2
583.649	1959.53
583.85	1997.7
584.052	1996.34
584.254	1915.74
584.456	1983.55
584.657	1898.11
584.859	1977.16
585.061	1943.45
585.262	1920.2
585.464	1891.72
585.666	1923.68
585.867	1898.5
586.069	1947.71
586.27	1898.88
586.472	1890.75
586.674	1883.19
586.875	1871.95
587.077	1842.89
587.278	1919.23
587.48	1857.62
587.681	1969.8
587.883	1918.84
588.084	1839.79
588.285	1856.45
588.487	1851.61
588.688	1839.21
588.89	1799.1
589.091	1715.41
589.292	1773.53
589.494	1693.71
589.695	1643.53
589.896	1596.83
590.098	1598.58
590.299	1680.34
590.5	1622.02
590.702	1674.53
590.903	1706.69
591.104	1760.36
591.305	1756.09
591.507	1803.75
591.708	1749.7
591.909	1751.25
592.11	1824.68
592.311	1777.6
592.512	1748.54
592.714	1665.42
592.915	1747.96
593.116	1708.82
593.317	1742.72
593.518	1704.17
593.719	1756.48
593.92	1784.57
594.121	1796.78
594.322	1769.46
594.523	1740.21
594.724	1755.51
594.925	1722.19
595.126	1760.55
595.327	1738.85
595.528	1737.69
595.729	1761.91
595.929	1691.38
596.13	1723.54
596.331	1757.64
596.532	1741.95
596.733	1803.56
596.934	1813.64
597.135	1797.75
597.335	1758.42
597.536	1745.63
597.737	1757.64
597.938	1715.21
598.138	1758.22
598.339	1750.09
598.54	1789.22
598.74	1713.08
598.941	1724.71
599.142	1774.3
599.342	1734.59
599.543	1718.12
599.744	1726.45
599.944	1724.51
600.145	1697.97
600.345	1725.09
600.546	1801.04
600.746	1811.31
600.947	1821.19
601.147	1716.57
601.348	1787.48
601.548	1702.42
601.749	1735.94
601.949	1678.59
602.15	1687.89
602.35	1709.21
602.551	1738.27
602.751	1689.06
602.951	1687.31
603.152	1610.39
603.352	1705.72
603.552	1697.19
603.753	1769.65
603.953	1757.06
604.153	1701.84
604.354	1712.11
604.554	1712.11
604.754	1744.47
604.954	1683.24
605.155	1726.26
605.355	1686.92
605.555	1733.81
605.755	1756.48
605.955	1672.01
606.155	1750.47
606.356	1676.07
606.556	1733.23
606.756	1705.52
606.956	1671.04
607.156	1773.34
607.356	1686.73
607.556	1699.71
607.756	1707.46
607.956	1747.18
608.156	1706.69
608.356	1650.69
608.556	1722.57
608.756	1684.79
608.956	1617.95
609.156	1665.23
609.356	1652.63
609.556	1635.97
609.755	1635.58
609.955	1626.28
610.155	1693.51
610.355	1639.46
610.555	1600.51
610.755	1610.01
610.954	1559.83
611.154	1617.56
611.354	1652.05
611.554	1609.62
611.753	1608.46
611.953	1561.38
612.153	1630.35
612.352	1590.05
612.552	1556.73
612.752	1505
612.951	1582.11
613.151	1610.01
613.351	1587.92
613.55	1592.76
