Data from pine_FLMT105791__131__17-22-30-075.txt Node

Date: Mon Mar 20 17:22:30 GMT 2023
User: antho
Spectrometer: FLMT10579
Trigger mode: 0
Integration Time (sec): 1.000000E-1
Scans to average: 10
Electric dark correction enabled: true
Nonlinearity correction enabled: false
Boxcar width: 0
XAxis mode: Wavelengths
Number of Pixels in Spectrum: 3648
>>>>>Begin Spectral Data<<<<<
345.248	-160.54
345.464	-160.54
345.681	-160.54
345.898	-157.05
346.114	-166.74
346.331	-53.59
346.548	20.62
346.764	13.64
346.981	2.99
347.197	-19.49
347.414	8.22
347.631	-18.33
347.847	60.53
348.064	7.25
348.28	21.2
348.497	-40.99
348.713	-2.05
348.93	41.35
349.146	6.86
349.363	16.16
349.579	-15.61
349.796	0.27
350.012	-17.74
350.229	29.14
350.445	-2.05
350.661	-24.72
350.878	6.28
351.094	2.21
351.311	18.29
351.527	33.02
351.743	4.92
351.96	64.02
352.176	45.61
352.392	48.32
352.609	70.6
352.825	-0.69
353.041	-10.58
353.257	29.34
353.474	-3.99
353.69	49.49
353.906	33.02
354.122	-14.84
354.339	41.35
354.555	18.1
354.771	-16.19
354.987	50.46
355.203	66.92
355.42	-10.58
355.636	-9.41
355.852	-19.88
356.068	9.57
356.284	-20.26
356.5	73.12
356.716	17.71
356.932	17.91
357.148	49.87
357.364	15.39
357.58	43.09
357.796	48.71
358.012	44.64
358.228	27.98
358.444	-79.55
358.66	24.11
358.876	30.11
359.092	7.64
359.308	40.38
359.524	31.08
359.74	2.79
359.956	-6.7
360.172	0.08
360.388	53.94
360.604	19.26
360.819	99.86
361.035	31.27
361.251	44.45
361.467	-8.64
361.683	43.87
361.898	35.92
362.114	52.97
362.33	28.17
362.546	24.69
362.762	27.21
362.977	18.87
363.193	-13.68
363.409	69.25
363.624	12.87
363.84	-2.83
364.056	-3.21
364.271	31.47
364.487	23.33
364.703	13.64
364.918	-24.53
365.134	6.86
365.35	0.66
365.565	108.97
365.781	19.07
365.996	41.35
366.212	67.31
366.427	36.12
366.643	-25.69
366.858	-9.03
367.074	-10.38
367.289	55.3
367.505	114
367.72	-7.86
367.936	11.51
368.151	52.39
368.367	26.04
368.582	31.66
368.798	16.55
369.013	57.62
369.228	20.62
369.444	18.68
369.659	57.43
369.874	30.69
370.09	67.89
370.305	-36.34
370.52	2.41
370.736	68.86
370.951	31.08
371.166	71.96
371.381	89.4
371.597	62.27
371.812	-43.12
372.027	-12.51
372.242	13.26
372.458	89.59
372.673	4.15
372.888	19.65
373.103	18.29
373.318	96.76
373.533	46.58
373.749	36.51
373.964	-9.99
374.179	72.54
374.394	-18.91
374.609	53.36
374.824	-6.31
375.039	59.56
375.254	15.39
375.469	65.57
375.684	27.4
375.899	72.15
376.114	13.06
376.329	43.09
376.544	66.92
376.759	58.4
376.974	-3.02
377.189	27.59
377.404	-2.44
377.619	45.81
377.834	-38.47
378.049	-35.38
378.264	-16.58
378.478	32.44
378.693	7.06
378.908	33.6
379.123	6.47
379.338	62.47
379.553	14.42
379.767	34.57
379.982	38.25
380.197	42.32
380.412	33.99
380.626	34.57
380.841	79.13
381.056	26.04
381.271	78.74
381.485	-5.93
381.7	-7.09
381.915	14.03
382.129	15.39
382.344	52.2
382.559	17.13
382.773	44.06
382.988	-27.24
383.202	70.02
383.417	0.86
383.632	118.65
383.846	15.39
384.061	15.39
384.275	22.56
384.49	43.87
384.704	41.16
384.919	54.52
385.133	21.78
385.348	29.53
385.562	-5.93
385.777	61.3
385.991	13.06
386.206	19.46
386.42	1.24
386.634	94.44
386.849	53.75
387.063	39.8
387.277	-14.06
387.492	0.27
387.706	3.37
387.92	-1.86
388.135	46.58
388.349	31.08
388.563	66.54
388.778	23.33
388.992	52.59
389.206	33.79
389.42	110.13
389.635	30.69
389.849	61.5
390.063	71.96
390.277	14.61
390.491	116.52
390.706	63.63
390.92	72.15
391.134	28.56
391.348	47.55
391.562	-22.78
391.776	13.64
391.99	-6.7
392.205	37.86
392.419	33.6
392.633	38.83
392.847	74.48
393.061	41.93
393.275	80.29
393.489	11.9
393.703	38.83
393.917	80.29
394.131	33.6
394.345	39.61
394.559	80.29
394.773	35.34
394.986	51.62
395.2	40.96
395.414	66.34
395.628	7.06
395.842	37.86
396.056	8.22
396.27	-29.18
396.484	45.81
396.697	29.34
396.911	76.03
397.125	81.84
397.339	55.1
397.553	34.96
397.766	119.04
397.98	57.62
398.194	74.87
398.408	32.44
398.621	81.26
398.835	37.86
399.049	52.59
399.262	78.16
399.476	74.09
399.69	68.09
399.903	93.47
400.117	35.15
400.331	45.22
400.544	25.46
400.758	148.68
400.971	57.04
401.185	80.68
401.398	12.09
401.612	132.99
401.826	66.15
402.039	40.38
402.253	53.36
402.466	80.49
402.68	26.04
402.893	49.87
403.106	41.54
403.32	45.61
403.533	97.34
403.747	56.46
403.96	46
404.174	89.98
404.387	-1.66
404.6	74.09
404.814	91.14
405.027	49.87
405.24	39.22
405.454	27.01
405.667	65.95
405.88	3.18
406.094	75.64
406.307	71.57
406.52	63.63
406.733	34.76
406.947	0.08
407.16	103.74
407.373	105.67
407.586	31.27
407.799	10.54
408.012	83.78
408.226	78.74
408.439	118.65
408.652	4.15
408.865	35.54
409.078	73.12
409.291	62.47
409.504	24.3
409.717	74.29
409.93	71.57
410.143	55.1
410.357	-1.86
410.57	19.65
410.783	46.19
410.996	86.49
411.209	48.71
411.421	94.24
411.634	57.04
411.847	48.91
412.06	59.95
412.273	38.44
412.486	63.63
412.699	131.05
412.912	72.54
413.125	77.77
413.338	37.28
413.55	95.4
413.763	62.47
413.976	67.12
414.189	31.27
414.402	56.85
414.615	110.13
414.827	43.87
415.04	86.1
415.253	78.16
415.466	91.72
415.678	125.44
415.891	61.5
416.104	80.1
416.316	71.57
416.529	53.94
416.742	104.32
416.954	120.79
417.167	77.39
417.38	35.73
417.592	120.4
417.805	27.21
418.017	45.61
418.23	78.55
418.442	27.98
418.655	48.32
418.868	72.93
419.08	93.08
419.293	118.85
419.505	73.32
419.718	81.45
419.93	96.95
420.142	38.83
420.355	120.2
420.567	112.65
420.78	108
420.992	73.9
421.205	124.47
421.417	41.16
421.629	37.86
421.842	52.78
422.054	35.15
422.266	111.1
422.479	108.97
422.691	56.65
422.903	93.66
423.115	44.84
423.328	61.11
423.54	75.64
423.752	66.15
423.964	77
424.177	108.77
424.389	78.16
424.601	163.99
424.813	85.91
425.025	113.42
425.238	127.18
425.45	76.8
425.662	85.72
425.874	376.73
426.086	96.57
426.298	103.35
426.51	88.62
426.722	95.4
426.934	87.85
427.146	118.46
427.358	45.03
427.57	134.74
427.782	108.19
427.994	100.44
428.206	67.12
428.418	62.27
428.63	115.75
428.842	139.58
429.054	88.24
429.266	126.4
429.478	76.22
429.69	100.25
429.902	50.65
430.114	145.39
430.325	120.59
430.537	93.66
430.749	88.24
430.961	53.94
431.173	88.43
431.384	114.59
431.596	51.42
431.808	88.24
432.02	79.71
432.231	139.77
432.443	145
432.655	116.91
432.867	77.19
433.078	107.8
433.29	167.87
433.502	130.86
433.713	156.05
433.925	132.22
434.136	139.97
434.348	75.06
434.56	50.07
434.771	231.8
434.983	71.38
435.194	118.07
435.406	118.27
435.617	169.22
435.829	201.97
436.04	170
436.252	180.65
436.463	184.92
436.675	158.76
436.886	145.58
437.098	157.02
437.309	176.2
437.521	104.7
437.732	182.4
437.943	146.17
438.155	134.93
438.366	89.98
438.578	195.18
438.789	157.02
439	153.33
439.211	145.58
439.423	165.35
439.634	160.89
439.845	148.88
440.057	148.3
440.268	176.39
440.479	148.49
440.69	138.03
440.902	144.23
441.113	157.98
441.324	121.17
441.535	173.29
441.746	206.42
441.957	145.58
442.168	138.8
442.38	163.6
442.591	190.34
442.802	144.03
443.013	169.42
443.224	167.09
443.435	125.44
443.646	147.33
443.857	164.96
444.068	159.73
444.279	147.72
444.49	245.75
444.701	196.35
444.912	276.95
445.123	213.4
445.334	198.48
445.545	207.58
445.756	175.23
445.967	161.67
446.178	181.62
446.388	238.2
446.599	224.63
446.81	230.06
447.021	169.03
447.232	212.82
447.443	276.75
447.653	176.97
447.864	232.77
448.075	213.01
448.286	241.68
448.496	192.28
448.707	256.99
448.918	165.73
449.129	291.09
449.339	179.88
449.55	217.47
449.761	193.44
449.971	253.89
450.182	202.16
450.393	225.22
450.603	195.96
450.814	263.77
451.024	233.35
451.235	268.23
451.446	273.46
451.656	281.4
451.867	206.62
452.077	206.62
452.288	291.48
452.498	301.55
452.709	210.88
452.919	276.56
453.13	218.24
453.34	262.03
453.55	199.06
453.761	267.65
453.971	224.25
454.182	286.44
454.392	249.43
454.602	285.86
454.813	277.53
455.023	268.81
455.233	206.62
455.444	252.53
455.654	189.76
455.864	255.44
456.075	233.93
456.285	213.4
456.495	272.68
456.705	233.35
456.916	325.77
457.126	305.23
457.336	267.26
457.546	201.97
457.756	236.65
457.967	295.16
458.177	237.81
458.387	253.5
458.597	219.4
458.807	253.11
459.017	268.81
459.227	248.27
459.437	240.13
459.647	290.12
459.857	295.35
460.068	251.18
460.278	309.88
460.488	288.18
460.698	315.31
460.908	272.68
461.117	220.57
461.327	225.6
461.537	275.01
461.747	259.51
461.957	265.9
462.167	367.43
462.377	288.57
462.587	267.65
462.797	308.91
463.007	278.69
463.216	287.6
463.426	339.53
463.636	332.55
463.846	236.84
464.056	284.11
464.265	345.53
464.475	241.1
464.685	308.14
464.895	274.62
465.104	276.36
465.314	323.64
465.524	263.38
465.733	273.26
465.943	387.19
466.153	380.02
466.362	344.56
466.572	304.46
466.782	275.59
466.991	296.71
467.201	362.39
467.41	266.87
467.62	324.41
467.829	303.49
468.039	297.87
468.249	288.18
468.458	300.2
468.668	350.18
468.877	335.65
469.086	362.58
469.296	373.43
469.505	268.03
469.715	388.54
469.924	314.53
470.134	383.12
470.343	374.98
470.552	344.37
470.762	338.94
470.971	288.96
471.18	316.28
471.39	305.81
471.599	296.13
471.808	367.81
472.018	315.89
472.227	347.66
472.436	392.81
472.645	323.06
472.855	325.58
473.064	385.25
473.273	350.96
473.482	393.39
473.691	369.17
473.901	370.33
474.11	361.61
474.319	441.63
474.528	376.14
474.737	407.14
474.946	386.99
475.155	379.63
475.364	414.89
475.573	385.44
475.783	407.72
475.992	378.28
476.201	431.75
476.41	371.49
476.619	385.44
476.828	386.99
477.037	404.62
477.245	392.61
477.454	431.56
477.663	394.55
477.872	421.09
478.081	459.84
478.29	353.09
478.499	502.85
478.708	404.82
478.917	498.59
479.125	426.13
479.334	432.52
479.543	400.56
479.752	464.88
479.961	445.51
480.169	476.12
480.378	437.17
480.587	560.01
480.796	475.15
481.004	467.4
481.213	473.99
481.422	447.64
481.63	467.01
481.839	480.19
482.048	536.18
482.256	462.94
482.465	463.91
482.674	462.17
482.882	497.04
483.091	557.49
483.299	519.13
483.508	512.35
483.716	469.53
483.925	545.67
484.134	470.69
484.342	478.44
484.551	544.12
484.759	504.4
484.967	559.24
485.176	527.07
485.384	528.24
485.593	546.25
485.801	497.04
486.01	477.67
486.218	473.79
486.426	420.71
486.635	482.51
486.843	468.17
487.051	498.59
487.26	476.12
487.468	511.38
487.676	541.8
487.885	502.85
488.093	515.06
488.301	541.6
488.509	522.42
488.717	567.76
488.926	538.89
489.134	537.73
489.342	565.24
489.55	521.26
489.758	567.18
489.967	550.32
490.175	653.78
490.383	551.87
490.591	645.26
490.799	545.09
491.007	595.08
491.215	577.45
491.423	590.62
491.631	568.34
491.839	601.86
492.047	623.56
492.255	522.42
492.463	562.14
492.671	563.5
492.879	611.16
493.087	594.11
493.295	606.32
493.503	640.03
493.711	641.38
493.919	644.1
494.127	649.13
494.334	645.45
494.542	599.15
494.75	598.57
494.958	632.47
495.166	674.51
495.374	659.21
495.581	641.77
495.789	666.38
495.997	661.15
496.205	639.64
496.412	652.04
496.62	629.18
496.828	666.96
497.035	657.27
497.243	667.15
497.451	682.26
497.658	660.37
497.866	627.05
498.074	680.91
498.281	619.88
498.489	746.4
498.696	674.32
498.904	664.63
499.112	661.34
499.319	711.13
499.527	650.68
499.734	713.46
499.942	639.06
500.149	649.33
500.357	692.34
500.564	647.39
500.771	668.51
500.979	634.6
501.186	640.22
501.394	691.37
501.601	691.76
501.808	691.18
502.016	677.42
502.223	684.59
502.43	699.51
502.638	664.63
502.845	637.51
503.052	751.24
503.26	690.79
503.467	750.27
503.674	728.96
503.881	717.14
504.089	785.73
504.296	738.65
504.503	676.06
504.71	694.86
504.917	674.71
505.125	720.82
505.332	702.61
505.539	698.93
505.746	787.86
505.953	746.98
506.16	769.64
506.367	809.17
506.574	806.65
506.781	823.89
506.988	717.72
507.195	782.24
507.402	744.46
507.609	799.48
507.816	754.14
508.023	758.21
508.23	717.33
508.437	710.94
508.644	768.09
508.851	811.69
509.058	805.1
509.265	791.34
509.472	848.5
509.679	914.18
509.885	796.96
510.092	802.97
510.299	793.48
510.506	815.76
510.713	804.52
510.92	784.18
511.126	829.13
511.333	863.61
511.54	849.66
511.746	851.6
511.953	864.77
512.16	896.94
512.367	833.58
512.573	863.81
512.78	879.89
512.987	823.51
513.193	824.28
513.4	767.71
513.606	809.75
513.813	835.71
514.02	831.06
514.226	958.74
514.433	878.14
514.639	830.87
514.846	825.83
515.052	835.91
515.259	850.82
515.465	840.75
515.672	870.78
515.878	968.82
516.085	868.26
516.291	918.25
516.497	882.99
516.704	862.06
516.91	812.66
517.117	773.13
517.323	755.89
517.529	816.73
517.736	827.19
517.942	834.74
518.148	816.92
518.354	858.77
518.561	843.27
518.767	865.36
518.973	926.58
519.179	883.96
519.386	869.42
519.592	868.65
519.798	883.57
520.004	983.15
520.21	903.91
520.417	983.54
520.623	999.62
520.829	1001.37
521.035	964.17
521.241	986.45
521.447	973.08
521.653	1074.6
521.859	962.81
522.065	1021.52
522.271	1079.64
522.477	1050.97
522.683	1054.45
522.889	1046.7
523.095	1023.26
523.301	1044.57
523.507	998.07
523.713	1055.42
523.919	978.5
524.125	1063.37
524.331	1057.36
524.537	1118
524.742	1089.13
524.948	1112
525.154	1130.01
525.36	1222.24
525.566	1135.63
525.772	1137.57
525.977	1061.23
526.183	1125.95
526.389	1160.82
526.595	1081
526.8	1051.93
527.006	1057.17
527.212	1008.92
527.417	1017.45
527.623	1016.09
527.829	1067.63
528.034	1104.83
528.24	1077.12
528.446	1052.9
528.651	1120.33
528.857	1154.62
529.062	1199.18
529.268	1149
529.473	1160.43
529.679	1143.77
529.884	1216.81
530.09	1215.46
530.295	1207.9
530.501	1200.54
530.706	1190.66
530.912	1161.21
531.117	1182.52
531.323	1236.77
531.528	1202.48
531.733	1247.62
531.939	1205.77
532.144	1248.39
532.35	1231.93
532.555	1264.48
532.76	1280.36
532.966	1250.33
533.171	1256.14
533.376	1215.46
533.581	1188.91
533.787	1217.01
533.992	1245.29
534.197	1283.27
534.402	1227.08
534.607	1267.38
534.813	1327.64
535.018	1241.03
535.223	1228.24
535.428	1246.65
535.633	1322.99
535.838	1274.74
536.043	1310.97
536.249	1407.27
536.454	1282.11
536.659	1304.77
536.864	1250.14
537.069	1245.49
537.274	1285.79
537.479	1274.16
537.684	1320.27
537.889	1227.66
538.094	1333.06
538.299	1319.31
538.504	1318.14
538.708	1280.36
538.913	1348.76
539.118	1313.49
539.323	1319.11
539.528	1270.09
539.733	1282.88
539.938	1284.43
540.142	1291.6
540.347	1286.37
540.552	1276.29
540.757	1271.45
540.962	1291.41
541.166	1261.96
541.371	1208.68
541.576	1294.7
541.781	1177.87
541.985	1315.82
542.19	1292.96
542.395	1366.19
542.599	1370.84
542.804	1343.52
543.008	1393.12
543.213	1310.39
543.418	1272.03
543.622	1327.83
543.827	1286.76
544.031	1361.54
544.236	1402.23
544.44	1332.67
544.645	1423.35
544.849	1336.74
545.054	1393.32
545.258	1473.14
545.463	1401.84
545.667	1332.09
545.872	1394.09
546.076	1397
546.281	1399.9
546.485	1326.09
546.689	1419.09
546.894	1400.29
547.098	1372.39
547.302	1347.4
547.507	1344.69
547.711	1395.25
547.915	1434.97
548.119	1323.76
548.324	1361.54
548.528	1428.58
548.732	1370.84
548.936	1391.19
549.141	1394.67
549.345	1366.58
549.549	1398.55
549.753	1401.26
549.957	1442.92
550.161	1458.42
550.366	1379.75
550.57	1367.94
550.774	1376.27
550.978	1371.42
551.182	1414.63
551.386	1373.17
551.59	1398.16
551.794	1347.98
551.998	1400.1
552.202	1374.33
552.406	1352.24
552.61	1390.22
552.814	1386.73
553.018	1452.41
553.222	1404.75
553.426	1396.61
553.63	1466.75
553.833	1397.19
554.037	1365.8
554.241	1431.29
554.445	1421.6
554.649	1391.96
554.853	1364.84
555.056	1465.58
555.26	1462.29
555.464	1431.49
555.668	1435.75
555.871	1423.15
556.075	1457.25
556.279	1425.48
556.483	1334.61
556.686	1389.64
556.89	1399.52
557.094	1395.84
557.297	1342.17
557.501	1416.37
557.704	1322.99
557.908	1402.81
558.112	1346.82
558.315	1423.74
558.519	1364.84
558.722	1357.47
558.926	1335.58
559.129	1311.36
559.333	1302.45
559.536	1287.72
559.74	1316.79
559.943	1284.43
560.147	1308.84
560.35	1306.13
560.553	1280.36
560.757	1251.3
560.96	1371.04
561.164	1323.76
561.367	1393.7
561.57	1332.48
561.774	1371.81
561.977	1321.44
562.18	1290.63
562.384	1408.62
562.587	1331.9
562.79	1294.51
562.993	1307.68
563.197	1347.79
563.4	1387.7
563.603	1387.89
563.806	1409.59
564.009	1308.65
564.212	1330.54
564.416	1261.76
564.619	1336.16
564.822	1261.76
565.025	1372.97
565.228	1298.19
565.431	1309.04
565.634	1216.62
565.837	1273.78
566.04	1245.88
566.243	1237.16
566.446	1126.53
566.649	1278.62
566.852	1205.38
567.055	1238.32
567.258	1282.49
567.461	1330.35
567.664	1294.51
567.867	1154.43
568.07	1264.67
568.273	1250.91
568.475	1301.09
568.678	1241.03
568.881	1226.89
569.084	1218.94
569.287	1132.34
569.489	1182.13
569.692	1221.66
569.895	1210.42
570.098	1177.68
570.3	1150.36
570.503	1117.03
570.706	1146.48
570.909	1137.18
571.111	1112.58
571.314	1100.37
571.516	1118
571.719	1140.28
571.922	1112.19
572.124	1105.41
572.327	1136.99
572.529	1082.35
572.732	1083.9
572.935	1178.06
573.137	1209.64
573.34	1115.87
573.542	1148.42
573.745	1168.38
573.947	1144.35
574.15	1133.31
574.352	1126.53
574.554	1186.98
574.757	1094.56
574.959	1089.52
575.162	1089.72
575.364	1061.62
575.566	1174.58
575.769	1114.71
575.971	1099.79
576.173	1002.14
576.376	1045.54
576.578	1124.98
576.78	1157.53
576.982	1036.05
577.185	1073.05
577.387	1047.28
577.589	1060.65
577.791	1083.13
577.993	1081.97
578.196	1061.43
578.398	1092.43
578.6	1086.03
578.802	1009.7
579.004	1012.02
579.206	1022.1
579.408	1060.65
579.61	1053.87
579.812	1063.95
580.014	1026.55
580.216	1017.25
580.418	1030.04
580.62	1034.88
580.822	1000.2
581.024	1054.65
581.226	1051.55
581.428	1040.12
581.63	1132.15
581.832	1035.08
582.034	1091.65
582.236	1050.38
582.438	1088.17
582.64	1097.66
582.841	1103.47
583.043	1153.26
583.245	1099.4
583.447	1099.4
583.649	1045.35
583.85	1080.8
584.052	1114.71
584.254	1049.22
584.456	1100.76
584.657	985.09
584.859	1064.14
585.061	1054.45
585.262	1058.91
585.464	1004.47
585.666	1049.22
585.867	1015.12
586.069	1080.61
586.27	1050.97
586.472	1035.66
586.674	995.75
586.875	1011.25
587.077	1004.47
587.278	1030.23
587.48	1008.54
587.681	1113.74
587.883	1084.68
588.084	972.3
588.285	980.64
588.487	990.13
588.688	1003.11
588.89	966.88
589.091	949.05
589.292	949.44
589.494	919.61
589.695	912.63
589.896	851.21
590.098	816.14
590.299	890.35
590.5	864.97
590.702	901.39
590.903	921.35
591.104	972.89
591.305	945.95
591.507	1014.54
591.708	954.29
591.909	905.07
592.11	1034.88
592.311	984.7
592.512	952.93
592.714	863.81
592.915	915.15
593.116	932.39
593.317	935.88
593.518	943.44
593.719	921.93
593.92	969.79
594.121	982.96
594.322	924.64
594.523	941.89
594.724	908.37
594.925	947.12
595.126	940.34
595.327	985.29
595.528	937.82
595.729	934.52
595.929	903.33
596.13	949.25
596.331	950.6
596.532	956.42
596.733	989.74
596.934	975.4
597.135	967.27
597.335	948.67
597.536	908.56
597.737	948.47
597.938	912.05
598.138	976.76
598.339	919.61
598.54	969.4
598.74	927.94
598.941	929.49
599.142	970.37
599.342	965.91
599.543	899.65
599.744	919.22
599.944	928.32
600.145	923.29
600.345	963
600.546	1028.1
600.746	980.44
600.947	1012.02
601.147	970.75
601.348	992.65
601.548	909.72
601.749	967.85
601.949	891.71
602.15	921.54
602.35	924.26
602.551	966.3
602.751	873.88
602.951	910.89
603.152	869.04
603.352	942.47
603.552	925.8
603.753	984.9
603.953	971.34
604.153	946.54
604.354	929.49
604.554	914.37
604.754	948.47
604.954	932
605.155	952.93
605.355	911.86
605.555	987.22
605.755	998.27
605.955	940.72
606.155	944.4
606.356	926.19
606.556	928.9
606.756	931.62
606.956	896.74
607.156	966.69
607.356	923.09
607.556	937.62
607.756	931.04
607.956	949.83
608.156	930.65
608.356	895.19
608.556	924.26
608.756	935.69
608.956	909.72
609.156	926
609.356	865.36
609.556	869.23
609.755	906.82
609.955	914.57
610.155	916.31
610.355	918.83
610.555	862.64
610.755	913.99
610.954	815.76
611.154	900.04
611.354	928.71
611.554	874.27
611.753	865.55
611.953	837.84
612.153	894.61
612.352	897.32
612.552	826.8
612.752	829.32
612.951	853.54
613.151	844.62
613.351	832.81
613.55	843.27
613.75	905.66
613.949	875.04
614.149	875.43
614.348	846.95
614.548	838.23
614.747	805.88
614.947	831.45
615.146	834.94
615.346	863.61
615.545	861.87
615.745	850.05
615.944	897.71
616.144	855.86
616.343	885.89
616.542	821.96
616.742	848.89
616.941	863.03
617.14	765.77
617.34	855.09
617.539	833.39
617.738	774.88
617.938	855.67
618.137	837.84
618.336	798.13
618.535	815.95
618.734	812.27
618.934	855.86
619.133	841.33
619.332	846.17
619.531	820.02
619.73	831.06
619.929	861.87
620.128	853.15
620.328	891.51
620.527	814.21
620.726	820.02
620.925	876.98
621.124	813.24
621.323	835.33
621.522	827.58
621.721	791.15
