Data from pine_FLMT105791__180__17-23-34-073.txt Node

Date: Mon Mar 20 17:23:34 GMT 2023
User: antho
Spectrometer: FLMT10579
Trigger mode: 0
Integration Time (sec): 1.000000E-1
Scans to average: 10
Electric dark correction enabled: true
Nonlinearity correction enabled: false
Boxcar width: 0
XAxis mode: Wavelengths
Number of Pixels in Spectrum: 3648
>>>>>Begin Spectral Data<<<<<
345.248	-163.64
345.464	-163.64
345.681	-163.64
345.898	-186.3
346.114	-149.69
346.331	-28.21
346.548	23.33
346.764	2.02
346.981	-12.71
347.197	-7.48
347.414	29.72
347.631	-30.73
347.847	70.41
348.064	-18.13
348.28	30.5
348.497	-50.87
348.713	-7.86
348.93	22.56
349.146	27.59
349.363	-9.22
349.579	28.76
349.796	-2.44
350.012	-2.24
350.229	18.29
350.445	7.64
350.661	-21.23
350.878	5.7
351.094	6.47
351.311	3.18
351.527	19.65
351.743	-35.57
351.96	36.7
352.176	32.05
352.392	29.72
352.609	34.96
352.825	-1.28
353.041	19.07
353.257	-0.69
353.474	-12.13
353.69	31.27
353.906	12.29
354.122	-18.33
354.339	40.77
354.555	-3.99
354.771	-2.63
354.987	61.3
355.203	58.59
355.42	-8.83
355.636	-5.15
355.852	-14.26
356.068	1.63
356.284	-40.22
356.5	66.15
356.716	19.26
356.932	5.51
357.148	16.16
357.364	-1.66
357.58	34.57
357.796	37.86
358.012	38.44
358.228	12.09
358.444	-68.7
358.66	46.77
358.876	37.28
359.092	-9.41
359.308	24.88
359.524	12.67
359.74	-16.97
359.956	-33.05
360.172	7.06
360.388	41.74
360.604	-3.02
360.819	101.99
361.035	-3.21
361.251	31.27
361.467	-17.94
361.683	58.59
361.898	17.13
362.114	43.48
362.33	18.29
362.546	37.28
362.762	11.12
362.977	3.18
363.193	-31.31
363.409	35.54
363.624	-1.08
363.84	2.79
364.056	-22.59
364.271	7.64
364.487	9.96
364.703	-10.58
364.918	-9.8
365.134	-8.25
365.35	-17.94
365.565	115.94
365.781	16.74
365.996	19.65
366.212	67.31
366.427	27.79
366.643	-29.56
366.858	8.41
367.074	-11.16
367.289	43.48
367.505	99.47
367.72	-21.62
367.936	-14.26
368.151	45.03
368.367	-2.63
368.582	8.22
368.798	7.83
369.013	30.89
369.228	6.86
369.444	34.57
369.659	50.84
369.874	23.33
370.09	72.93
370.305	-35.38
370.52	0.27
370.736	57.43
370.951	1.82
371.166	49.49
371.381	56.65
371.597	8.99
371.812	-23.75
372.027	-25.69
372.242	-27.82
372.458	69.05
372.673	-3.79
372.888	8.8
373.103	18.68
373.318	95.79
373.533	18.68
373.749	28.17
373.964	-17.55
374.179	58.98
374.394	-19.1
374.609	44.06
374.824	-10.77
375.039	35.92
375.254	-20.65
375.469	29.92
375.684	-1.86
375.899	52.39
376.114	25.66
376.329	8.8
376.544	62.47
376.759	52.97
376.974	-13.48
377.189	11.12
377.404	21.59
377.619	58.79
377.834	-37.51
378.049	-18.13
378.264	-5.93
378.478	37.09
378.693	6.86
378.908	38.83
379.123	16.74
379.338	71.77
379.553	25.66
379.767	24.88
379.982	25.66
380.197	38.44
380.412	34.76
380.626	29.72
380.841	93.85
381.056	38.64
381.271	64.4
381.485	-19.1
381.7	-34.99
381.915	18.87
382.129	-12.32
382.344	34.37
382.559	8.02
382.773	62.66
382.988	-28.59
383.202	16.55
383.417	-14.45
383.632	109.94
383.846	33.99
384.061	28.56
384.275	10.54
384.49	52.39
384.704	60.53
384.919	24.11
385.133	13.06
385.348	39.02
385.562	-0.69
385.777	37.28
385.991	-6.31
386.206	18.87
386.42	15.19
386.634	50.26
386.849	23.52
387.063	25.66
387.277	-9.99
387.492	4.54
387.706	-27.63
387.92	-27.04
388.135	62.08
388.349	33.6
388.563	1.24
388.778	24.49
388.992	37.09
389.206	33.6
389.42	98.7
389.635	5.12
389.849	35.92
390.063	46
390.277	19.84
390.491	79.32
390.706	40.38
390.92	32.44
391.134	5.51
391.348	32.63
391.562	-7.67
391.776	-7.67
391.99	-20.26
392.205	55.1
392.419	-19.88
392.633	-9.22
392.847	62.27
393.061	-3.02
393.275	101.22
393.489	8.99
393.703	43.87
393.917	48.71
394.131	2.6
394.345	24.69
394.559	38.83
394.773	9.77
394.986	24.88
395.2	20.23
395.414	20.42
395.628	-12.13
395.842	36.7
396.056	19.07
396.27	-54.36
396.484	27.59
396.697	47.55
396.911	65.57
397.125	40.57
397.339	56.85
397.553	40.57
397.766	96.37
397.98	50.07
398.194	52.2
398.408	21.39
398.621	35.54
398.835	39.02
399.049	10.35
399.262	51.04
399.476	43.67
399.69	41.74
399.903	87.27
400.117	18.49
400.331	50.65
400.544	7.25
400.758	136.29
400.971	54.72
401.185	74.29
401.398	3.37
401.612	66.92
401.826	68.47
402.039	67.89
402.253	10.74
402.466	24.11
402.68	11.12
402.893	28.76
403.106	18.1
403.32	36.7
403.533	29.53
403.747	5.31
403.96	17.91
404.174	43.48
404.387	-19.29
404.6	40.57
404.814	67.89
405.027	33.02
405.24	36.7
405.454	4.34
405.667	56.07
405.88	-28.21
406.094	34.96
406.307	36.7
406.52	38.06
406.733	10.35
406.947	-19.68
407.16	63.44
407.373	63.44
407.586	8.41
407.799	9.19
408.012	78.35
408.226	20.62
408.439	57.43
408.652	-20.26
408.865	32.24
409.078	51.04
409.291	23.52
409.504	-11.93
409.717	37.28
409.93	40.38
410.143	60.14
410.357	-5.54
410.57	-24.53
410.783	7.06
410.996	15.58
411.209	13.64
411.421	55.3
411.634	16.16
411.847	-19.88
412.06	12.48
412.273	16.94
412.486	33.41
412.699	102.19
412.912	3.37
413.125	51.04
413.338	14.22
413.55	45.81
413.763	33.6
413.976	22.56
414.189	15.58
414.402	24.69
414.615	44.84
414.827	5.12
415.04	60.34
415.253	30.5
415.466	86.49
415.678	83.2
415.891	33.21
416.104	30.5
416.316	4.54
416.529	-5.54
416.742	49.1
416.954	82.62
417.167	18.1
417.38	7.64
417.592	52.78
417.805	16.16
418.017	-8.06
418.23	69.25
418.442	38.44
418.655	24.69
418.868	48.91
419.08	58.98
419.293	73.51
419.505	20.23
419.718	32.24
419.93	29.14
420.142	25.66
420.355	76.8
420.567	70.6
420.78	66.54
420.992	41.54
421.205	83.39
421.417	-21.23
421.629	15
421.842	-4.96
422.054	0.86
422.266	46.97
422.479	60.92
422.691	7.64
422.903	51.04
423.115	-13.68
423.328	30.11
423.54	41.74
423.752	40.38
423.964	20.62
424.177	33.02
424.389	-14.64
424.601	109.55
424.813	39.61
425.025	52.78
425.238	52
425.45	32.05
425.662	-9.22
425.874	283.34
426.086	46
426.298	35.92
426.51	42.32
426.722	33.41
426.934	6.86
427.146	70.99
427.358	-3.99
427.57	47.16
427.782	39.02
427.994	43.09
428.206	16.36
428.418	-22.98
428.63	31.66
428.842	64.21
429.054	27.21
429.266	71.57
429.478	2.02
429.69	16.74
429.902	-21.43
430.114	48.32
430.325	72.93
430.537	30.31
430.749	52.39
430.961	-3.99
431.173	24.49
431.384	41.74
431.596	-25.11
431.808	6.67
432.02	25.46
432.231	39.61
432.443	65.37
432.655	30.89
432.867	-7.09
433.078	43.09
433.29	94.82
433.502	61.11
433.713	66.54
433.925	24.88
434.136	83.97
434.348	31.47
434.56	-15.42
434.771	121.56
434.983	-23.17
435.194	-14.84
435.406	12.67
435.617	53.36
435.829	110.52
436.04	40.57
436.252	79.32
436.463	71.77
436.675	43.09
436.886	18.29
437.098	34.37
437.309	91.14
437.521	23.52
437.732	50.26
437.943	45.03
438.155	34.96
438.366	-9.41
438.578	72.35
438.789	36.89
439	75.45
439.211	54.72
439.423	62.08
439.634	70.6
439.845	48.32
440.057	58.59
440.268	63.44
440.479	-0.5
440.69	16.36
440.902	18.68
441.113	39.22
441.324	20.81
441.535	45.22
441.746	77.77
441.957	-5.73
442.168	-5.93
442.38	41.16
442.591	45.81
442.802	20.04
443.013	16.74
443.224	68.86
443.435	10.93
443.646	38.06
443.857	39.41
444.068	10.16
444.279	18.49
444.49	75.06
444.701	23.33
444.912	128.92
445.123	50.07
445.334	56.27
445.545	33.6
445.756	42.51
445.967	7.64
446.178	56.46
446.388	83.2
446.599	65.37
446.81	70.6
447.021	47.94
447.232	74.48
447.443	89.59
447.653	7.83
447.864	52.59
448.075	9.57
448.286	60.53
448.496	77.19
448.707	63.63
448.918	51.04
449.129	127.57
449.339	7.44
449.55	53.17
449.761	13.84
449.971	101.6
450.182	36.12
450.393	65.76
450.603	52.2
450.814	29.14
451.024	53.94
451.235	57.04
451.446	105.29
451.656	97.73
451.867	24.3
452.077	59.75
452.288	104.51
452.498	95.21
452.709	58.4
452.919	87.27
453.13	61.89
453.34	77.77
453.55	38.25
453.761	78.35
453.971	75.25
454.182	86.69
454.392	100.64
454.602	131.05
454.813	66.34
455.023	88.04
455.233	33.6
455.444	53.94
455.654	6.86
455.864	58.4
456.075	52.97
456.285	52.39
456.495	51.04
456.705	64.21
456.916	97.54
457.126	101.6
457.336	62.66
457.546	-5.93
457.756	36.89
457.967	126.79
458.177	13.84
458.387	66.54
458.597	49.1
458.807	56.27
459.017	62.66
459.227	42.71
459.437	39.02
459.647	102.19
459.857	95.99
460.068	28.37
460.278	124.27
460.488	86.88
460.698	128.54
460.908	70.8
461.117	16.74
461.327	22.17
461.537	58.79
461.747	70.8
461.957	64.79
462.167	152.75
462.377	92.69
462.587	64.21
462.797	98.89
463.007	74.67
463.216	105.67
463.426	106.45
463.636	100.44
463.846	27.79
464.056	68.47
464.265	104.32
464.475	28.56
464.685	47.94
464.895	91.53
465.104	84.75
465.314	76.61
465.524	47.74
465.733	61.69
465.943	147.91
466.153	121.37
466.362	103.74
466.572	59.37
466.782	71.19
466.991	50.65
467.201	156.43
467.41	1.63
467.62	81.65
467.829	74.87
468.039	61.5
468.249	64.21
468.458	60.14
468.668	107.8
468.877	73.32
469.086	143.84
469.296	95.02
469.505	49.29
469.715	129.5
469.924	85.72
470.134	116.72
470.343	137.06
470.552	77.58
470.762	88.43
470.971	43.29
471.18	75.06
471.39	63.44
471.599	44.26
471.808	87.46
472.018	17.71
472.227	127.95
472.436	108.39
472.645	68.09
472.855	51.62
473.064	110.9
473.273	75.45
473.482	95.6
473.691	132.99
473.901	108.19
474.11	72.15
474.319	161.28
474.528	91.53
474.737	126.79
474.946	96.76
475.155	96.57
475.364	115.55
475.573	101.22
475.783	103.35
475.992	113.04
476.201	140.16
476.41	86.88
476.619	63.63
476.828	107.03
477.037	76.42
477.245	87.65
477.454	132.22
477.663	63.44
477.872	48.91
478.081	139.77
478.29	37.28
478.499	163.8
478.708	108.77
478.917	164.77
479.125	112.84
479.334	123.69
479.543	97.15
479.752	100.44
479.961	91.92
480.169	114.97
480.378	60.34
480.587	196.73
480.796	108
481.004	97.92
481.213	126.21
481.422	89.4
481.63	84.55
481.839	111.29
482.048	155.08
482.256	82.04
482.465	95.4
482.674	119.62
482.882	146.75
483.091	170
483.299	95.4
483.508	103.93
483.716	108.39
483.925	113.04
484.134	91.72
484.342	63.24
484.551	148.49
484.759	131.05
484.967	108.39
485.176	154.11
485.384	121.75
485.593	178.72
485.801	156.24
486.01	155.85
486.218	132.8
486.426	90.95
486.635	147.13
486.843	136.29
487.051	120.2
487.26	105.67
487.468	158.95
487.676	159.92
487.885	82.04
488.093	130.86
488.301	111.29
488.509	116.52
488.717	129.31
488.926	123.89
489.134	87.46
489.342	125.44
489.55	109.16
489.758	133.96
489.967	108.19
490.175	207.58
490.383	99.86
490.591	174.84
490.799	82.81
491.007	160.7
491.215	116.14
491.423	119.82
491.631	112.26
491.839	127.95
492.047	169.22
492.255	101.8
492.463	84.17
492.671	138.22
492.879	152.56
493.087	136.48
493.295	133.38
493.503	152.17
493.711	152.75
493.919	170.58
494.127	188.79
494.334	193.44
494.542	89.01
494.75	136.48
494.958	146.94
495.166	173.29
495.374	146.55
495.581	125.63
495.789	137.45
495.997	184.72
496.205	142.29
496.412	132.02
496.62	130.09
496.828	150.04
497.035	138.03
497.243	163.6
497.451	135.7
497.658	169.8
497.866	133.19
498.074	210.49
498.281	132.22
498.489	251.18
498.696	151.01
498.904	112.07
499.112	128.54
499.319	209.72
499.527	119.43
499.734	201.77
499.942	109.35
500.149	133.38
500.357	168.83
500.564	123.89
500.771	188.4
500.979	147.33
501.186	136.09
501.394	146.55
501.601	173.1
501.808	192.86
502.016	143.07
502.223	192.67
502.43	163.02
502.638	164.38
502.845	114
503.052	197.51
503.26	168.45
503.467	229.48
503.674	151.78
503.881	173.87
504.089	249.24
504.296	218.24
504.503	133.38
504.71	170.58
504.917	115.55
505.125	201
505.332	136.48
505.539	188.21
505.746	239.36
505.953	185.69
506.16	160.7
506.367	202.55
506.574	194.22
506.781	204.1
506.988	113.23
507.195	165.15
507.402	157.79
507.609	189.95
507.816	155.66
508.023	164.77
508.23	157.02
508.437	130.28
508.644	225.6
508.851	242.46
509.058	195.96
509.265	193.83
509.472	193.44
509.679	281.6
509.885	188.4
510.092	171.16
510.299	163.99
510.506	195.77
510.713	194.6
510.92	184.14
511.126	210.1
511.333	240.33
511.54	227.35
511.746	222.89
511.953	223.86
512.16	234.51
512.367	163.41
512.573	200.42
512.78	186.08
512.987	195.57
513.193	208.55
513.4	138.61
513.606	170
513.813	212.43
514.02	204.48
514.226	315.11
514.433	248.46
514.639	161.08
514.846	197.12
515.052	175.23
515.259	202.16
515.465	209.72
515.672	216.69
515.878	276.75
516.085	182.78
516.291	235.29
516.497	173.1
516.704	194.8
516.91	171.93
517.117	176.97
517.323	158.57
517.529	196.54
517.736	210.1
517.942	209.13
518.148	167.87
518.354	204.68
518.561	220.18
518.767	226.96
518.973	232.58
519.179	238.78
519.386	170.38
519.592	170.19
519.798	149.27
520.004	209.91
520.21	185.69
520.417	217.66
520.623	219.98
520.829	248.46
521.035	225.02
521.241	242.65
521.447	256.02
521.653	307.75
521.859	214.56
522.065	218.05
522.271	315.31
522.477	224.25
522.683	274.04
522.889	250.01
523.095	276.95
523.301	255.63
523.507	208.17
523.713	236.84
523.919	184.53
524.125	280.63
524.331	224.44
524.537	257.38
524.742	234.13
524.948	263.38
525.154	254.28
525.36	368.2
525.566	261.64
525.772	306.01
525.977	209.13
526.183	296.32
526.389	293.22
526.595	224.44
526.8	246.72
527.006	241.49
527.212	225.41
527.417	250.6
527.623	193.44
527.829	264.16
528.034	252.34
528.24	280.82
528.446	202.55
528.651	316.66
528.857	255.83
529.062	325.19
529.268	250.4
529.473	290.12
529.679	226.76
529.884	335.26
530.09	294.77
530.295	347.08
530.501	326.16
530.706	288.57
530.912	236.45
531.117	264.55
531.323	286.83
531.528	287.02
531.733	266.1
531.939	240.71
532.144	291.09
532.35	279.46
532.555	322.67
532.76	319.96
532.966	330.23
533.171	343.01
533.376	292.45
533.581	266.87
533.787	306.2
533.992	280.43
534.197	336.81
534.402	272.49
534.607	276.75
534.813	377.31
535.018	285.86
535.223	255.83
535.428	302.52
535.633	322.86
535.838	321.51
536.043	292.06
536.249	350.76
536.454	284.89
536.659	299.81
536.864	261.83
537.069	299.81
537.274	323.44
537.479	308.14
537.684	333.91
537.889	280.63
538.094	361.03
538.299	294.96
538.504	289.54
538.708	337.39
538.913	329.06
539.118	284.7
539.323	311.43
539.528	297.87
539.733	310.85
539.938	325.58
540.142	352.89
540.347	323.44
540.552	304.26
540.757	312.01
540.962	305.23
541.166	279.46
541.371	259.12
541.576	326.93
541.781	189.18
541.985	309.88
542.19	322.86
542.395	331.58
542.599	352.12
542.804	322.67
543.008	368.59
543.213	254.28
543.418	281.01
543.622	347.08
543.827	296.13
544.031	373.04
544.236	368.39
544.44	321.51
544.645	382.93
544.849	312.21
545.054	344.95
545.258	410.24
545.463	368.2
545.667	308.14
545.872	346.31
546.076	341.08
546.281	307.36
546.485	297.68
546.689	315.31
546.894	364.13
547.098	308.14
547.302	255.25
547.507	296.71
547.711	323.44
547.915	381.96
548.119	282.76
548.324	320.15
548.528	400.17
548.732	320.93
548.936	335.84
549.141	338.17
549.345	333.33
549.549	361.03
549.753	333.52
549.957	400.17
550.161	393
550.366	327.51
550.57	291.09
550.774	343.01
550.978	308.33
551.182	314.14
551.386	289.35
551.59	324.03
551.794	320.93
551.998	353.09
552.202	333.91
552.406	278.3
552.61	337.2
552.814	333.52
553.018	389.51
553.222	333.13
553.426	349.02
553.63	384.09
553.833	331.78
554.037	295.74
554.241	358.13
554.445	335.46
554.649	350.57
554.853	300.97
555.056	377.69
555.26	369.75
555.464	352.12
555.668	339.72
555.871	368.01
556.075	352.51
556.279	307.95
556.483	297.1
556.686	329.64
556.89	322.48
557.094	362
557.297	308.53
557.501	383.31
557.704	302.91
557.908	384.86
558.112	324.41
558.315	403.66
558.519	325.38
558.722	341.08
558.926	327.32
559.129	307.17
559.333	275.4
559.536	313.56
559.74	299.42
559.943	313.18
560.147	296.9
560.35	332.74
560.553	310.46
560.757	239.55
560.96	366.26
561.164	294.19
561.367	369.17
561.57	318.41
561.774	380.02
561.977	346.11
562.18	311.82
562.384	399.59
562.587	341.85
562.79	294.19
562.993	322.28
563.197	348.44
563.4	373.63
563.603	379.44
563.806	421.87
564.009	299.42
564.212	373.63
564.416	281.6
564.619	361.23
564.822	313.56
565.025	339.53
565.228	303.49
565.431	334.29
565.634	227.93
565.837	308.72
566.04	263.77
566.243	306.78
566.446	269.2
566.649	333.33
566.852	265.71
567.055	311.63
567.258	354.44
567.461	399.39
567.664	355.41
567.867	250.4
568.07	303.3
568.273	331.97
568.475	388.93
568.678	324.41
568.881	317.44
569.084	359.87
569.287	267.45
569.489	286.63
569.692	334.1
569.895	332.74
570.098	302.71
570.3	289.73
570.503	219.02
570.706	247.5
570.909	284.11
571.111	253.31
571.314	258.15
571.516	262.61
571.719	298.65
571.922	275.98
572.124	262.8
572.327	283.92
572.529	233.35
572.732	231.61
572.935	274.23
573.137	307.95
573.34	254.86
573.542	294.96
573.745	290.7
573.947	306.78
574.15	281.6
574.352	252.15
574.554	313.76
574.757	241.3
574.959	259.9
575.162	220.37
575.364	263
575.566	352.12
575.769	254.08
575.971	267.26
576.173	186.47
576.376	269.78
576.578	315.31
576.78	326.35
576.982	193.05
577.185	242.85
577.387	225.99
577.589	244.01
577.791	279.85
577.993	281.6
578.196	241.3
578.398	292.64
578.6	329.64
578.802	229.28
579.004	260.09
579.206	232.19
579.408	284.89
579.61	248.08
579.812	311.63
580.014	251.18
580.216	230.25
580.418	199.64
580.62	239.75
580.822	177.36
581.024	245.75
581.226	301.16
581.428	226.76
581.63	318.6
581.832	238.78
582.034	294.77
582.236	266.48
582.438	291.28
582.64	298.84
582.841	311.63
583.043	318.6
583.245	292.25
583.447	276.75
583.649	249.82
583.85	267.26
584.052	302.71
584.254	255.83
584.456	280.24
584.657	228.7
584.859	269.39
585.061	258.73
585.262	245.95
585.464	224.44
585.666	287.02
585.867	253.31
586.069	318.99
586.27	279.46
586.472	286.25
586.674	231.22
586.875	241.3
587.077	228.9
587.278	281.21
587.48	256.02
587.681	363.94
587.883	261.64
588.084	212.23
588.285	231.22
588.487	244.2
588.688	276.17
588.89	218.82
589.091	250.4
589.292	277.53
589.494	248.27
589.695	238.2
589.896	193.44
590.098	185.3
590.299	269
590.5	214.75
590.702	199.45
590.903	220.95
591.104	291.28
591.305	214.95
591.507	299.61
591.708	258.93
591.909	212.04
592.11	309.88
592.311	276.95
592.512	246.53
592.714	203.32
592.915	204.68
593.116	212.82
593.317	232.58
593.518	244.59
593.719	195.18
593.92	284.89
594.121	263
594.322	241.88
594.523	227.35
594.724	187.82
594.925	240.71
595.126	261.83
595.327	254.66
595.528	240.52
595.729	253.5
595.929	220.18
596.13	217.27
596.331	218.43
596.532	233.55
596.733	299.03
596.934	283.34
597.135	266.29
597.335	266.87
597.536	196.15
597.737	206.03
597.938	213.98
598.138	269.58
598.339	223.67
598.54	255.63
598.74	230.45
598.941	259.51
599.142	271.33
599.342	228.7
599.543	202.74
599.744	225.02
599.944	236.26
600.145	217.66
600.345	238.78
600.546	308.53
600.746	302.13
600.947	280.43
601.147	258.15
601.348	271.13
601.548	205.26
601.749	252.34
601.949	216.69
602.15	222.31
602.35	242.46
602.551	311.82
602.751	221.53
602.951	212.62
603.152	163.6
603.352	280.43
603.552	214.95
603.753	252.92
603.953	244.4
604.153	238.97
604.354	246.72
604.554	252.53
604.754	241.3
604.954	173.48
605.155	236.84
605.355	203.71
605.555	269.78
605.755	298.06
605.955	232.96
606.155	245.75
606.356	218.43
606.556	270.94
606.756	237.03
606.956	183.17
607.156	290.7
607.356	230.64
607.556	259.12
607.756	225.22
607.956	291.86
608.156	258.35
608.356	200.03
608.556	267.06
608.756	257.76
608.956	232.96
609.156	262.41
609.356	190.34
609.556	216.88
609.755	257.38
609.955	222.7
610.155	252.73
610.355	246.72
610.555	224.44
610.755	253.31
610.954	220.57
611.154	256.41
611.354	269.39
611.554	199.64
611.753	234.71
611.953	196.15
612.153	254.66
612.352	265.51
612.552	213.98
612.752	170.97
612.951	239.16
613.151	245.56
613.351	219.79
613.55	193.83
613.75	273.65
613.949	259.9
614.149	267.06
614.348	216.11
614.548	205.26
614.747	178.91
614.947	197.51
615.146	174.26
615.346	235.48
615.545	241.3
615.745	233.93
615.944	247.69
616.144	221.73
616.343	276.36
616.542	217.08
616.742	245.56
616.941	217.85
617.14	170.19
617.34	228.31
617.539	224.63
617.738	209.33
617.938	277.91
618.137	239.36
618.336	185.88
618.535	240.33
618.734	193.25
618.934	224.44
619.133	197.51
619.332	259.31
619.531	194.22
619.73	208.55
619.929	253.5
620.128	243.81
620.328	276.95
620.527	212.23
620.726	220.37
620.925	238.78
621.124	210.68
621.323	234.13
621.522	203.52
621.721	195.18
621.92	167.28
622.119	243.04
622.318	198.87
622.517	201.97
622.715	197.51
622.914	155.85
623.113	192.28
623.312	170
623.511	230.06
623.71	183.95
623.909	203.52
624.107	271.52
624.306	161.28
624.505	169.03
624.704	201.38
624.902	168.45
625.101	229.67
625.3	218.43
625.499	187.63
625.697	194.8
625.896	168.64
626.095	223.28
626.293	168.45
626.492	189.95
626.69	218.05
626.889	176.58
627.088	213.01
627.286	183.75
627.485	169.03
627.683	184.53
627.882	209.13
628.08	135.51
628.279	194.41
628.477	256.6
628.676	167.28
628.874	218.24
629.073	170.97
629.271	155.66
