Data from pine_FLMT105791__161__17-23-15-073.txt Node

Date: Mon Mar 20 17:23:15 GMT 2023
User: antho
Spectrometer: FLMT10579
Trigger mode: 0
Integration Time (sec): 1.000000E-1
Scans to average: 10
Electric dark correction enabled: true
Nonlinearity correction enabled: false
Boxcar width: 0
XAxis mode: Wavelengths
Number of Pixels in Spectrum: 3648
>>>>>Begin Spectral Data<<<<<
345.248	-147.67
345.464	-147.67
345.681	-147.67
345.898	-157.94
346.114	-153.09
346.331	-23.28
346.548	13.14
346.764	8.69
346.981	-8.94
347.197	-1.97
347.414	2.1
347.631	-19.02
347.847	47.24
348.064	-15.92
348.28	45.3
348.497	-38.39
348.713	-8.94
348.93	41.24
349.146	32.32
349.363	8.3
349.579	12.56
349.796	19.92
350.012	2.29
350.229	35.04
350.445	5.97
350.661	-31.23
350.878	18.18
351.094	2.68
351.311	41.62
351.527	38.14
351.743	-18.63
351.96	41.82
352.176	15.08
352.392	29.03
352.609	34.45
352.825	-4.1
353.041	2.29
353.257	15.47
353.474	5.01
353.69	-4.88
353.906	3.26
354.122	-24.64
354.339	79.02
354.555	-2.36
354.771	-7.2
354.987	56.54
355.203	48.02
355.42	-17.66
355.636	-18.83
355.852	-10.3
356.068	6.17
356.284	-37.81
356.5	45.3
356.716	11.79
356.932	5.2
357.148	13.92
357.364	16.63
357.58	66.42
357.796	46.08
358.012	48.79
358.228	27.29
358.444	-58.74
358.66	34.26
358.876	-6.81
359.092	-42.08
359.308	23.02
359.524	6.94
359.74	-3.52
359.956	1.52
360.172	15.47
360.388	47.44
360.604	13.72
360.819	68.36
361.035	46.85
361.251	51.31
361.467	-14.18
361.683	21.67
361.898	-15.53
362.114	45.89
362.33	10.43
362.546	26.32
362.762	-1.97
362.977	22.05
363.193	-26.19
363.409	48.21
363.624	-15.53
363.84	10.82
364.056	5.39
364.271	43.17
364.487	17.6
364.703	-2.94
364.918	-7.39
365.134	-11.85
365.35	5.59
365.565	82.31
365.781	23.41
365.996	55.77
366.212	81.34
366.427	19.34
366.643	-1
366.858	8.11
367.074	-25.61
367.289	52.28
367.505	105.95
367.72	-32.97
367.936	-4.1
368.151	43.95
368.367	44.92
368.582	28.84
368.798	-7.2
369.013	55.96
369.228	-17.28
369.444	5.59
369.659	52.09
369.874	9.27
370.09	57.32
370.305	-35.88
370.52	-0.42
370.736	55.57
370.951	17.6
371.166	57.9
371.381	83.09
371.597	31.35
371.812	-18.24
372.027	-20.76
372.242	-6.43
372.458	83.67
372.673	-9.14
372.888	21.67
373.103	6.94
373.318	77.85
373.533	70.88
373.749	29.22
373.964	-25.99
374.179	67.39
374.394	-2.36
374.609	29.61
374.824	-10.3
375.039	58.48
375.254	5.01
375.469	62.55
375.684	19.34
375.899	35.42
376.114	5.78
376.329	36.59
376.544	56.74
376.759	49.57
376.974	1.32
377.189	42.59
377.404	7.72
377.619	37.36
377.834	-38.01
378.049	-17.28
378.264	-24.83
378.478	22.25
378.693	-31.42
378.908	36.39
379.123	26.12
379.338	44.72
379.553	17.99
379.767	25.15
379.982	33.1
380.197	29.42
380.412	27.87
380.626	4.81
380.841	92
381.056	42.79
381.271	78.24
381.485	3.07
381.7	-28.32
381.915	39.69
382.129	5.78
382.344	44.14
382.559	10.43
382.773	47.82
382.988	-32.78
383.202	16.82
383.417	-9.91
383.632	105.37
383.846	14.69
384.061	27.67
384.275	8.3
384.49	36.2
384.704	51.5
384.919	48.21
385.133	-10.88
385.348	12.37
385.562	-19.99
385.777	52.86
385.991	34.26
386.206	5.2
386.42	38.14
386.634	73.79
386.849	29.03
387.063	24.38
387.277	-7.98
387.492	-2.16
387.706	-7.98
387.92	-21.93
388.135	49.18
388.349	13.72
388.563	9.07
388.778	21.67
388.992	58.29
389.206	44.34
389.42	102.46
389.635	29.03
389.849	49.37
390.063	49.18
390.277	37.55
390.491	61
390.706	59.84
390.92	39.49
391.134	19.34
391.348	30.58
391.562	-12.63
391.776	18.76
391.99	-10.11
392.205	24.19
392.419	-2.16
392.633	40.65
392.847	84.64
393.061	0.74
393.275	98.78
393.489	-7.78
393.703	16.63
393.917	84.44
394.131	16.05
394.345	35.81
394.559	51.5
394.773	12.95
394.986	29.42
395.2	20.5
395.414	50.92
395.628	-1.97
395.842	11.4
396.056	7.91
396.27	-21.54
396.484	10.62
396.697	22.05
396.911	53.05
397.125	66.62
397.339	61.97
397.553	54.6
397.766	114.86
397.98	67.39
398.194	66.81
398.408	9.27
398.621	50.73
398.835	45.11
399.049	33.1
399.262	61.97
399.476	57.7
399.69	71.46
399.903	113.5
400.117	13.14
400.331	42.98
400.544	2.1
400.758	131.72
400.971	62.55
401.185	48.79
401.398	-4.1
401.612	59.45
401.826	31.94
402.039	35.62
402.253	2.68
402.466	30
402.68	25.15
402.893	42.79
403.106	8.69
403.32	11.98
403.533	43.37
403.747	27.29
403.96	33.68
404.174	39.3
404.387	-11.66
404.6	9.27
404.814	76.3
405.027	16.82
405.24	24.57
405.454	27.48
405.667	66.04
405.88	-50.21
406.094	45.5
406.307	76.3
406.52	36.59
406.733	-33.16
406.947	-1.78
407.16	103.04
407.373	49.57
407.586	21.47
407.799	9.66
408.012	42.2
408.226	56.74
408.439	72.82
408.652	-24.06
408.865	43.95
409.078	62.94
409.291	50.34
409.504	3.26
409.717	35.42
409.93	63.71
410.143	29.8
410.357	-7.01
410.57	2.68
410.783	14.11
410.996	23.8
411.209	37.94
411.421	49.18
411.634	10.62
411.847	6.36
412.06	30.39
412.273	11.21
412.486	41.82
412.699	104.98
412.912	13.14
413.125	82.5
413.338	11.59
413.55	50.73
413.763	35.81
413.976	59.64
414.189	20.5
414.402	27.48
414.615	58.67
414.827	-4.49
415.04	53.64
415.253	35.04
415.466	53.25
415.678	98.97
415.891	44.53
416.104	40.85
416.316	34.07
416.529	-6.04
416.742	43.56
416.954	42.4
417.167	5.97
417.38	22.64
417.592	82.12
417.805	-12.04
418.017	-27.54
418.23	37.55
418.442	9.46
418.655	18.57
418.868	57.7
419.08	61.77
419.293	94.32
419.505	40.46
419.718	30
419.93	75.92
420.142	22.83
420.355	69.72
420.567	67.97
420.78	78.63
420.992	26.9
421.205	71.85
421.417	-12.04
421.629	0.55
421.842	8.88
422.054	-31.03
422.266	37.75
422.479	68.36
422.691	33.87
422.903	62.35
423.115	5.97
423.328	18.57
423.54	53.05
423.752	44.53
423.964	10.62
424.177	30.77
424.389	15.08
424.601	131.13
424.813	40.85
425.025	53.25
425.238	49.37
425.45	28.25
425.662	26.9
425.874	337.09
426.086	39.49
426.298	80.18
426.51	62.55
426.722	9.27
426.934	20.5
427.146	64.87
427.358	-26.96
427.57	80.37
427.782	21.28
427.994	14.89
428.206	2.29
428.418	-13.79
428.63	63.32
428.842	83.86
429.054	54.22
429.266	72.04
429.478	1.52
429.69	47.05
429.902	-3.13
430.114	49.76
430.325	86.38
430.537	28.06
430.749	38.72
430.961	36.59
431.173	49.76
431.384	52.67
431.596	-25.22
431.808	9.66
432.02	40.07
432.231	49.37
432.443	48.6
432.655	41.43
432.867	-16.89
433.078	51.31
433.29	112.34
433.502	54.02
433.713	71.07
433.925	69.91
434.136	75.72
434.348	-4.88
434.56	-43.82
434.771	103.62
434.983	0.94
435.194	12.56
435.406	28.45
435.617	81.92
435.829	89.87
436.04	54.22
436.252	46.27
436.463	96.26
436.675	81.15
436.886	30.77
437.098	42.79
437.309	78.44
437.521	46.08
437.732	90.64
437.943	67.78
438.155	46.08
438.366	14.31
438.578	95.49
438.789	55.77
439	77.85
439.211	27.67
439.423	71.65
439.634	74.37
439.845	69.91
440.057	47.24
440.268	66.23
440.479	10.62
440.69	51.7
440.902	32.9
441.113	42.79
441.324	32.32
441.535	72.04
441.746	83.67
441.957	25.54
442.168	36.2
442.38	62.55
442.591	59.06
442.802	22.83
443.013	30.19
443.224	57.9
443.435	4.23
443.646	18.95
443.857	48.79
444.068	20.89
444.279	3.46
444.49	96.07
444.701	21.28
444.912	126.68
445.123	86.77
445.334	59.06
445.545	70.49
445.756	42.2
445.967	8.11
446.178	84.44
446.388	74.56
446.599	70.3
446.81	83.09
447.021	47.82
447.232	97.42
447.443	95.87
447.653	45.89
447.864	85.22
448.075	48.02
448.286	66.62
448.496	69.91
448.707	95.68
448.918	40.65
449.129	127.84
449.339	27.09
449.55	82.5
449.761	37.55
449.971	104.78
450.182	64.68
450.393	89.48
450.603	59.84
450.814	66.23
451.024	83.86
451.235	78.05
451.446	109.82
451.656	114.67
451.867	48.02
452.077	66.62
452.288	130.94
452.498	113.31
452.709	31.16
452.919	75.34
453.13	59.06
453.34	120.48
453.55	21.28
453.761	99.75
453.971	94.13
454.182	115.05
454.392	91.42
454.602	134.23
454.813	66.23
455.023	99.94
455.233	61.58
455.444	66.23
455.654	50.54
455.864	66.23
456.075	43.17
456.285	51.31
456.495	51.7
456.705	92.39
456.916	108.47
457.126	113.31
457.336	62.16
457.546	29.61
457.756	42.59
457.967	95.49
458.177	57.12
458.387	75.53
458.597	47.24
458.807	68.94
459.017	66.42
459.227	45.5
459.437	59.64
459.647	70.49
459.857	92.77
460.068	56.15
460.278	113.7
460.488	87.93
460.698	131.91
460.908	70.1
461.117	25.35
461.327	41.04
461.537	68.36
461.747	70.88
461.957	55.77
462.167	185
462.377	92.39
462.587	87.15
462.797	75.92
463.007	86.38
463.216	112.15
463.426	120.28
463.636	84.25
463.846	29.22
464.056	72.04
464.265	102.85
464.475	59.25
464.685	85.22
464.895	91.22
465.104	71.46
465.314	96.65
465.524	54.41
465.733	50.54
465.943	109.82
466.153	137.72
466.362	103.62
466.572	78.24
466.782	66.23
466.991	79.99
467.201	152.64
467.41	34.26
467.62	121.45
467.829	82.31
468.039	94.32
468.249	81.54
468.458	78.63
468.668	114.47
468.877	118.15
469.086	121.83
469.296	119.7
469.505	58.09
469.715	136.56
469.924	105.17
470.134	153.8
470.343	137.53
470.552	83.28
470.762	92.19
470.971	41.43
471.18	76.5
471.39	75.34
471.599	54.6
471.808	120.09
472.018	52.86
472.227	106.92
472.436	130.36
472.645	65.07
472.855	50.73
473.064	131.91
473.273	56.15
473.482	118.35
473.691	137.72
473.901	147.41
474.11	108.85
474.319	207.66
474.528	91.61
474.737	143.73
474.946	129.58
475.155	119.12
475.364	124.35
475.573	117.77
475.783	100.14
475.992	117.96
476.201	151.09
476.41	68.36
476.619	60.8
476.828	126.29
477.037	100.52
477.245	87.35
477.454	135.98
477.663	77.47
477.872	72.82
478.081	133.85
478.29	84.05
478.499	190.42
478.708	110.98
478.917	138.11
479.125	125.9
479.334	99.55
479.543	79.21
479.752	114.28
479.961	139.85
480.169	138.88
480.378	84.83
480.587	208.63
480.796	127.84
481.004	108.08
481.213	101.69
481.422	123.97
481.63	102.27
481.839	150.12
482.048	185.19
482.256	126.48
482.465	113.7
482.674	160.58
482.882	158.45
483.091	183.06
483.299	140.24
483.508	159.03
483.716	127.26
483.925	116.02
484.134	76.69
484.342	127.45
484.551	151.48
484.759	169.3
484.967	146.83
485.176	126.87
485.384	158.65
485.593	167.37
485.801	148.38
486.01	161.55
486.218	168.92
486.426	131.33
486.635	154.97
486.843	116.02
487.051	170.47
487.26	135.78
487.468	147.41
487.676	160.39
487.885	102.85
488.093	129.97
488.301	137.92
488.509	157.48
488.717	160.58
488.926	107.11
489.134	104.4
489.342	140.24
489.55	103.43
489.758	121.83
489.967	110.6
490.175	266.18
490.383	106.72
490.591	172.98
490.799	88.32
491.007	154.58
491.215	154.58
491.423	129.58
491.631	135.98
491.839	134.62
492.047	187.9
492.255	121.25
492.463	107.3
492.671	161.17
492.879	198.36
493.087	144.5
493.295	160.78
493.503	154.77
493.711	177.44
493.919	180.73
494.127	195.07
494.334	168.14
494.542	125.71
494.75	136.37
494.958	142.57
495.166	180.15
495.374	154.97
495.581	142.76
495.789	152.06
495.997	201.66
496.205	149.93
496.412	190.42
496.62	140.05
496.828	189.45
497.035	150.9
497.243	186.74
497.451	141.79
497.658	152.64
497.866	173.95
498.074	197.78
498.281	156.13
498.489	243.12
498.696	191.78
498.904	170.08
499.112	146.44
499.319	243.9
499.527	169.69
499.734	211.35
499.942	127.84
500.149	116.8
500.357	148.96
500.564	140.82
500.771	184.22
500.979	122.03
501.186	140.63
501.394	197.59
501.601	163.49
501.808	220.26
502.016	195.65
502.223	185.77
502.43	164.65
502.638	176.08
502.845	142.18
503.052	236.15
503.26	154.77
503.467	234.4
503.674	191.97
503.881	200.5
504.089	275.48
504.296	219.87
504.503	166.4
504.71	202.05
504.917	148.38
505.125	194.3
505.332	182.48
505.539	192.75
505.746	230.72
505.953	192.75
506.16	198.75
506.367	220.65
506.574	218.51
506.781	260.95
506.988	174.92
507.195	225.3
507.402	208.25
507.609	225.68
507.816	186.35
508.023	199.91
508.23	180.54
508.437	155.74
508.644	211.15
508.851	268.11
509.058	224.71
509.265	220.65
509.472	224.52
509.679	301.83
509.885	174.53
510.092	186.93
510.299	194.49
510.506	221.42
510.713	195.07
510.92	228.2
511.126	226.46
511.333	237.31
511.54	208.05
511.746	259.01
511.953	245.64
512.16	260.36
512.367	198.95
512.573	181.12
512.78	220.26
512.987	217.74
513.193	246.8
513.4	175.89
513.606	203.01
513.813	224.52
514.02	241.57
514.226	284
514.433	253
514.639	205.34
514.846	235.18
515.052	208.44
515.259	201.46
515.465	192.94
515.672	207.28
515.878	306.48
516.085	227.04
516.291	249.13
516.497	215.22
516.704	212.7
516.91	168.92
517.117	209.41
517.323	156.32
517.529	218.32
517.736	208.25
517.942	229.95
518.148	167.75
518.354	217.93
518.561	261.33
518.767	220.84
518.973	247.77
519.179	240.02
519.386	196.81
519.592	211.54
519.798	190.23
520.004	256.88
520.21	205.34
520.417	268.5
520.623	269.66
520.829	254.94
521.035	264.05
521.241	262.69
521.447	246.8
521.653	355.3
521.859	211.73
522.065	247
522.271	337.86
522.477	258.43
522.683	302.41
522.889	263.08
523.095	270.44
523.301	270.83
523.507	262.69
523.713	256.49
523.919	213.86
524.125	277.61
524.331	265.21
524.537	320.04
524.742	289.81
524.948	300.28
525.154	302.99
525.36	385.91
525.566	286.13
525.772	326.63
525.977	238.66
526.183	294.66
526.389	307.83
526.595	259.01
526.8	300.66
527.006	248.93
527.212	278.96
527.417	236.34
527.623	232.85
527.829	328.37
528.034	294.46
528.24	280.13
528.446	265.01
528.651	318.29
528.857	287.68
529.062	325.85
529.268	264.82
529.473	268.7
529.679	265.79
529.884	346.39
530.09	285.36
530.295	359.56
530.501	316.16
530.706	287.1
530.912	241.57
531.117	286.13
531.323	291.56
531.528	302.99
531.733	331.86
531.939	269.28
532.144	315.19
532.35	270.25
532.555	337.86
532.76	344.45
532.966	367.51
533.171	327.59
533.376	285.36
533.581	285.94
533.787	306.48
533.992	311.13
534.197	377
534.402	298.92
534.607	315
534.813	408.39
535.018	278.58
535.223	300.08
535.428	322.56
535.633	360.92
535.838	313.64
536.043	338.44
536.249	378.94
536.454	330.31
536.659	315.97
536.864	299.89
537.069	301.83
537.274	348.91
537.479	324.3
537.684	339.99
537.889	292.33
538.094	383.01
538.299	318.29
538.504	330.69
538.708	346.78
538.913	374.48
539.118	348.71
539.323	360.73
539.528	299.31
539.733	365.18
539.938	337.28
540.142	381.07
540.347	317.33
540.552	335.54
540.757	346.97
540.962	355.69
541.166	334.76
541.371	283.61
541.576	324.88
541.781	223.94
541.985	332.44
542.19	321.39
542.395	375.84
542.599	389.59
542.804	357.63
543.008	398.7
543.213	308.99
543.418	301.05
543.622	362.47
543.827	295.63
544.031	387.85
544.236	400.83
544.44	344.26
544.645	413.04
544.849	314.81
545.054	363.24
545.258	421.95
545.463	406.45
545.667	337.48
545.872	352.78
546.076	352.01
546.281	351.04
546.485	304.93
546.689	383.59
546.894	428.92
547.098	334.18
547.302	327.59
547.507	346.39
547.711	364.21
547.915	412.26
548.119	305.51
548.324	348.91
548.528	401.8
548.732	355.3
548.936	388.43
549.141	381.65
549.345	332.44
549.549	352.59
549.753	342.51
549.957	410.91
550.161	409.74
550.366	350.46
550.57	318.68
550.774	377
550.978	356.27
551.182	372.54
551.386	335.54
551.59	338.06
551.794	342.32
551.998	366.54
552.202	332.24
552.406	313.26
552.61	372.16
552.814	356.27
553.018	405.67
553.222	344.64
553.426	356.46
553.63	404.51
553.833	358.01
554.037	311.71
554.241	398.31
554.445	339.61
554.649	320.23
554.853	353.56
555.056	383.2
555.26	385.72
555.464	374.29
555.668	362.28
555.871	390.17
556.075	397.54
556.279	330.11
556.483	330.11
556.686	377.77
556.89	345.61
557.094	388.04
557.297	300.66
557.501	419.04
557.704	320.04
557.908	393.47
558.112	351.04
558.315	426.41
558.519	359.37
558.722	351.43
558.926	341.54
559.129	325.08
559.333	284.19
559.536	319.07
559.74	321.59
559.943	347.36
560.147	325.85
560.35	369.06
560.553	325.08
560.757	268.11
560.96	394.05
561.164	291.36
561.367	426.21
561.57	330.69
561.774	354.14
561.977	333.41
562.18	331.86
562.384	429.89
562.587	331.08
562.79	303.18
562.993	355.69
563.197	374.29
563.4	418.85
563.603	409.74
563.806	430.28
564.009	332.83
564.212	353.75
564.416	313.45
564.619	357.82
564.822	338.06
565.025	394.63
565.228	354.14
565.431	358.59
565.634	268.89
565.837	321.59
566.04	313.64
566.243	318.49
566.446	264.43
566.649	365.76
566.852	321.78
567.055	332.44
567.258	351.81
567.461	400.06
567.664	406.64
567.867	289.23
568.07	334.57
568.273	331.86
568.475	388.62
568.678	346.19
568.881	325.66
569.084	355.49
569.287	284.97
569.489	293.88
569.692	339.99
569.895	365.76
570.098	293.88
570.3	311.51
570.503	245.64
570.706	303.38
570.909	267.92
571.111	274.12
571.314	310.16
571.516	307.83
571.719	326.63
571.922	286.71
572.124	289.23
572.327	279.54
572.529	244.48
572.732	228.98
572.935	296.98
573.137	342.51
573.34	304.93
573.542	345.03
573.745	306.09
573.947	313.45
574.15	285.55
574.352	283.81
574.554	346.78
574.757	277.99
574.959	300.66
575.162	270.25
575.364	283.42
575.566	384.56
575.769	263.66
575.971	315.78
576.173	212.9
576.376	300.47
576.578	308.8
576.78	375.26
576.982	230.53
577.185	288.07
577.387	266.18
577.589	235.18
577.791	312.29
577.993	318.49
578.196	251.06
578.398	321.59
578.6	339.22
578.802	255.13
579.004	243.7
579.206	250.48
579.408	286.91
579.61	270.63
579.812	322.75
580.014	274.12
580.216	251.45
580.418	279.93
580.62	237.89
580.822	220.45
581.024	260.75
581.226	310.74
581.428	267.92
581.63	320.23
581.832	227.23
582.034	321.59
582.236	289.23
582.438	311.9
582.64	302.99
582.841	330.5
583.043	351.23
583.245	304.73
583.447	279.74
583.649	265.01
583.85	268.5
584.052	308.61
584.254	255.91
584.456	335.93
584.657	252.81
584.859	276.45
585.061	277.61
585.262	280.13
585.464	263.66
585.666	293.69
585.867	264.82
586.069	325.27
586.27	286.13
586.472	299.69
586.674	263.46
586.875	284.58
587.077	247.96
587.278	282.26
587.48	271.41
587.681	352.39
587.883	261.53
588.084	212.12
588.285	268.31
588.487	274.12
588.688	297.37
588.89	244.48
589.091	264.24
589.292	289.04
589.494	258.62
589.695	260.56
589.896	199.14
590.098	221.42
590.299	262.88
590.5	219.68
590.702	217.55
590.903	244.09
591.104	277.61
591.305	258.04
591.507	298.14
591.708	293.11
591.909	247.96
592.11	333.41
592.311	310.93
592.512	265.79
592.714	222.39
592.915	226.85
593.116	245.25
593.317	230.72
593.518	221.81
593.719	210.57
593.92	238.86
594.121	311.71
594.322	257.26
594.523	253
594.724	221.61
594.925	273.54
595.126	271.21
595.327	286.13
595.528	280.32
595.729	266.37
595.929	244.67
596.13	245.64
596.331	237.5
596.532	259.2
596.733	295.24
596.934	296.4
597.135	290.01
597.335	279.35
597.536	223.16
597.737	288.07
597.938	224.33
598.138	276.83
598.339	253.78
598.54	271.6
598.74	260.56
598.941	267.53
599.142	328.37
599.342	292.91
599.543	228.2
599.744	265.98
599.944	253.2
600.145	226.46
600.345	273.93
600.546	337.28
600.746	287.68
600.947	314.42
601.147	292.14
601.348	277.03
601.548	255.52
601.749	248.35
601.949	225.49
602.15	223.16
602.35	277.03
602.551	333.79
602.751	215.22
602.951	266.18
603.152	176.28
603.352	259.01
603.552	266.76
603.753	259.4
603.953	286.13
604.153	265.01
604.354	250.87
604.554	243.51
604.754	259.4
604.954	211.93
605.155	261.14
605.355	245.83
605.555	261.33
605.755	300.47
605.955	255.71
606.155	304.93
606.356	250.29
606.556	271.41
606.756	286.33
606.956	205.15
607.156	313.26
607.356	242.15
607.556	283.03
607.756	263.08
607.956	291.94
608.156	295.82
608.356	257.26
608.556	291.56
608.756	251.06
608.956	263.08
609.156	264.43
609.356	197.4
609.556	238.86
609.755	273.15
609.955	231.88
610.155	260.17
610.355	252.03
610.555	238.86
610.755	246.22
610.954	201.27
611.154	232.85
611.354	284.58
611.554	212.7
611.753	227.43
611.953	201.08
612.153	260.95
612.352	284.19
612.552	201.46
612.752	170.47
612.951	248.74
613.151	254.75
613.351	220.06
613.55	239.05
613.75	274.12
613.949	250.48
614.149	280.32
614.348	256.88
614.548	231.3
614.747	183.83
614.947	226.26
615.146	189.45
615.346	232.46
615.545	240.02
615.745	250.29
615.944	269.47
616.144	251.45
616.343	284.97
616.542	253.2
616.742	254.36
616.941	247.19
617.14	184.22
617.34	251.65
617.539	218.32
617.738	201.08
617.938	289.43
618.137	251.06
618.336	210.57
618.535	252.81
618.734	222.97
618.934	258.62
619.133	222.78
619.332	269.28
619.531	214.25
619.73	230.33
619.929	267.53
620.128	278.96
620.328	294.27
620.527	247.38
620.726	200.11
620.925	230.14
621.124	212.51
621.323	229.17
621.522	188.29
621.721	181.32
621.92	178.41
622.119	263.66
622.318	203.6
622.517	222.58
622.715	238.08
622.914	157.48
623.113	226.85
623.312	175.5
623.511	259.78
623.71	211.73
623.909	214.83
624.107	278.77
624.306	176.47
624.505	178.99
624.704	191
624.902	193.33
625.101	267.92
625.3	226.46
625.499	227.43
625.697	200.3
625.896	190.23
626.095	243.12
626.293	181.7
626.492	183.06
626.69	231.5
626.889	196.43
627.088	238.66
627.286	191
627.485	220.06
627.683	209.41
627.882	237.5
628.08	158.84
628.279	223.75
628.477	263.85
628.676	201.08
628.874	226.46
629.073	188.48
