Data from pine_FLMT105791__0__17-19-34-080.txt Node

Date: Mon Mar 20 17:19:34 GMT 2023
User: antho
Spectrometer: FLMT10579
Trigger mode: 0
Integration Time (sec): 1.000000E-1
Scans to average: 10
Electric dark correction enabled: true
Nonlinearity correction enabled: false
Boxcar width: 0
XAxis mode: Wavelengths
Number of Pixels in Spectrum: 3648
>>>>>Begin Spectral Data<<<<<
345.248	-162.02
345.464	-162.02
345.681	-162.02
345.898	-189.34
346.114	-167.06
346.331	-38.99
346.548	12.74
346.764	-5.09
346.981	-10.32
347.197	-9.15
347.414	9.64
347.631	-23.69
347.847	70.48
348.064	19.71
348.28	26.3
348.497	-49.26
348.713	-2.37
348.93	27.46
349.146	4.02
349.363	5.96
349.579	42.19
349.796	12.35
350.012	-9.35
350.229	52.65
350.445	-21.17
350.661	-11.48
350.878	2.47
351.094	17.78
351.311	8.48
351.527	19.13
351.743	-15.35
351.96	44.13
352.176	24.94
352.392	41.03
352.609	32.89
352.825	15.65
353.041	2.08
353.257	7.12
353.474	8.67
353.69	15.65
353.906	25.53
354.122	-16.32
354.339	68.73
354.555	-5.86
354.771	-13.22
354.987	65.24
355.203	33.66
355.42	-16.71
355.636	-3.15
355.852	3.83
356.068	20.49
356.284	-26.2
356.5	58.08
356.716	13.32
356.932	-22.33
357.148	62.73
357.364	28.43
357.58	52.84
357.796	65.44
358.012	52.65
358.228	14.87
358.444	-54.49
358.66	60.79
358.876	19.33
359.092	2.86
359.308	41.61
359.524	42.38
359.74	6.35
359.956	-7.6
360.172	21.46
360.388	52.65
360.604	12.16
360.819	88.88
361.035	17.78
361.251	48.19
361.467	-15.55
361.683	40.06
361.898	65.63
362.114	31.53
362.33	2.08
362.546	32.69
362.762	31.73
362.977	8.67
363.193	-29.5
363.409	31.53
363.624	8.48
363.84	-27.75
364.056	-6.64
364.271	32.5
364.487	14.1
364.703	-10.7
364.918	-46.74
365.134	-7.02
365.35	18.75
365.565	88.49
365.781	-0.63
365.996	10.22
366.212	59.63
366.427	41.8
366.643	11
366.858	0.73
367.074	0.92
367.289	66.02
367.505	84.81
367.72	-27.37
367.936	-8.19
368.151	61.56
368.367	34.44
368.582	9.25
368.798	29.4
369.013	84.23
369.228	19.13
369.444	12.74
369.659	51.1
369.874	31.73
370.09	74.16
370.305	-34.73
370.52	-1.6
370.736	57.11
370.951	34.83
371.166	76.29
371.381	97.02
371.597	52.46
371.812	-12.84
372.027	-9.93
372.242	21.07
372.458	79.58
372.673	2.66
372.888	-4.5
373.103	28.63
373.318	106.71
373.533	40.83
373.749	43.35
373.964	-1.99
374.179	41.99
374.394	-32.6
374.609	82.88
374.824	10.03
375.039	82.88
375.254	-12.64
375.469	73.38
375.684	15.06
375.899	64.08
376.114	31.53
376.329	32.5
376.544	38.89
376.759	35.79
376.974	7.9
377.189	22.04
377.404	19.33
377.619	78.81
377.834	-33.76
378.049	-27.17
378.264	-18.84
378.478	33.86
378.693	6.93
378.908	28.82
379.123	-10.7
379.338	90.04
379.553	43.74
379.767	26.11
379.982	49.94
380.197	41.03
380.412	-9.54
380.626	36.96
380.841	68.34
381.056	47.42
381.271	65.63
381.485	-41.32
381.7	-39.96
381.915	55.36
382.129	-1.21
382.344	32.31
382.559	-3.34
382.773	61.76
382.988	-15.74
383.202	29.01
383.417	9.06
383.632	124.92
383.846	2.47
384.061	23.2
384.275	-1.6
384.49	-2.57
384.704	32.89
384.919	46.26
385.133	9.06
385.348	70.86
385.562	-2.37
385.777	80.36
385.991	19.52
386.206	11.38
386.42	11.19
386.634	44.51
386.849	57.69
387.063	48
387.277	-11.67
387.492	6.15
387.706	7.12
387.92	-10.12
388.135	57.11
388.349	38.51
388.563	15.06
388.778	46.06
388.992	51.49
389.206	55.56
389.42	106.71
389.635	29.01
389.849	66.41
390.063	67.57
390.277	30.95
390.491	74.54
390.706	28.24
390.92	43.74
391.134	23.59
391.348	50.71
391.562	-19.42
391.776	25.33
391.99	-13.03
392.205	62.53
392.419	-1.21
392.633	42.77
392.847	60.79
393.061	22.23
393.275	91.59
393.489	17.39
393.703	27.08
393.917	106.13
394.131	18.94
394.345	42.77
394.559	67.57
394.773	22.23
394.986	65.24
395.2	37.73
395.414	60.01
395.628	4.41
395.842	34.05
396.056	4.41
396.27	-4.5
396.484	17.39
396.697	67.38
396.911	72.41
397.125	41.03
397.339	54.01
397.553	74.74
397.766	105.35
397.98	90.43
398.194	75.71
398.408	34.83
398.621	45.68
398.835	98.57
399.049	30.95
399.262	60.4
399.476	51.49
399.69	59.82
399.903	91.59
400.117	30.56
400.331	62.53
400.544	54.2
400.758	128.6
400.971	30.76
401.185	69.12
401.398	7.31
401.612	89.85
401.826	67.96
402.039	49.94
402.253	34.63
402.466	44.71
402.68	26.49
402.893	63.5
403.106	59.04
403.32	38.31
403.533	57.11
403.747	46.26
403.96	67.57
404.174	69.7
404.387	-8.57
404.6	67.76
404.814	86.17
405.027	52.46
405.24	44.13
405.454	16.03
405.667	92.37
405.88	2.28
406.094	36.96
406.307	82.88
406.52	73.77
406.733	5.96
406.947	13.9
407.16	109.03
407.373	99.15
407.586	50.71
407.799	14.48
408.012	73.58
408.226	44.9
408.439	86.56
408.652	3.44
408.865	68.15
409.078	111.94
409.291	78.23
409.504	6.93
409.717	54.2
409.93	58.66
410.143	46.64
410.357	-4.5
410.57	16.03
410.783	18.75
410.996	53.43
411.209	31.34
411.421	71.44
411.634	31.14
411.847	33.86
412.06	83.65
412.273	51.68
412.486	34.63
412.699	146.23
412.912	70.67
413.125	85.39
413.338	64.08
413.55	76.09
413.763	73.96
413.976	89.66
414.189	30.37
414.402	34.63
414.615	89.46
414.827	39.09
415.04	56.91
415.253	60.98
415.466	83.84
415.678	110
415.891	65.83
416.104	54.01
416.316	53.81
416.529	41.8
416.742	75.9
416.954	78.81
417.167	55.94
417.38	48.39
417.592	76.48
417.805	26.88
418.017	2.08
418.23	77.64
418.442	44.13
418.655	39.67
418.868	75.32
419.08	81.33
419.293	105.74
419.505	73.58
419.718	54.98
419.93	94.89
420.142	49.55
420.355	102.44
420.567	110.39
420.78	99.73
420.992	52.46
421.205	111.36
421.417	43.35
421.629	72.03
421.842	18.94
422.054	26.88
422.266	93.53
422.479	98.57
422.691	29.4
422.903	81.91
423.115	55.36
423.328	60.59
423.54	84.62
423.752	57.88
423.964	41.03
424.177	77.84
424.389	57.88
424.601	147.39
424.813	81.91
425.025	95.66
425.238	76.09
425.45	62.34
425.662	71.83
425.874	370.78
426.086	80.94
426.298	95.66
426.51	97.99
426.722	75.9
426.934	49.16
427.146	107.29
427.358	31.73
427.57	109.81
427.782	68.15
427.994	56.14
428.206	57.88
428.418	15.06
428.63	108.06
428.842	103.41
429.054	75.32
429.266	117.75
429.478	41.8
429.69	94.89
429.902	52.84
430.114	91.4
430.325	98.76
430.537	74.35
430.749	101.67
430.961	42.96
431.173	81.13
431.384	99.73
431.596	-1.4
431.808	71.44
432.02	78.42
432.231	87.91
432.443	123.37
432.655	56.72
432.867	64.08
433.078	82.29
433.29	137.32
433.502	125.5
433.713	131.31
433.925	105.93
434.136	133.06
434.348	81.71
434.56	47.23
434.771	170.26
434.983	55.17
435.194	52.26
435.406	89.85
435.617	111.74
435.829	151.07
436.04	130.34
436.252	128.21
436.463	148.56
436.675	140.42
436.886	110.39
437.098	139.26
437.309	173.36
437.521	88.69
437.732	115.62
437.943	121.43
438.155	97.21
438.366	54.59
438.578	160.57
438.789	128.6
439	155.53
439.211	100.31
439.423	127.63
439.634	128.6
439.845	140.42
440.057	127.82
440.268	134.99
440.479	86.17
440.69	98.76
440.902	102.64
441.113	106.13
441.324	94.31
441.535	126.08
441.746	159.79
441.957	95.47
442.168	74.93
442.38	151.66
442.591	142.36
442.802	66.79
443.013	97.21
443.224	126.47
443.435	111.74
443.646	96.83
443.857	142.94
444.068	101.09
444.279	84.04
444.49	189.82
444.701	103.03
444.912	239.42
445.123	168.32
445.334	180.33
445.545	136.35
445.756	134.8
445.967	97.21
446.178	171.22
446.388	186.72
446.599	182.27
446.81	156.31
447.021	144.29
447.232	177.62
447.443	195.44
447.653	148.75
447.864	185.37
448.075	142.36
448.286	160.57
448.496	144.1
448.707	186.72
448.918	130.73
449.129	238.84
449.339	139.26
449.55	183.43
449.761	163.09
449.971	180.91
450.182	165.61
450.393	186.34
450.603	152.62
450.814	212.1
451.024	172.58
451.235	192.92
451.446	221.6
451.656	216.17
451.867	165.99
452.077	172.19
452.288	223.54
452.498	226.05
452.709	184.21
452.919	211.14
453.13	169.67
453.34	217.34
453.55	145.46
453.761	201.84
453.971	219.27
454.182	193.89
454.392	205.71
454.602	262.29
454.813	197.38
455.023	222.57
455.233	162.12
455.444	182.66
455.654	118.14
455.864	189.63
456.075	175.87
456.285	169.29
456.495	185.17
456.705	192.92
456.916	221.79
457.126	273.33
457.336	195.83
457.546	155.53
457.756	163.86
457.967	230.51
458.177	172.39
458.387	188.47
458.597	172.97
458.807	200.87
459.017	203.58
459.227	194.28
459.437	170.26
459.647	234.77
459.857	231.29
460.068	196.99
460.278	230.9
460.488	227.22
460.698	269.65
460.908	176.07
461.117	140.61
461.327	176.84
461.537	192.54
461.747	200.67
461.957	195.25
462.167	311.3
462.377	250.66
462.587	207.26
462.797	233.61
463.007	228.96
463.216	232.06
463.426	247.17
463.636	232.64
463.846	165.61
464.056	213.27
464.265	266.94
464.475	196.02
464.685	203.58
464.895	252.4
465.104	213.07
465.314	247.17
465.524	195.25
465.733	209.97
465.943	307.23
466.153	288.63
466.362	258.99
466.572	280.89
466.782	205.71
466.991	253.95
467.201	285.73
467.41	205.32
467.62	216.75
467.829	227.6
468.039	246.2
468.249	229.35
468.458	238.65
468.668	258.02
468.877	259.19
469.086	280.89
469.296	277.2
469.505	206.49
469.715	315.18
469.924	288.25
470.134	302.58
470.343	302
470.552	242.33
470.762	258.6
470.971	220.44
471.18	269.45
471.39	253.57
471.599	235.74
471.808	291.73
472.018	210.55
472.227	286.89
472.436	308.98
472.645	238.26
472.855	222.76
473.064	298.32
473.273	254.92
473.482	286.5
473.691	314.4
473.901	314.98
474.11	276.04
474.319	369.62
474.528	267.71
474.737	307.82
474.946	308.98
475.155	292.51
475.364	339.4
475.573	291.73
475.783	310.92
475.992	308.59
476.201	338.62
476.41	281.66
476.619	290.77
476.828	300.84
477.037	268.49
477.245	296.77
477.454	351.41
477.663	294.45
477.872	278.75
478.081	378.15
478.29	281.66
478.499	405.08
478.708	311.69
478.917	376.98
479.125	319.44
479.334	328.74
479.543	317.31
479.752	334.17
479.961	340.56
480.169	381.25
480.378	307.23
480.587	443.63
480.796	350.05
481.004	335.52
481.213	357.03
481.422	353.35
481.63	343.85
481.839	360.71
482.048	422.32
482.256	360.52
482.465	368.46
482.674	389.19
482.882	390.74
483.091	445.38
483.299	339.78
483.508	390.74
483.716	360.52
483.925	376.4
484.134	353.93
484.342	331.45
484.551	411.47
484.759	417.48
484.967	423.48
485.176	415.54
485.384	380.86
485.593	432.98
485.801	387.45
486.01	370.4
486.218	381.25
486.426	331.65
486.635	366.72
486.843	343.47
487.051	374.85
487.26	396.36
487.468	427.16
487.676	398.68
487.885	351.8
488.093	403.14
488.301	384.93
488.509	438.6
488.717	439.95
488.926	406.24
489.134	407.21
489.342	432.2
489.55	390.16
489.758	418.06
489.967	396.36
490.175	509.51
490.383	403.33
490.591	462.81
490.799	390.93
491.007	480.25
491.215	454.1
491.423	432.01
491.631	433.95
491.839	435.11
492.047	465.91
492.255	398.68
492.463	379.89
492.671	426.78
492.879	471.92
493.087	430.65
493.295	469.79
493.503	474.05
493.711	480.64
493.919	497.3
494.127	486.26
494.334	501.18
494.542	421.93
494.75	478.31
494.958	458.55
495.166	519.58
495.374	479.09
495.581	465.72
495.789	490.52
495.997	525.59
496.205	460.68
496.412	494.98
496.62	460.29
496.828	515.13
497.035	469.59
497.243	512.8
497.451	489.16
497.658	500.01
497.866	484.13
498.074	556.01
498.281	487.23
498.489	564.72
498.696	497.88
498.904	503.5
499.112	469.59
499.319	574.61
499.527	485.68
499.734	512.8
499.942	488.78
500.149	477.73
500.357	508.93
500.564	477.93
500.771	528.69
500.979	495.56
501.186	473.08
501.394	537.41
501.601	518.03
501.808	568.02
502.016	507.76
502.223	498.66
502.43	530.63
502.638	523.84
502.845	486.84
503.052	565.89
503.26	511.64
503.467	610.45
503.674	522.29
503.881	562.4
504.089	613.55
504.296	533.53
504.503	502.14
504.71	522.29
504.917	497.3
505.125	520.94
505.332	550.97
505.539	551.74
505.746	612.58
505.953	557.17
506.16	545.74
506.367	614.71
506.574	624.21
506.781	593.4
506.988	539.73
507.195	592.43
507.402	565.31
507.609	591.07
507.816	555.62
508.023	544.58
508.23	534.31
508.437	527.14
508.644	580.61
508.851	596.5
509.058	607.54
509.265	598.63
509.472	627.69
509.679	668.38
509.885	593.4
510.092	573.06
510.299	578.09
510.506	590.3
510.713	633.51
510.92	614.52
511.126	600.76
511.333	646.1
511.54	633.12
511.746	667.02
511.953	645.9
512.16	689.69
512.367	610.45
512.573	603.67
512.78	620.72
512.987	624.98
513.193	624.79
513.4	563.76
513.606	607.54
513.813	638.54
514.02	626.14
514.226	693.76
514.433	700.15
514.639	611.61
514.846	629.82
515.052	619.75
515.259	617.81
515.465	639.9
515.672	651.91
515.878	720.69
516.085	672.06
516.291	674
516.497	633.89
516.704	604.25
516.91	580.61
517.117	557.75
517.323	563.56
517.529	585.84
517.736	595.14
517.942	605.41
518.148	612.39
518.354	646.29
518.561	631.37
518.767	651.72
518.973	673.22
519.179	670.7
519.386	629.44
519.592	630.79
519.798	660.82
520.004	719.34
520.21	634.09
520.417	686.59
520.623	759.63
520.829	729.41
521.035	721.66
521.241	723.98
521.447	721.66
521.653	865.23
521.859	694.92
522.065	742
522.271	824.54
522.477	770.48
522.683	819.11
522.889	762.73
523.095	766.61
523.301	773.39
523.507	738.52
523.713	765.64
523.919	758.67
524.125	813.3
524.331	749.75
524.537	834.42
524.742	813.69
524.948	830.35
525.154	792.18
525.36	907.66
525.566	793.15
525.772	863.48
525.977	779.4
526.183	830.74
526.389	839.85
526.595	797.8
526.8	791.8
527.006	764.28
527.212	770.1
527.417	723.4
527.623	706.55
527.829	809.62
528.034	824.54
528.24	822.99
528.446	762.35
528.651	871.62
528.857	844.5
529.062	919.09
529.268	839.07
529.473	864.65
529.679	846.05
529.884	910.95
530.09	897.97
530.295	927.81
530.501	926.64
530.706	858.45
530.912	845.27
531.117	877.24
531.323	908.24
531.528	902.23
531.733	905.53
531.939	881.89
532.144	926.64
532.35	882.86
532.555	946.79
532.76	939.24
532.966	900.68
533.171	918.31
533.376	879.95
533.581	891.19
533.787	909.59
533.992	889.06
534.197	922.96
534.402	898.55
534.607	894.1
534.813	998.72
535.018	935.36
535.223	918.12
535.428	953.38
535.633	988.45
535.838	968.3
536.043	959.97
536.249	1052.97
536.454	949.89
536.659	973.53
536.864	940.4
537.069	954.35
537.274	936.53
537.479	944.08
537.684	952.03
537.889	954.54
538.094	1049.67
538.299	957.84
538.504	962.49
538.708	1006.08
538.913	1012.09
539.118	980.12
539.323	1003.95
539.528	949.51
539.733	944.86
539.938	963.07
540.142	1006.08
540.347	943.89
540.552	929.36
540.757	981.48
540.962	965.2
541.166	895.26
541.371	901.65
541.576	975.66
541.781	868.71
541.985	946.99
542.19	996.78
542.395	1006.66
542.599	1026.42
542.804	1010.73
543.008	1005.5
543.213	963.26
543.418	962.29
543.622	1000.46
543.827	957.06
544.031	1037.66
544.236	1026.23
544.44	991.16
544.645	1064.98
544.849	971.4
545.054	1015.77
545.258	1055.87
545.463	1082.03
545.667	996.39
545.872	1023.13
546.076	1013.06
546.281	1022.94
546.485	992.52
546.689	1023.71
546.894	1062.27
547.098	999.88
547.302	978.96
547.507	975.86
547.711	1003.37
547.915	1079.7
548.119	992.52
548.324	1014.22
548.528	1071.76
548.732	1022.94
548.936	1054.52
549.141	1062.85
549.345	1020.22
549.549	1006.66
549.753	1030.3
549.957	1118.26
550.161	1100.24
550.366	1034.17
550.57	1023.13
550.774	1051.22
550.978	1035.92
551.182	1052.77
551.386	1029.91
551.59	1030.11
551.794	1014.02
551.998	1051.42
552.202	1011.51
552.406	1033.98
552.61	1056.84
552.814	1045.61
553.018	1079.9
553.222	1029.91
553.426	1056.46
553.63	1113.8
553.833	1035.14
554.037	984.57
554.241	1095.59
554.445	1056.07
554.649	1043.86
554.853	1009.57
555.056	1036.11
555.26	1063.62
555.464	1058.2
555.668	1088.81
555.871	1071.95
556.075	1078.15
556.279	1013.44
556.483	1007.05
556.686	1025.07
556.89	1026.42
557.094	1053.36
557.297	962.68
557.501	1074.47
557.704	997.75
557.908	1087.07
558.112	993.87
558.315	1071.37
558.519	1023.32
558.722	1033.59
558.926	1025.07
559.129	965.78
559.333	966.56
559.536	941.95
559.74	980.51
559.943	952.8
560.147	954.16
560.35	973.73
560.553	956.29
560.757	952.41
560.96	1049.29
561.164	988.64
561.367	1064.01
561.57	985.74
561.774	1022.36
561.977	978.57
562.18	969.85
562.384	1092.88
562.587	979.34
562.79	976.63
562.993	997.36
563.197	1008.99
563.4	1057.04
563.603	1058.59
563.806	1103.34
564.009	990
564.212	1003.37
564.416	945.83
564.619	1011.31
564.822	968.3
565.025	1013.06
565.228	931.1
565.431	987.09
565.634	891.58
565.837	952.22
566.04	962.68
566.243	956.87
566.446	888.09
566.649	966.56
566.852	873.17
567.055	953.38
567.258	930.33
567.461	1023.32
567.664	990
567.867	898.55
568.07	960.36
568.273	954.35
568.475	992.91
568.678	926.06
568.881	950.48
569.084	932.07
569.287	870.65
569.489	875.69
569.692	955.71
569.895	937.69
570.098	883.05
570.3	867.55
570.503	825.9
570.706	851.28
570.909	861.74
571.111	836.75
571.314	836.75
571.516	868.33
571.719	878.4
571.922	881.89
572.124	874.53
572.327	880.15
572.529	835
572.732	805.75
572.935	905.91
573.137	909.4
573.34	863.1
573.542	893.71
573.745	895.64
573.947	869.68
574.15	872.01
574.352	811.17
574.554	924.71
574.757	832.68
574.959	821.83
575.162	830.55
575.364	859.61
575.566	935.17
575.769	819.5
575.971	811.56
576.173	748.98
576.376	846.24
576.578	832.48
576.78	888.48
576.982	780.17
577.185	802.45
577.387	785.4
577.589	773.2
577.791	831.32
577.993	832.68
578.196	797.42
578.398	856.12
578.6	859.61
578.802	756.92
579.004	761.18
579.206	798.19
579.408	850.89
579.61	806.52
579.812	845.85
580.014	815.24
580.216	754.79
580.418	803.42
580.62	770.29
580.822	740.26
581.024	788.7
581.226	853.8
581.428	825.7
581.63	877.24
581.832	819.7
582.034	858.45
582.236	817.56
582.438	832.87
582.64	845.46
582.841	850.7
583.043	897.39
583.245	832.29
583.447	829.38
583.649	798.19
583.85	829.58
584.052	846.05
584.254	793.73
584.456	854.57
584.657	779.2
584.859	828.03
585.061	806.91
585.262	798.58
585.464	761.57
585.666	819.11
585.867	775.33
586.069	867.94
586.27	795.28
586.472	792.38
586.674	797.61
586.875	776.3
587.077	779.59
587.278	788.12
587.48	741.62
587.681	890.22
587.883	801.48
588.084	727.08
588.285	767.77
588.487	786.37
588.688	777.27
588.89	727.67
589.091	715.65
589.292	739.68
589.494	716.24
589.695	698.41
589.896	637.38
590.098	638.93
590.299	678.65
590.5	657.53
590.702	691.63
590.903	751.88
591.104	790.83
591.305	739.1
591.507	791.02
591.708	759.05
591.909	698.6
592.11	791.22
592.311	755.95
592.512	722.63
592.714	682.52
592.915	679.04
593.116	697.44
593.317	707.52
593.518	711
593.719	710.04
593.92	753.24
594.121	782.69
594.322	725.53
594.523	748.59
594.724	678.26
594.925	709.65
595.126	723.21
595.327	731.73
595.528	711.59
595.729	761.38
595.929	726.31
596.13	733.67
596.331	724.95
596.532	737.35
596.733	786.76
596.934	775.52
597.135	783.85
597.335	773
597.536	698.8
597.737	751.3
597.938	690.85
598.138	738.13
598.339	729.02
598.54	747.23
598.74	703.84
598.941	743.36
599.142	809.81
599.342	725.15
599.543	711.39
599.744	732.12
599.944	713.91
600.145	682.72
600.345	746.07
600.546	804.2
600.746	757.7
600.947	804.78
601.147	764.67
601.348	765.25
601.548	677.87
601.749	745.88
601.949	702.29
602.15	680.97
602.35	715.07
602.551	777.27
602.751	681.55
602.951	743.94
603.152	637.38
603.352	739.1
603.552	760.22
603.753	761.57
603.953	779.98
604.153	743.94
604.354	742.2
604.554	720.5
604.754	734.45
604.954	682.52
605.155	710.62
605.355	720.69
605.555	758.47
605.755	758.67
605.955	744.33
606.155	729.6
606.356	733.87
606.556	758.86
606.756	750.53
606.956	717.59
607.156	789.28
607.356	664.12
607.556	734.83
607.756	708.29
607.956	771.26
608.156	736.19
608.356	717.59
608.556	719.72
608.756	734.83
608.956	671.09
609.156	695.5
609.356	681.75
609.556	678.45
609.755	697.83
609.955	664.7
610.155	696.86
610.355	713.52
610.555	688.92
610.755	696.09
610.954	646.29
611.154	715.85
611.354	730.96
611.554	719.53
611.753	699.96
611.953	652.88
612.153	717.79
612.352	700.93
612.552	649.78
612.752	613.55
612.951	691.44
613.151	695.12
613.351	648.81
613.55	695.12
613.75	709.26
613.949	679.04
614.149	686.79
614.348	695.7
614.548	652.49
614.747	602.51
614.947	687.75
615.146	620.14
615.346	702.87
615.545	678.07
615.745	691.44
615.944	694.54
616.144	692.21
616.343	702.48
616.542	614.13
616.742	676.13
616.941	644.94
617.14	595.72
617.34	664.89
617.539	661.21
617.738	625.95
617.938	732.7
618.137	674.58
618.336	624.01
618.535	693.57
618.734	667.02
618.934	675.35
619.133	638.93
619.332	669.54
619.531	632.73
619.73	649.2
619.929	674
620.128	677.87
620.328	703.25
620.527	642.03
620.726	631.18
620.925	690.47
621.124	607.16
621.323	670.32
621.522	628.86
621.721	612.77
621.92	622.85
622.119	656.95
622.318	611.22
622.517	627.69
622.715	644.55
622.914	552.71
623.113	626.92
623.312	589.33
623.511	648.81
623.71	628.86
623.909	620.91
624.107	699.38
624.306	581.97
624.505	606.77
624.704	598.63
624.902	621.88
625.101	649.78
625.3	624.79
625.499	602.31
625.697	584.49
