Data from pine_FLMT105791__74__17-21-14-077.txt Node

Date: Mon Mar 20 17:21:14 GMT 2023
User: antho
Spectrometer: FLMT10579
Trigger mode: 0
Integration Time (sec): 1.000000E-1
Scans to average: 10
Electric dark correction enabled: true
Nonlinearity correction enabled: false
Boxcar width: 0
XAxis mode: Wavelengths
Number of Pixels in Spectrum: 3648
>>>>>Begin Spectral Data<<<<<
345.248	-166.91
345.464	-166.91
345.681	-166.91
345.898	-189.58
346.114	-157.23
346.331	-45.05
346.548	30.9
346.764	14.82
346.981	9.98
347.197	-3.58
347.414	12.69
347.631	-22.38
347.847	48.73
348.064	-10.75
348.28	18.31
348.497	-49.7
348.713	-3.97
348.93	30.32
349.146	46.01
349.363	-8.43
349.579	-9.01
349.796	-12.88
350.012	-13.08
350.229	42.33
350.445	2.03
350.661	-10.17
350.878	24.7
351.094	36.72
351.311	29.93
351.527	8.62
351.743	-28.97
351.96	46.98
352.176	62.68
352.392	-8.62
352.609	46.98
352.825	-16.76
353.041	15.21
353.257	-25.48
353.474	-30.32
353.69	8.62
353.906	12.5
354.122	-20.63
354.339	55.31
354.555	-31.68
354.771	11.33
354.987	51.44
355.203	58.41
355.42	-47.37
355.636	-5.13
355.852	-26.06
356.068	10.75
356.284	-13.66
356.5	45.63
356.716	-8.82
356.932	20.44
357.148	21.6
357.364	5.91
357.58	29.55
357.796	42.14
358.012	50.86
358.228	24.9
358.444	-54.15
358.66	38.07
358.876	17.53
359.092	-25.67
359.308	10.17
359.524	16.95
359.74	3.58
359.956	-14.43
360.172	1.84
360.388	43.5
360.604	-19.28
360.819	84.96
361.035	6.3
361.251	16.37
361.467	-16.37
361.683	50.86
361.898	33.42
362.114	15.21
362.33	33.62
362.546	45.82
362.762	15.6
362.977	55.9
363.193	-24.12
363.409	54.73
363.624	-27.03
363.84	-12.5
364.056	-11.92
364.271	20.44
364.487	-0.1
364.703	-3.58
364.918	-21.22
365.134	-10.75
365.35	33.23
365.565	102.2
365.781	12.5
365.996	31.48
366.212	69.65
366.427	29.55
366.643	2.03
366.858	-0.87
367.074	-22.96
367.289	70.62
367.505	111.31
367.72	-23.73
367.936	-21.02
368.151	19.47
368.367	33.42
368.582	7.46
368.798	-13.85
369.013	60.35
369.228	23.35
369.444	1.45
369.659	42.53
369.874	16.95
370.09	75.27
370.305	-46.21
370.52	-13.85
370.736	62.29
370.951	4.75
371.166	72.56
371.381	64.81
371.597	37.3
371.812	-24.9
372.027	-13.85
372.242	-2.42
372.458	81.08
372.673	2.62
372.888	5.52
373.103	17.73
373.318	75.08
373.533	42.33
373.749	26.64
373.964	-52.99
374.179	82.83
374.394	-21.99
374.609	59.19
374.824	-12.5
375.039	60.55
375.254	-1.26
375.469	55.7
375.684	34.78
375.899	52.8
376.114	-8.23
376.329	31.1
376.544	36.72
376.759	34.2
376.974	-21.8
377.189	-9.78
377.404	2.62
377.619	54.15
377.834	-28
378.049	-28.19
378.264	-63.45
378.478	3.2
378.693	-23.73
378.908	29.35
379.123	-9.78
379.338	57.64
379.553	22.96
379.767	25.28
379.982	43.88
380.197	64.81
380.412	18.89
380.626	38.65
380.841	63.65
381.056	19.28
381.271	57.25
381.485	3.78
381.7	-23.73
381.915	22.57
382.129	13.47
382.344	24.9
382.559	1.65
382.773	44.85
382.988	-41.95
383.202	22.77
383.417	3
383.632	123.9
383.846	9.2
384.061	49.7
384.275	9.98
384.49	34
384.704	48.34
384.919	31.1
385.133	5.72
385.348	16.18
385.562	-23.54
385.777	62.48
385.991	9.4
386.206	17.73
386.42	-32.84
386.634	45.24
386.849	36.13
387.063	3.39
387.277	-9.98
387.492	23.35
387.706	-40.78
387.92	-25.67
388.135	54.35
388.349	40.78
388.563	39.23
388.778	21.22
388.992	28
389.206	42.72
389.42	82.05
389.635	20.44
389.849	24.12
390.063	54.73
390.277	32.65
390.491	70.43
390.706	30.9
390.92	61.51
391.134	-10.37
391.348	30.13
391.562	-34.58
391.776	-5.13
391.99	-5.13
392.205	31.87
392.419	-20.83
392.633	14.63
392.847	51.25
393.061	-4.75
393.275	58.03
393.489	31.29
393.703	40.01
393.917	62.87
394.131	24.51
394.345	34.39
394.559	73.33
394.773	-4.36
394.986	46.79
395.2	3.78
395.414	34.78
395.628	-31.48
395.842	31.29
396.056	9.78
396.27	-25.48
396.484	20.44
396.697	69.85
396.911	71.59
397.125	51.83
397.339	69.07
397.553	38.46
397.766	94.45
397.98	46.21
398.194	41.37
398.408	-7.85
398.621	41.75
398.835	40.2
399.049	37.1
399.262	62.1
399.476	58.03
399.69	38.85
399.903	95.61
400.117	23.35
400.331	49.31
400.544	15.98
400.758	137.46
400.971	53.76
401.185	55.51
401.398	20.25
401.612	90.19
401.826	54.35
402.039	39.62
402.253	22.77
402.466	45.05
402.68	5.91
402.893	48.34
403.106	24.51
403.32	44.08
403.533	57.83
403.747	35.36
403.96	42.53
404.174	64.42
404.387	8.04
404.6	13.47
404.814	57.25
405.027	42.33
405.24	25.48
405.454	16.18
405.667	49.11
405.88	-40.98
406.094	37.1
406.307	60.93
406.52	64.03
406.733	14.43
406.947	-11.53
407.16	80.31
407.373	77.98
407.586	7.85
407.799	1.65
408.012	56.48
408.226	46.01
408.439	86.12
408.652	-15.79
408.865	43.88
409.078	51.44
409.291	36.91
409.504	-4.75
409.717	47.95
409.93	44.66
410.143	43.5
410.357	-9.4
410.57	-9.78
410.783	31.1
410.996	56.09
411.209	17.15
411.421	69.26
411.634	49.7
411.847	10.56
412.06	24.51
412.273	46.21
412.486	57.83
412.699	91.74
412.912	23.15
413.125	47.37
413.338	10.37
413.55	47.18
413.763	17.73
413.976	40.78
414.189	42.14
414.402	34.58
414.615	72.17
414.827	17.34
415.04	61.71
415.253	70.04
415.466	65.2
415.678	119.83
415.891	34
416.104	48.73
416.316	60.35
416.529	29.93
416.742	43.3
416.954	84.57
417.167	63.26
417.38	38.27
417.592	57.25
417.805	-0.29
418.017	-4.17
418.23	46.6
418.442	-7.85
418.655	21.22
418.868	39.62
419.08	70.43
419.293	118.67
419.505	36.52
419.718	63.65
419.93	89.41
420.142	40.59
420.355	99.68
420.567	103.56
420.78	83.6
420.992	54.15
421.205	104.14
421.417	-3.78
421.629	30.9
421.842	34.2
422.054	0.48
422.266	55.7
422.479	92.32
422.691	43.69
422.903	72.36
423.115	48.34
423.328	35.94
423.54	84.18
423.752	53.18
423.964	49.11
424.177	64.42
424.389	34
424.601	160.71
424.813	65.78
425.025	92.71
425.238	82.44
425.45	49.31
425.662	59.58
425.874	358.34
426.086	58.03
426.298	76.05
426.51	71.2
426.722	60.93
426.934	42.33
427.146	83.41
427.358	17.73
427.57	101.62
427.782	81.66
427.994	46.21
428.206	35.17
428.418	34.39
428.63	91.93
428.842	93.87
429.054	75.85
429.266	106.27
429.478	35.94
429.69	57.64
429.902	25.67
430.114	96.39
430.325	86.7
430.537	55.51
430.749	54.93
430.961	37.1
431.173	69.46
431.384	98.33
431.596	4.75
431.808	52.21
432.02	66.94
432.231	117.12
432.443	111.5
432.655	94.06
432.867	47.95
433.078	103.56
433.29	105.88
433.502	97.94
433.713	127.97
433.925	99.3
434.136	142.11
434.348	64.42
434.56	43.11
434.771	169.82
434.983	56.67
435.194	64.81
435.406	82.25
435.617	137.66
435.829	153.16
436.04	145.41
436.252	113.44
436.463	152.19
436.675	123.71
436.886	106.27
437.098	114.41
437.309	167.11
437.521	92.9
437.732	116.93
437.943	116.93
438.155	129.91
438.366	70.23
438.578	169.43
438.789	108.21
439	138.82
439.211	108.98
439.423	135.91
439.634	138.82
439.845	137.27
440.057	128.75
440.268	150.06
440.479	117.9
440.69	127.58
440.902	113.44
441.113	117.31
441.324	95.81
441.535	128.94
441.746	160.71
441.957	70.23
442.168	137.46
442.38	143.28
442.591	135.14
442.802	101.81
443.013	112.28
443.224	140.95
443.435	105.11
443.646	127.2
443.857	123.32
444.068	121.58
444.279	131.84
444.49	202.37
444.701	123.51
444.912	224.46
445.123	174.86
445.334	165.94
445.545	151.8
445.756	153.74
445.967	127.58
446.178	177.96
446.388	195.39
446.599	183.77
446.81	179.89
447.021	136.49
447.232	219.61
447.443	215.54
447.653	122.93
447.864	185.32
448.075	173.11
448.286	199.85
448.496	184.74
448.707	229.3
448.918	159.36
449.129	274.83
449.339	157.81
449.55	205.86
449.761	186.48
449.971	222.32
450.182	179.31
450.393	195.2
450.603	165.17
450.814	226.97
451.024	218.84
451.235	207.41
451.446	224.84
451.656	256.62
451.867	182.8
452.077	215.93
452.288	274.83
452.498	263.4
452.709	176.99
452.919	209.54
453.13	178.15
453.34	244.99
453.55	175.05
453.761	219.22
453.971	230.85
454.182	237.24
454.392	199.66
454.602	286.65
454.813	223.49
455.023	238.21
455.233	181.25
455.444	212.83
455.654	161.68
455.864	209.34
456.075	206.05
456.285	221.55
456.495	213.03
456.705	226.01
456.916	257.39
457.126	250.42
457.336	219.22
457.546	175.44
457.756	207.41
457.967	279.67
458.177	209.73
458.387	231.82
458.597	179.7
458.807	225.04
459.017	207.99
459.227	211.28
459.437	219.61
459.647	245.96
459.857	260.11
460.068	211.09
460.278	276.57
460.488	227.36
460.698	276.57
460.908	235.89
461.117	199.46
461.327	217.29
461.537	244.02
461.747	245.57
461.957	228.91
462.167	348.65
462.377	267.08
462.587	232.59
462.797	261.46
463.007	237.63
463.216	258.94
463.426	301.76
463.636	259.91
463.846	198.3
464.056	222.91
464.265	305.83
464.475	225.62
464.685	258.56
464.895	263.98
465.104	237.82
465.314	277.16
465.524	246.16
465.733	239.18
465.943	327.53
466.153	345.35
466.362	289.56
466.572	255.46
466.782	264.76
466.991	249.84
467.201	307.19
467.41	236.08
467.62	298.86
467.829	260.88
468.039	295.76
468.249	268.05
468.458	268.05
468.668	322.69
468.877	317.65
469.086	326.95
469.296	323.65
469.505	255.46
469.715	330.44
469.924	308.54
470.134	315.52
470.343	354.07
470.552	262.82
470.762	305.83
470.971	259.72
471.18	303.51
471.39	279.48
471.599	279.29
471.808	346.32
472.018	264.37
472.227	360.27
472.436	338.19
472.645	313.58
472.855	283.55
473.064	370.74
473.273	322.3
473.482	339.15
473.691	354.27
473.901	361.44
474.11	336.25
474.319	435.64
474.528	336.83
474.737	388.37
474.946	334.89
475.155	374.03
475.364	394.57
475.573	346.71
475.783	367.83
475.992	384.49
476.201	394.37
476.41	342.06
476.619	309.32
476.828	351.94
477.037	313.97
477.245	331.02
477.454	373.64
477.663	365.12
477.872	337.02
478.081	431.57
478.29	356.79
478.499	430.22
478.708	354.07
478.917	456.18
479.125	416.85
479.334	402.12
479.543	350.78
479.752	398.05
479.961	395.73
480.169	405.61
480.378	372.48
480.587	522.05
480.796	436.03
481.004	392.05
481.213	433.32
481.422	410.26
481.63	402.12
481.839	457.34
482.048	499.96
482.256	463.93
482.465	452.88
482.674	462.18
482.882	484.27
483.091	516.05
483.299	492.6
483.508	502.48
483.716	462.57
483.925	462.77
484.134	439.9
484.342	473.81
484.551	499.77
484.759	492.02
484.967	499.96
485.176	504.23
485.384	502.1
485.593	476.13
485.801	463.93
486.01	466.45
486.218	455.4
486.426	380.23
486.635	433.12
486.843	434.67
487.051	478.85
487.26	417.23
487.468	497.83
487.676	506.16
487.885	447.07
488.093	501.9
488.301	503.45
488.509	505.39
488.717	503.26
488.926	508.88
489.134	495.51
489.342	496.67
489.55	488.53
489.758	507.52
489.967	496.48
490.175	609.43
490.383	495.31
490.591	587.93
490.799	495.9
491.007	572.81
491.215	561.58
491.423	537.75
491.631	554.8
491.839	543.36
492.047	601.88
492.255	492.41
492.463	471.29
492.671	506.36
492.879	575.53
493.087	539.3
493.295	558.67
493.503	567.78
493.711	579.59
493.919	602.26
494.127	604.39
494.334	610.4
494.542	555.96
494.75	606.14
494.958	558.67
495.166	595.29
495.374	589.48
495.581	587.15
495.789	604.98
495.997	646.83
496.205	587.73
496.412	585.6
496.62	612.14
496.828	605.36
497.035	591.03
497.243	639.27
497.451	629.58
497.658	625.71
497.866	628.23
498.074	652.25
498.281	575.91
498.489	680.34
498.696	631.91
498.904	618.34
499.112	620.67
499.319	688.48
499.527	634.62
499.734	645.08
499.942	604.98
500.149	603.62
500.357	644.5
500.564	591.8
500.771	640.04
500.979	577.85
501.186	601.29
501.394	639.27
501.601	618.54
501.808	651.86
502.016	641.98
502.223	624.16
502.43	614.47
502.638	655.54
502.845	619.89
503.052	696.23
503.26	657.87
503.467	722.58
503.674	650.31
503.881	655.35
504.089	745.25
504.296	731.3
504.503	629.58
504.71	658.84
504.917	632.68
505.125	679.37
505.332	678.99
505.539	690.61
505.746	770.24
505.953	734.4
506.16	703.4
506.367	759.39
506.574	742.15
506.781	779.15
506.988	663.29
507.195	729.36
507.402	726.26
507.609	733.24
507.816	692.16
508.023	703.4
508.23	702.82
508.437	667.56
508.644	727.23
508.851	789.42
509.058	731.88
509.265	747.96
509.472	767.53
509.679	821
509.885	746.02
510.092	746.99
510.299	767.14
510.506	768.11
510.713	747.19
510.92	758.04
511.126	761.52
511.333	796.59
511.54	788.65
511.746	811.9
511.953	828.37
512.16	829.14
512.367	774.7
512.573	796.79
512.78	790.39
512.987	773.34
513.193	815.97
513.4	731.11
513.606	804.15
513.813	817.9
514.02	792.72
514.226	868.47
514.433	839.02
514.639	770.05
514.846	843.28
515.052	789.81
515.259	833.4
515.465	817.52
515.672	828.95
515.878	902.77
516.085	839.41
516.291	880.1
516.497	805.31
516.704	818.29
516.91	787.87
517.117	740.79
517.323	739.05
517.529	766.75
517.736	772.95
517.942	788.26
518.148	781.87
518.354	811.51
518.561	809.19
518.767	817.32
518.973	868.28
519.179	868.28
519.386	822.36
519.592	794.07
519.798	814.42
520.004	913.62
520.21	849.48
520.417	906.83
520.623	936.48
520.829	937.83
521.035	950.43
521.241	907.42
521.447	965.35
521.653	1017.08
521.859	943.84
522.065	957.01
522.271	1059.12
522.477	1003.32
522.683	1014.17
522.889	976.78
523.095	1003.71
523.301	971.74
523.507	946.55
523.713	1005.84
523.919	906.45
524.125	1039.55
524.331	978.91
524.537	1060.86
524.742	1061.83
524.948	1061.64
525.154	1057.18
525.36	1147.47
525.566	1051.56
525.772	1107.56
525.977	1025.02
526.183	1088.18
526.389	1091.28
526.595	1016.3
526.8	1044.2
527.006	984.14
527.212	946.16
527.417	957.01
527.623	985.88
527.829	1031.8
528.034	1036.26
528.24	1050.01
528.446	998.09
528.651	1096.71
528.857	1127.51
529.062	1158.12
529.268	1090.7
529.473	1087.99
529.679	1099.61
529.884	1164.52
530.09	1168.78
530.295	1191.25
530.501	1184.28
530.706	1161.22
530.912	1102.13
531.117	1130.61
531.323	1156.19
531.528	1170.91
531.733	1197.84
531.939	1131.19
532.144	1161.61
532.35	1193.58
532.555	1191.06
532.76	1177.5
532.966	1186.22
533.171	1153.28
533.376	1125.77
533.581	1118.41
533.787	1170.91
533.992	1156.77
534.197	1180.02
534.402	1165.87
534.607	1165.1
534.813	1273.98
535.018	1159.48
535.223	1210.82
535.428	1225.74
535.633	1266.24
535.838	1221.87
536.043	1232.91
536.249	1293.36
536.454	1248.8
536.659	1260.62
536.864	1220.32
537.069	1218.96
537.274	1253.25
537.479	1258.68
537.684	1229.04
537.889	1188.74
538.094	1311.77
538.299	1218.57
538.504	1262.94
538.708	1282.32
538.913	1279.22
539.118	1260.42
539.323	1279.41
539.528	1217.02
539.733	1211.79
539.938	1258.87
540.142	1275.53
540.347	1237.56
540.552	1199.97
540.757	1251.7
540.962	1233.3
541.166	1179.82
541.371	1205.01
541.576	1249.77
541.781	1140.49
541.985	1250.93
542.19	1265.27
542.395	1292.58
542.599	1335.79
542.804	1313.32
543.008	1327.46
543.213	1260.23
543.418	1237.56
543.622	1283.67
543.827	1226.71
544.031	1328.62
544.236	1363.11
544.44	1305.18
544.645	1362.14
544.849	1293.75
545.054	1315.64
545.258	1384.03
545.463	1355.16
545.667	1249.38
545.872	1301.88
546.076	1343.73
546.281	1332.5
546.485	1271.27
546.689	1327.27
546.894	1317.77
547.098	1318.35
547.302	1316.42
547.507	1288.52
547.711	1347.8
547.915	1392.17
548.119	1302.47
548.324	1297.23
548.528	1395.08
548.732	1331.53
548.936	1372.41
549.141	1394.11
549.345	1305.57
549.549	1348.97
549.753	1350.71
549.957	1380.93
550.161	1390.04
550.366	1346.64
550.57	1330.95
550.774	1356.13
550.978	1318.35
551.182	1359.62
551.386	1328.04
551.59	1322.03
551.794	1329.59
551.998	1367.76
552.202	1357.88
552.406	1322.42
552.61	1354
552.814	1331.72
553.018	1425.11
553.222	1333.47
553.426	1379.58
553.63	1414.65
553.833	1353.23
554.037	1330.56
554.241	1418.33
554.445	1375.9
554.649	1381.9
554.853	1339.47
555.056	1416
555.26	1377.06
555.464	1371.05
555.668	1400.89
555.871	1389.85
556.075	1383.65
556.279	1319.32
556.483	1351.48
556.686	1360.4
556.89	1357.3
557.094	1361.17
557.297	1292.97
557.501	1390.81
557.704	1288.52
557.908	1389.46
558.112	1319.13
558.315	1405.15
558.519	1317.38
558.722	1338.31
558.926	1311.57
559.129	1241.05
559.333	1269.72
559.536	1262.75
559.74	1241.82
559.943	1265.46
560.147	1257.52
560.35	1283.09
560.553	1318.55
560.757	1213.54
560.96	1337.34
561.164	1264.1
561.367	1354.78
561.57	1317.58
561.774	1304.79
561.977	1291.03
562.18	1244.54
562.384	1343.93
562.587	1309.44
562.79	1259.84
562.993	1265.27
563.197	1316.22
563.4	1369.31
563.603	1318.35
563.806	1348.19
564.009	1235.82
564.212	1333.85
564.416	1221.48
564.619	1295.3
564.822	1228.65
565.025	1272.63
565.228	1267.78
565.431	1290.07
565.634	1206.56
565.837	1213.15
566.04	1208.69
566.243	1247.44
566.446	1145.34
566.649	1269.72
566.852	1191.25
567.055	1226.32
567.258	1234.07
567.461	1309.44
567.664	1311.18
567.867	1178.27
568.07	1239.69
568.273	1223.22
568.475	1284.83
568.678	1210.63
568.881	1186.6
569.084	1202.3
569.287	1115.11
569.489	1146.69
569.692	1252.09
569.895	1237.17
570.098	1130.22
570.3	1133.52
570.503	1090.89
570.706	1139.52
570.909	1127.71
571.111	1096.12
571.314	1093.22
571.516	1126.93
571.719	1119.96
571.922	1124.22
572.124	1138.56
572.327	1167.23
572.529	1069.58
572.732	1088.18
572.935	1137.39
573.137	1180.02
573.34	1096.9
573.542	1151.34
573.745	1120.54
573.947	1149.41
574.15	1106.97
574.352	1082.37
574.554	1213.15
574.757	1089.34
574.959	1081.4
575.162	1068.81
575.364	1085.47
575.566	1201.52
575.769	1062.8
575.971	1077.72
576.173	1032.96
576.376	1056.02
576.578	1106.39
576.78	1146.69
576.982	977.36
577.185	1061.44
577.387	1019.21
577.589	1028.51
577.791	1077.14
577.993	1087.41
578.196	1039.94
578.398	1060.48
578.6	1099.61
578.802	1007.39
579.004	992.66
579.206	1029.86
579.408	1065.9
579.61	1065.9
579.812	1071.91
580.014	1036.26
580.216	1035.68
580.418	1028.89
580.62	1025.79
580.822	987.24
581.024	1055.63
581.226	1072.1
581.428	1031.22
581.63	1107.94
581.832	1026.18
582.034	1077.33
582.236	1083.73
582.438	1119.96
582.64	1107.75
582.841	1138.56
583.043	1143.79
583.245	1095.93
583.447	1059.51
583.649	1088.96
583.85	1085.47
584.052	1129.64
584.254	1045.75
584.456	1120.92
584.657	1044.78
584.859	1071.91
585.061	1069.97
585.262	1060.28
585.464	1008.74
585.666	1072.1
585.867	1038
586.069	1087.41
586.27	1089.54
586.472	1066.09
586.674	1029.86
586.875	1024.24
587.077	1019.79
587.278	1042.26
587.48	1023.28
587.681	1134.1
587.883	1074.23
588.084	1013.2
588.285	994.8
588.487	996.35
588.688	1049.63
588.89	966.31
589.091	959.15
589.292	958.18
589.494	905.09
589.695	904.51
589.896	833.6
590.098	863.24
590.299	932.6
590.5	865.76
590.702	889.01
590.903	921.75
591.104	991.5
591.305	952.36
591.507	994.21
591.708	960.7
591.909	935.31
592.11	997.51
592.311	965.93
592.512	944.03
592.714	896.18
592.915	957.21
593.116	926.21
593.317	944.23
593.518	973.87
593.719	965.35
593.92	999.45
594.121	992.08
594.322	947.71
594.523	968.45
594.724	945.78
594.925	928.53
595.126	995.76
595.327	995.18
595.528	949.26
595.729	973.68
595.929	971.16
596.13	964.76
596.331	996.35
596.532	947.71
596.733	1029.48
596.934	993.05
597.135	968.25
597.335	1000.8
597.536	937.06
597.737	961.86
597.938	923.11
598.138	949.85
598.339	939.96
598.54	952.56
598.74	946.55
598.941	948.68
599.142	1007.39
599.342	970.58
599.543	953.91
599.744	950.43
599.944	968.25
600.145	935.9
600.345	964.18
600.546	1001
600.746	979.88
600.947	1021.73
601.147	961.08
601.348	977.16
601.548	907.61
601.749	979.3
601.949	931.05
602.15	915.94
602.35	931.44
602.551	949.46
602.751	922.14
602.951	916.13
603.152	864.79
603.352	936.48
603.552	947.33
603.753	950.62
603.953	984.14
604.153	969.22
604.354	914.2
604.554	961.66
604.754	937.25
604.954	922.53
605.155	948.88
605.355	951.98
605.555	988.6
605.755	1004.48
605.955	959.73
606.155	1005.26
606.356	965.35
606.556	977.94
606.756	973.68
606.956	943.06
607.156	1007.97
607.356	924.85
607.556	981.04
607.756	968.06
607.956	978.33
608.156	934.93
608.356	929.7
608.556	965.15
608.756	950.62
608.956	894.43
609.156	931.44
609.356	876.42
609.556	890.56
609.755	943.65
609.955	901.22
610.155	919.04
610.355	897.92
610.555	917.68
610.755	918.07
610.954	860.33
611.154	898.12
611.354	924.85
611.554	905.87
611.753	897.92
611.953	857.23
612.153	897.92
612.352	916.13
612.552	854.91
612.752	794.46
612.951	873.9
613.151	869.05
613.351	845.61
613.55	866.15
613.75	887.65
613.949	866.15
614.149	889.59
614.348	884.36
614.548	836.5
614.747	813.84
614.947	848.13
615.146	774.89
615.346	888.62
615.545	858.2
615.745	852.78
615.944	884.55
616.144	843.09
616.343	885.33
616.542	830.3
616.742	808.8
616.941	808.8
617.14	762.3
617.34	841.73
617.539	822.55
617.738	789.42
617.938	898.7
618.137	842.12
618.336	812.67
618.535	882.62
618.734	843.87
618.934	839.6
619.133	857.82
619.332	820.23
619.531	792.91
619.73	845.61
619.929	883.2
620.128	847.93
620.328	891.53
620.527	821.2
620.726	828.56
620.925	873.9
621.124	808.22
621.323	848.9
621.522	805.5
621.721	821.59
621.92	779.93
622.119	852.97
622.318	783.61
