Data from pine_FLMT105791__2__17-19-36-080.txt Node

Date: Mon Mar 20 17:19:36 GMT 2023
User: antho
Spectrometer: FLMT10579
Trigger mode: 0
Integration Time (sec): 1.000000E-1
Scans to average: 10
Electric dark correction enabled: true
Nonlinearity correction enabled: false
Boxcar width: 0
XAxis mode: Wavelengths
Number of Pixels in Spectrum: 3648
>>>>>Begin Spectral Data<<<<<
345.248	-179.04
345.464	-179.04
345.681	-179.04
345.898	-153.66
346.114	-165.86
346.331	-44.38
346.548	12
346.764	13.16
346.981	-2.15
347.197	-4.67
347.414	31.18
347.631	-37.8
347.847	46.29
348.064	4.83
348.28	34.28
348.497	-42.64
348.713	-10.09
348.93	40.67
349.146	46.29
349.363	5.22
349.579	14.71
349.796	-1.37
350.012	-12.8
350.229	32.73
350.445	-6.8
350.661	-33.15
350.878	-7.77
351.094	3.86
351.311	6.18
351.527	28.85
351.743	-0.6
351.96	37.76
352.176	42.61
352.392	39.31
352.609	39.51
352.825	-4.08
353.041	0.95
353.257	-22.1
353.474	6.18
353.69	20.52
353.906	5.8
354.122	-29.85
354.339	65.66
354.555	15.68
354.771	-1.18
354.987	58.88
355.203	54.81
355.42	-25.2
355.636	-40.7
355.852	-0.4
356.068	5.02
356.284	-37.22
356.5	63.53
356.716	33.31
356.932	6.57
357.148	48.23
357.364	-23.65
357.58	51.13
357.796	55.2
358.012	19.94
358.228	25.56
358.444	-79.84
358.66	70.31
358.876	29.63
359.092	-21.72
359.308	10.06
359.524	-0.98
359.74	-4.67
359.956	-11.06
360.172	33.11
360.388	23.81
360.604	4.63
360.819	82.71
361.035	1.73
361.251	42.03
361.467	-21.91
361.683	41.25
361.898	15.48
362.114	56.36
362.33	36.21
362.546	51.33
362.762	-8.93
362.977	24.2
363.193	-15.52
363.409	32.34
363.624	-36.44
363.84	-19.58
364.056	-20.94
364.271	15.29
364.487	22.65
364.703	-1.95
364.918	-27.33
365.134	10.06
365.35	7.73
365.565	123.01
365.781	27.69
365.996	43.38
366.212	57.53
366.427	9.09
366.643	2.7
366.858	-1.37
367.074	0.95
367.289	58.5
367.505	113.91
367.72	-26.95
367.936	9.67
368.151	57.72
368.367	52.3
368.582	18.58
368.798	-8.93
369.013	43
369.228	-2.92
369.444	36.99
369.659	47.06
369.874	20.52
370.09	70.31
370.305	-62.6
370.52	-15.9
370.736	59.85
370.951	9.09
371.166	58.69
371.381	70.7
371.597	43.19
371.812	-19.2
372.027	-16.48
372.242	28.66
372.458	57.91
372.673	32.34
372.888	2.12
373.103	15.87
373.318	105.19
373.533	52.49
373.749	28.08
373.964	-36.83
374.179	68.96
374.394	-20.94
374.609	78.26
374.824	-14.93
375.039	45.51
375.254	-0.6
375.469	75.35
375.684	2.12
375.899	47.26
376.114	8.7
376.329	37.38
376.544	39.31
376.759	45.51
376.974	-12.8
377.189	19.16
377.404	-3.31
377.619	32.53
377.834	-24.43
378.049	-51.36
378.264	-12.22
378.478	22.46
378.693	3.08
378.908	11.61
379.123	0.37
379.338	79.23
379.553	24.4
379.767	17.81
379.982	32.92
380.197	48.61
380.412	3.67
380.626	6.18
380.841	105.19
381.056	23.43
381.271	81.75
381.485	-7.96
381.7	-21.33
381.915	25.36
382.129	24.2
382.344	31.18
382.559	5.41
382.773	64.11
382.988	-17.45
383.202	23.04
383.417	-0.4
383.632	116.23
383.846	13.35
384.061	12
384.275	-2.53
384.49	30.01
384.704	36.41
384.919	41.83
385.133	-3.89
385.348	46.29
385.562	-2.15
385.777	35.44
385.991	19.94
386.206	6.77
386.42	-12.42
386.634	65.08
386.849	59.08
387.063	45.32
387.277	-13.58
387.492	8.7
387.706	5.02
387.92	-12.42
388.135	69.73
388.349	45.13
388.563	11.41
388.778	24.98
388.992	45.71
389.206	53.26
389.42	79.23
389.635	37.57
389.849	32.92
390.063	53.07
390.277	23.23
390.491	82.91
390.706	14.51
390.92	73.03
391.134	18.2
391.348	48.42
391.562	-14.16
391.776	19.55
391.99	-3.7
392.205	45.13
392.419	-16.48
392.633	7.15
392.847	63.15
393.061	-8.15
393.275	102.28
393.489	36.02
393.703	43.77
393.917	76.51
394.131	22.26
394.345	36.99
394.559	62.76
394.773	37.18
394.986	36.99
395.2	48.23
395.414	32.92
395.628	3.08
395.842	16.84
396.056	-6.6
396.27	-17.65
396.484	48.42
396.697	47.65
396.911	89.3
397.125	49.78
397.339	65.66
397.553	43
397.766	85.62
397.98	58.88
398.194	59.08
398.408	20.71
398.621	49.97
398.835	53.46
399.049	31.76
399.262	86.78
399.476	45.71
399.69	74.96
399.903	95.31
400.117	30.01
400.331	59.27
400.544	-4.86
400.758	138.13
400.971	56.17
401.185	74.77
401.398	13.35
401.612	81.55
401.826	47.26
402.039	67.41
402.253	-7.77
402.466	57.72
402.68	25.56
402.893	54.62
403.106	58.11
403.32	31.56
403.533	74
403.747	51.13
403.96	49
404.174	53.26
404.387	-8.93
404.6	31.95
404.814	69.35
405.027	38.35
405.24	39.12
405.454	21.88
405.667	92.79
405.88	-44.97
406.094	74.96
406.307	86.01
406.52	36.21
406.733	-0.02
406.947	-27.53
407.16	106.74
407.373	64.89
407.586	-0.21
407.799	1.34
408.012	89.88
408.226	42.03
408.439	83.49
408.652	8.31
408.865	41.45
409.078	73.41
409.291	63.34
409.504	0.37
409.717	64.5
409.93	68.96
410.143	44.93
410.357	-20.17
410.57	12.96
410.783	50.16
410.996	60.05
411.209	43
411.421	70.51
411.634	15.68
411.847	17.61
412.06	43
412.273	31.37
412.486	47.06
412.699	129.02
412.912	32.34
413.125	62.56
413.338	52.68
413.55	75.16
413.763	33.11
413.976	59.08
414.189	32.34
414.402	40.86
414.615	121.27
414.827	0.95
415.04	75.16
415.253	48.42
415.466	70.51
415.678	117.2
415.891	56.56
416.104	32.15
416.316	43
416.529	31.37
416.742	75.74
416.954	86.01
417.167	47.84
417.38	35.83
417.592	92.6
417.805	53.65
418.017	-25.4
418.23	98.79
418.442	28.46
418.655	39.9
418.868	83.68
419.08	88.14
419.293	72.06
419.505	59.08
419.718	69.35
419.93	77.29
420.142	35.63
420.355	90.27
420.567	88.91
420.78	65.66
420.992	27.11
421.205	107.51
421.417	13.93
421.629	36.21
421.842	16.65
422.054	3.67
422.266	67.6
422.479	104.03
422.691	36.99
422.903	81.55
423.115	37.38
423.328	36.8
423.54	73.41
423.752	53.26
423.964	23.43
424.177	84.85
424.389	39.9
424.601	169.32
424.813	74.77
425.025	81.94
425.238	71.48
425.45	59.27
425.662	42.41
425.874	365.97
426.086	51.52
426.298	92.21
426.51	52.68
426.722	49.58
426.934	18.39
427.146	105.77
427.358	24.98
427.57	109.45
427.782	59.85
427.994	57.72
428.206	36.21
428.418	14.13
428.63	75.93
428.842	108.87
429.054	63.53
429.266	109.64
429.478	59.08
429.69	80.58
429.902	28.66
430.114	80.39
430.325	92.4
430.537	71.86
430.749	57.14
430.961	12.77
431.173	73.61
431.384	99.76
431.596	15.87
431.808	57.14
432.02	81.36
432.231	82.33
432.443	102.67
432.655	86.01
432.867	64.11
433.078	82.33
433.29	149.75
433.502	111.97
433.713	112.74
433.925	90.46
434.136	129.02
434.348	28.08
434.56	24.2
434.771	197.8
434.983	38.73
435.194	79.03
435.406	78.45
435.617	128.24
435.829	149.94
436.04	130.38
436.252	118.75
436.463	144.52
436.675	120.49
436.886	94.53
437.098	123.59
437.309	150.91
437.521	105.58
437.732	113.52
437.943	125.53
438.155	122.04
438.366	63.53
438.578	169.9
438.789	99.76
439	142.58
439.211	88.14
439.423	115.07
439.634	131.73
439.845	146.84
440.057	118.36
440.268	153.24
440.479	78.45
440.69	129.6
440.902	121.27
441.113	103.64
441.324	92.21
441.535	137.54
441.746	173
441.957	84.85
442.168	108.87
442.38	138.51
442.591	156.92
442.802	115.46
443.013	102.86
443.224	162.34
443.435	113.91
443.646	145.49
443.857	141.23
444.068	106.93
444.279	88.91
444.49	197.22
444.701	129.41
444.912	213.11
445.123	180.17
445.334	164.09
445.545	156.92
445.756	113.33
445.967	112.36
446.178	176.1
446.388	209.04
446.599	184.24
446.81	154.79
447.021	140.06
447.232	183.85
447.443	181.53
447.653	113.71
447.864	198.57
448.075	144.33
448.286	172.23
448.496	168.93
448.707	213.69
448.918	143.16
449.129	242.94
449.339	157.5
449.55	153.82
449.761	145.49
449.971	192.18
450.182	160.99
450.393	203.03
450.603	158.86
450.814	216.21
451.024	183.85
451.235	205.36
451.446	214.07
451.656	234.22
451.867	126.11
452.077	194.31
452.288	237.32
452.498	264.84
452.709	169.13
452.919	195.09
453.13	155.76
453.34	205.16
453.55	139.29
453.761	210.2
453.971	206.32
454.182	228.61
454.392	237.91
454.602	272
454.813	175.91
455.023	232.09
455.233	151.69
455.444	197.61
455.654	175.52
455.864	183.07
456.075	173.19
456.285	178.43
456.495	196.83
456.705	198.19
456.916	224.15
457.126	247.01
457.336	175.33
457.546	150.14
457.756	178.23
457.967	222.6
458.177	174.55
458.387	227.83
458.597	169.13
458.807	186.37
459.017	182.88
459.227	171.64
459.437	196.25
459.647	221.82
459.857	238.68
460.068	159.44
460.278	236.16
460.488	195.86
460.698	295.84
460.908	196.44
461.117	149.94
461.327	171.26
461.537	200.51
461.747	206.13
461.957	226.86
462.167	321.41
462.377	281.69
462.587	214.07
462.797	243.52
463.007	217.56
463.216	243.52
463.426	261.93
463.636	226.47
463.846	177.84
464.056	201.48
464.265	241.01
464.475	186.56
464.685	235.39
464.895	248.17
465.104	232.87
465.314	272.59
465.524	251.86
465.733	196.83
465.943	273.17
466.153	293.7
466.362	244.69
466.572	245.66
466.782	204.77
466.991	245.85
467.201	280.34
467.41	182.3
467.62	237.13
467.829	233.06
468.039	259.99
468.249	235.39
468.458	227.44
468.668	272.97
468.877	256.51
469.086	299.13
469.296	270.84
469.505	242.56
469.715	303
469.924	266.77
470.134	293.7
470.343	290.8
470.552	271.62
470.762	255.15
470.971	203.03
471.18	291.96
471.39	265.03
471.599	229.96
471.808	309.59
472.018	233.06
472.227	280.92
472.436	298.94
472.645	259.99
472.855	237.52
473.064	298.74
473.273	285.95
473.482	298.74
473.691	315.21
473.901	329.35
474.11	287.7
474.319	404.33
474.528	306.49
474.737	356.29
474.946	336.33
475.155	312.3
475.364	339.04
475.573	335.94
475.783	342.14
475.992	342.53
476.201	366.55
476.41	318.5
476.619	306.1
476.828	309.2
477.037	309.2
477.245	293.7
477.454	336.91
477.663	306.1
477.872	299.32
478.081	381.86
478.29	303
478.499	415.57
478.708	348.73
478.917	412.08
479.125	360.16
479.334	362.48
479.543	347.57
479.752	347.37
479.961	345.63
480.169	404.33
480.378	338.46
480.587	439.98
480.796	383.02
481.004	375.27
481.213	374.88
481.422	366.75
481.63	369.07
481.839	383.41
482.048	435.92
482.256	387.67
482.465	402.2
482.674	411.7
482.882	414.41
483.091	462.46
483.299	425.45
483.508	423.52
483.716	408.98
483.925	408.02
484.134	392.9
484.342	395.42
484.551	465.75
484.759	436.3
484.967	450.45
485.176	464.59
485.384	448.51
485.593	448.51
485.801	448.9
486.01	410.15
486.218	423.71
486.426	350.86
486.635	392.9
486.843	372.95
487.051	390.58
487.26	396
487.468	426.42
487.676	454.9
487.885	411.5
488.093	451.03
488.301	403.95
488.509	436.11
488.717	439.98
488.926	457.42
489.134	417.51
489.342	452.38
489.55	417.9
489.758	446.18
489.967	423.13
490.175	536.47
490.383	429.72
490.591	514
490.799	417.9
491.007	518.65
491.215	490.16
491.423	471.37
491.631	506.05
491.839	484.55
492.047	520.58
492.255	452.77
492.463	431.85
492.671	480.48
492.879	526.98
493.087	492.1
493.295	496.36
493.503	500.43
493.711	543.44
493.919	561.66
494.127	553.52
494.334	545.77
494.542	464.59
494.75	510.12
494.958	525.81
495.166	564.18
495.374	536.86
495.581	539.38
495.789	534.73
495.997	579.87
496.205	535.5
496.412	535.11
496.62	525.23
496.828	571.15
497.035	514.77
497.243	576.58
497.451	555.65
497.658	534.34
497.866	532.59
498.074	582
498.281	481.25
498.489	630.44
498.696	541.12
498.904	553.91
499.112	535.11
499.319	604.67
499.527	552.55
499.734	612.81
499.942	493.85
500.149	523.3
500.357	567.47
500.564	522.91
500.771	587.62
500.979	567.08
501.186	531.05
501.394	558.56
501.601	564.18
501.808	567.28
502.016	573.28
502.223	555.65
502.43	566.89
502.638	545.38
502.845	540.34
503.052	598.28
503.26	531.24
503.467	647.87
503.674	599.24
503.881	609.32
504.089	668.41
504.296	633.92
504.503	573.67
504.71	607.58
504.917	574.06
505.125	598.47
505.332	577.54
505.539	624.82
505.746	681.78
505.953	650.39
506.16	633.15
506.367	690.5
506.574	687.59
506.781	678.68
506.988	610.87
507.195	635.67
507.402	616.1
507.609	690.69
507.816	600.21
508.023	649.42
508.23	624.24
508.437	605.25
508.644	654.66
508.851	695.92
509.058	657.37
509.265	627.53
509.472	668.41
509.679	729.05
509.885	644.39
510.092	655.43
510.299	670.93
510.506	661.63
510.713	658.34
510.92	688.56
511.126	672.87
511.333	733.12
511.54	688.17
511.746	732.54
511.953	727.7
512.16	755.4
512.367	704.45
512.573	704.26
512.78	718.79
512.987	686.04
513.193	690.5
513.4	630.24
513.606	684.69
513.813	723.63
514.02	700.77
514.226	777.49
514.433	750.56
514.639	667.25
514.846	685.66
515.052	674.22
515.259	731.57
515.465	718.4
515.672	720.14
515.878	806.17
516.085	722.47
516.291	744.55
516.497	736.8
516.704	729.64
516.91	695.54
517.117	643.61
517.323	615.71
517.529	684.3
517.736	669.57
517.942	689.72
518.148	675
518.354	724.6
518.561	694.18
518.767	718.01
518.973	749.4
519.179	749.01
519.386	705.42
519.592	712
519.798	722.08
520.004	818.37
520.21	730.41
520.417	791.25
520.623	815.27
520.829	818.18
521.035	824.38
521.241	802.48
521.447	830.77
521.653	905.95
521.859	771.68
522.065	839.1
522.271	910.4
522.477	855.77
522.683	906.91
522.889	872.43
523.095	861.38
523.301	846.08
523.507	817.79
523.713	846.27
523.919	802.48
524.125	863.32
524.331	862.55
524.537	950.12
524.742	905.95
524.948	943.53
525.154	885.6
525.36	986.16
525.566	912.15
525.772	923.96
525.977	886.57
526.183	938.11
526.389	978.02
526.595	872.62
526.8	898.97
527.006	830.97
527.212	841.82
527.417	809.65
527.623	801.71
527.829	905.36
528.034	904.98
528.24	901.49
528.446	856.35
528.651	969.88
528.857	932.49
529.062	1018.51
529.268	961.16
529.473	968.91
529.679	937.33
529.884	1040.21
530.09	988.68
530.295	1012.31
530.501	1001.46
530.706	1008.44
530.912	934.23
531.117	986.35
531.323	980.15
531.528	1025.29
531.733	1010.57
531.939	945.08
532.144	1031.88
532.35	967.36
532.555	1035.56
532.76	1000.88
532.966	1032.27
533.171	1034.21
533.376	968.14
533.581	957.48
533.787	985.38
533.992	1020.06
534.197	1069.08
534.402	991
534.607	1012.7
534.813	1096.59
535.018	998.36
535.223	1015.41
535.428	1002.04
535.633	1113.84
535.838	1047.58
536.043	1035.95
536.249	1136.12
536.454	1035.37
536.659	1091.75
536.864	1045.06
537.069	1061.33
537.274	1051.84
537.479	1054.74
537.684	1078.38
537.889	1014.06
538.094	1138.64
538.299	1092.91
538.504	1089.81
538.708	1073.54
538.913	1106.28
539.118	1079.35
539.323	1109.96
539.528	1032.08
539.733	1044.09
539.938	1084
540.142	1088.26
540.347	1074.31
540.552	1023.74
540.757	1049.32
540.962	1041.57
541.166	1023.55
541.371	1044.86
541.576	1042.54
541.781	976.66
541.985	1059.2
542.19	1070.05
542.395	1121.01
542.599	1145.03
542.804	1116.36
543.008	1117.52
543.213	1065.01
543.418	1038.47
543.622	1091.36
543.827	1042.93
544.031	1108.61
544.236	1128.56
544.44	1103.76
544.645	1168.47
544.849	1068.5
545.054	1134.96
545.258	1173.7
545.463	1174.09
545.667	1068.31
545.872	1100.47
546.076	1118.68
546.281	1123.52
546.485	1096.4
546.689	1154.52
546.894	1177.97
547.098	1136.89
547.302	1080.32
547.507	1124.69
547.711	1133.41
547.915	1197.92
548.119	1075.28
548.324	1126.62
548.528	1181.65
548.732	1161.11
548.936	1147.55
549.141	1167.12
549.345	1130.5
549.549	1158.2
549.753	1171.77
549.957	1258.95
550.161	1207.22
550.366	1158.01
550.57	1094.46
550.774	1184.17
550.978	1126.43
551.182	1170.99
551.386	1142.71
551.59	1161.3
551.794	1127.98
551.998	1168.67
552.202	1154.14
552.406	1090.78
552.61	1184.94
552.814	1157.04
553.018	1211.1
553.222	1158.2
553.426	1133.21
553.63	1224.47
553.833	1134.37
554.037	1111.32
554.241	1184.36
554.445	1184.94
554.649	1172.15
554.853	1146.19
555.056	1168.28
555.26	1224.85
555.464	1166.73
555.668	1165.18
555.871	1209.16
556.075	1199.09
556.279	1142.9
556.483	1128.95
556.686	1118.68
556.89	1134.76
557.094	1173.9
557.297	1101.24
557.501	1182.62
557.704	1078.57
557.908	1195.02
558.112	1097.37
558.315	1185.33
558.519	1107.06
558.722	1122.56
558.926	1136.51
559.129	1094.07
559.333	1081.87
559.536	1059.59
559.74	1035.56
559.943	1069.66
560.147	1053
560.35	1099.31
560.553	1111.32
560.757	1030.33
560.96	1156.46
561.164	1104.73
561.367	1159.17
561.57	1089.04
561.774	1158.4
561.977	1070.63
562.18	1073.15
562.384	1164.99
562.587	1120.04
562.79	1060.56
562.993	1097.17
563.197	1115.39
563.4	1151.42
563.603	1169.83
563.806	1206.06
564.009	1067.14
564.212	1101.82
564.416	1043.51
564.619	1096.01
564.822	1062.88
565.025	1144.25
565.228	1072.57
565.431	1076.83
565.634	1011.54
565.837	1041.96
566.04	1049.9
566.243	1049.32
566.446	953.61
566.649	1067.72
566.852	1029.36
567.055	1043.51
567.258	1073.73
567.461	1115
567.664	1082.84
567.867	1018.32
568.07	1083.03
568.273	1069.66
568.475	1102.41
568.678	1038.86
568.881	1007.47
569.084	1004.37
569.287	959.42
569.489	1000.69
569.692	1058.23
569.895	1034.4
570.098	947.8
570.3	976.66
570.503	914.47
570.706	952.83
570.909	951.86
571.111	947.21
571.314	932.3
571.516	956.51
571.719	974.92
571.922	924.35
572.124	948.57
572.327	972.79
572.529	885.41
572.732	896.06
572.935	942.18
573.137	1024.71
573.34	956.71
573.542	1002.24
573.745	959.23
573.947	948.57
574.15	941.4
574.352	936.56
574.554	992.36
574.757	952.83
574.959	936.17
575.162	874.37
575.364	916.21
575.566	1039.24
575.769	916.99
575.971	914.28
576.173	867.58
576.376	887.73
576.578	943.53
576.78	933.46
576.982	846.66
577.185	918.35
577.387	875.92
577.589	874.56
577.791	904.78
577.993	921.64
578.196	868.55
578.398	925.9
578.6	932.49
578.802	864.48
579.004	861.19
579.206	854.02
579.408	904.59
579.61	876.11
579.812	936.17
580.014	885.21
580.216	861.97
580.418	906.14
580.62	871.65
580.822	850.15
581.024	895.48
581.226	925.9
581.428	896.45
581.63	960.78
581.832	876.5
582.034	930.94
582.236	890.25
582.438	909.63
582.64	957.87
582.841	970.66
583.043	986.74
583.245	912.53
583.447	924.35
583.649	919.9
583.85	897.81
584.052	976.86
584.254	901.49
584.456	953.41
584.657	819.15
584.859	909.82
585.061	889.86
585.262	875.33
585.464	876.11
585.666	946.05
585.867	843.17
586.069	957.87
586.27	907.11
586.472	892.58
586.674	834.07
586.875	854.8
587.077	877.66
587.278	895.87
587.48	884.44
587.681	981.7
587.883	897.81
588.084	821.86
588.285	886.38
588.487	865.26
588.688	858.67
588.89	807.13
589.091	796.87
589.292	811.78
589.494	767.03
589.695	767.03
589.896	736.03
590.098	714.72
590.299	780.59
590.5	739.9
590.702	765.29
590.903	820.31
591.104	858.67
591.305	826.32
591.507	852.47
591.708	797.45
591.909	803.65
592.11	885.41
592.311	831.35
592.512	813.72
592.714	753.08
592.915	766.25
593.116	792.99
593.317	798.22
593.518	818.37
593.719	768.97
593.92	834.65
594.121	856.93
594.322	794.35
594.523	795.32
594.724	760.05
594.925	759.67
595.126	799
595.327	830
595.528	808.3
595.729	836.58
595.929	784.85
596.13	804.62
596.331	836.2
596.532	812.37
596.733	853.25
596.934	823.6
597.135	843.95
597.335	853.83
597.536	765.29
597.737	822.25
597.938	774.2
598.138	841.82
598.339	791.44
598.54	823.8
598.74	807.13
598.941	806.36
599.142	850.34
599.342	822.63
599.543	772.26
599.744	782.34
599.944	822.63
600.145	787.18
600.345	835.42
600.546	872.23
600.746	814.3
600.947	901.1
601.147	851.31
601.348	867.2
601.548	780.79
601.749	810.23
601.949	762.96
602.15	782.92
602.35	787.37
602.551	848.98
602.751	757.92
602.951	765.48
603.152	696.7
603.352	820.7
603.552	782.34
603.753	825.15
603.953	808.49
604.153	824.96
604.354	815.47
604.554	817.6
604.754	800.35
604.954	758.89
605.155	805
605.355	799.38
605.555	850.73
605.755	862.55
605.955	792.02
606.155	858.48
606.356	810.82
606.556	822.63
606.756	858.48
606.956	780.2
607.156	850.53
607.356	771.87
607.556	812.75
607.756	813.92
607.956	809.85
608.156	785.82
608.356	785.44
608.556	838.33
608.756	805
608.956	769.55
609.156	804.42
609.356	736.8
609.556	773.81
609.755	800.16
609.955	774.39
610.155	779.62
610.355	796.87
610.555	768.58
610.755	790.86
610.954	728.67
611.154	765.09
611.354	833.29
611.554	751.53
611.753	772.26
611.953	718.2
612.153	790.86
612.352	784.08
612.552	698.25
612.752	711.42
612.951	767.61
613.151	767.22
613.351	709.68
613.55	747.07
613.75	758.12
613.949	732.54
614.149	750.75
614.348	741.07
614.548	730.22
614.747	662.99
614.947	736.03
615.146	723.24
615.346	792.22
615.545	721.69
615.745	771.49
615.944	750.75
616.144	757.92
616.343	787.95
616.542	722.66
616.742	759.86
616.941	703.29
617.14	651.17
617.34	744.36
617.539	717.43
617.738	700.57
617.938	755.02
618.137	710.65
618.336	681.01
618.535	714.14
618.734	706.97
618.934	735.64
619.133	699.02
619.332	711.62
619.531	695.34
619.73	737.39
619.929	774.39
620.128	746.3
620.328	774
620.527	707.94
620.726	705.22
620.925	753.27
621.124	711.62
621.323	744.36
621.522	689.34
621.721	663.57
621.92	656.4
622.119	748.24
622.318	664.92
622.517	708.71
622.715	693.6
622.914	662.21
623.113	682.36
623.312	632.18
623.511	687.98
623.71	674.03
623.909	678.68
624.107	763.15
624.306	666.28
624.505	666.09
624.704	653.69
624.902	661.44
