Data from pine_FLMT105791__16__17-19-50-080.txt Node

Date: Mon Mar 20 17:19:50 GMT 2023
User: antho
Spectrometer: FLMT10579
Trigger mode: 0
Integration Time (sec): 1.000000E-1
Scans to average: 10
Electric dark correction enabled: true
Nonlinearity correction enabled: false
Boxcar width: 0
XAxis mode: Wavelengths
Number of Pixels in Spectrum: 3648
>>>>>Begin Spectral Data<<<<<
345.248	-166.24
345.464	-166.24
345.681	-166.24
345.898	-149.19
346.114	-134.07
346.331	-29.26
346.548	12.4
346.764	20.34
346.981	11.24
347.197	-11.82
347.414	23.83
347.631	-30.81
347.847	51.54
348.064	-6.39
348.28	2.91
348.497	-39.52
348.713	-4.46
348.93	27.32
349.146	26.16
349.363	-13.37
349.579	25.96
349.796	11.04
350.012	-24.8
350.229	34.1
350.445	-7.36
350.661	-15.89
350.878	-0
351.094	-9.49
351.311	20.54
351.527	17.24
351.743	-2.91
351.96	30.03
352.176	41.46
352.392	13.37
352.609	33.91
352.825	-20.54
353.041	23.64
353.257	0.77
353.474	7.36
353.69	26.35
353.906	19.57
354.122	-28.67
354.339	54.83
354.555	6.97
354.771	-7.56
354.987	43.01
355.203	55.99
355.42	9.3
355.636	-5.42
355.852	8.33
356.068	8.91
356.284	-21.89
356.5	68.2
356.716	13.76
356.932	-5.23
357.148	36.04
357.364	3.49
357.58	55.41
357.796	53.67
358.012	29.26
358.228	46.89
358.444	-35.26
358.66	61.81
358.876	23.25
359.092	11.43
359.308	33.52
359.524	22.28
359.74	-4.07
359.956	6.78
360.172	8.33
360.388	43.01
360.604	-3.49
360.819	84.09
361.035	11.04
361.251	47.08
361.467	9.88
361.683	23.25
361.898	32.94
362.114	31.58
362.33	1.74
362.546	58.32
362.762	-8.33
362.977	28.67
363.193	-9.11
363.409	33.32
363.624	-19.37
363.84	-36.23
364.056	-6.2
364.271	30.81
364.487	22.86
364.703	8.52
364.918	-26.74
365.134	-2.13
365.35	0.58
365.565	120.7
365.781	31.19
365.996	36.23
366.212	97.84
366.427	28.09
366.643	-11.82
366.858	-10.46
367.074	-18.41
367.289	45.53
367.505	120.12
367.72	-6.39
367.936	8.52
368.151	13.76
368.367	40.3
368.582	8.14
368.798	29.06
369.013	47.86
369.228	26.54
369.444	22.09
369.659	57.93
369.874	30.03
370.09	33.52
370.305	-28.48
370.52	13.95
370.736	72.46
370.951	6.59
371.166	47.27
371.381	92.22
371.597	38.94
371.812	0.77
372.027	-26.74
372.242	31.77
372.458	84.47
372.673	11.43
372.888	12.21
373.103	14.14
373.318	103.85
373.533	43.98
373.749	35.46
373.964	6.39
374.179	63.94
374.394	-2.71
374.609	95.71
374.824	-21.89
375.039	72.85
375.254	-9.11
375.469	74.59
375.684	19.57
375.899	39.52
376.114	20.92
376.329	26.93
376.544	52.31
376.759	61.61
376.974	-12.98
377.189	6.59
377.404	11.04
377.619	66.84
377.834	-33.52
378.049	-21.51
378.264	-44.56
378.478	42.62
378.693	-13.76
378.908	47.86
379.123	7.94
379.338	50.96
379.553	47.08
379.767	21.7
379.982	54.44
380.197	63.55
380.412	9.88
380.626	52.12
380.841	82.34
381.056	42.24
381.271	86.02
381.485	-10.85
381.7	25.19
381.915	39.14
382.129	2.13
382.344	33.32
382.559	9.49
382.773	70.52
382.988	-36.62
383.202	37.78
383.417	-4.26
383.632	113.73
383.846	17.63
384.061	33.71
384.275	15.89
384.49	43.98
384.704	56.96
384.919	51.34
385.133	24.22
385.348	43.79
385.562	-2.52
385.777	73.82
385.991	25.77
386.206	27.71
386.42	23.25
386.634	94.55
386.849	11.04
387.063	47.66
387.277	13.76
387.492	6.39
387.706	10.27
387.92	-9.69
388.135	48.82
388.349	68.97
388.563	58.12
388.778	20.15
388.992	77.69
389.206	56.57
389.42	100.36
389.635	23.06
389.849	62.39
390.063	77.11
390.277	16.27
390.491	80.99
390.706	38.94
390.92	79.44
391.134	47.86
391.348	61.42
391.562	-10.85
391.776	35.26
391.99	-6.01
392.205	73.24
392.419	-9.49
392.633	35.46
392.847	73.43
393.061	6.78
393.275	101.52
393.489	36.04
393.703	41.66
393.917	81.76
394.131	10.85
394.345	52.7
394.559	53.86
394.773	10.85
394.986	38.56
395.2	30.22
395.414	68.01
395.628	7.36
395.842	54.44
396.056	34.1
396.27	-16.66
396.484	64.91
396.697	43.79
396.911	86.8
397.125	63.74
397.339	98.81
397.553	67.23
397.766	94.16
397.98	61.42
398.194	82.34
398.408	36.42
398.621	53.09
398.835	74.01
399.049	35.46
399.262	124.39
399.476	68.59
399.69	75.76
399.903	125.16
400.117	15.69
400.331	61.81
400.544	35.84
400.758	177.28
400.971	72.85
401.185	64.32
401.398	34.1
401.612	82.54
401.826	81.76
402.039	82.15
402.253	34.29
402.466	85.44
402.68	52.12
402.893	37.2
403.106	78.66
403.32	35.07
403.533	59.09
403.747	76.53
403.96	79.05
404.174	84.86
404.387	24.8
404.6	65.49
404.814	119.15
405.027	72.07
405.24	76.14
405.454	60.45
405.667	117.6
405.88	-0.58
406.094	87.38
406.307	126.32
406.52	80.6
406.733	39.52
406.947	24.61
407.16	131.17
407.373	112.18
407.586	41.66
407.799	39.33
408.012	99.2
408.226	93.58
408.439	120.7
408.652	28.48
408.865	84.28
409.078	121.48
409.291	93.39
409.504	19.57
409.717	82.54
409.93	96.68
410.143	76.14
410.357	45.14
410.57	15.11
410.783	67.62
410.996	80.79
411.209	65.68
411.421	105.59
411.634	62.19
411.847	28.48
412.06	80.41
412.273	61.61
412.486	77.89
412.699	161.39
412.912	72.46
413.125	119.35
413.338	90.09
413.55	126.71
413.763	85.64
413.976	108.69
414.189	63.55
414.402	83.51
414.615	131.55
414.827	41.85
415.04	119.54
415.253	114.5
415.466	117.02
415.678	166.24
415.891	89.7
416.104	68.59
416.316	111.21
416.529	81.76
416.742	104.24
416.954	121.87
417.167	85.44
417.38	98.42
417.592	136.4
417.805	79.44
418.017	71.69
418.23	135.62
418.442	81.76
418.655	82.54
418.868	91.06
419.08	148.99
419.293	142.6
419.505	120.9
419.718	142.21
419.93	143.76
420.142	94.16
420.355	131.94
420.567	151.9
420.78	99.2
420.992	80.6
421.205	132.33
421.417	78.66
421.629	84.28
421.842	56.77
422.054	63.16
422.266	125.35
422.479	152.87
422.691	96.1
422.903	131.75
423.115	80.99
423.328	86.8
423.54	125.94
423.752	102.49
423.964	88.35
424.177	106.17
424.389	108.69
424.601	217
424.813	119.74
425.025	151.7
425.238	149.19
425.45	99.97
425.662	105.59
425.874	415.98
426.086	125.16
426.298	148.99
426.51	150.35
426.722	122.84
426.934	129.81
427.146	156.55
427.358	105.4
427.57	162.94
427.782	118.38
427.994	107.72
428.206	107.72
428.418	112.95
428.63	149.19
428.842	187.55
429.054	145.31
429.266	138.72
429.478	121.67
429.69	150.35
429.902	85.64
430.114	163.91
430.325	136.4
430.537	111.79
430.749	120.12
430.961	87.19
431.173	119.93
431.384	143.76
431.596	81.57
431.808	144.54
432.02	154.61
432.231	183.87
432.443	218.74
432.655	167.4
432.867	114.5
433.078	172.44
433.29	246.06
433.502	169.72
433.713	195.49
433.925	153.84
434.136	213.9
434.348	120.51
434.56	91.45
434.771	247.61
434.983	151.12
435.194	164.1
435.406	134.85
435.617	220.48
435.829	261.95
436.04	210.8
436.252	228.04
436.463	242.38
436.675	235.6
436.886	190.65
437.098	193.94
437.309	256.52
437.521	186
437.732	243.54
437.943	223.97
438.155	233.08
438.366	150.93
438.578	255.75
438.789	207.31
439	230.37
439.211	198.4
439.423	240.25
439.634	220.1
439.845	234.63
440.057	214.28
440.268	243.73
440.479	197.04
440.69	225.52
440.902	209.05
441.113	216.03
441.324	211.18
441.535	233.08
441.746	294.11
441.957	224.75
442.168	196.85
442.38	217.38
442.591	255.36
442.802	209.05
443.013	225.13
443.224	237.53
443.435	235.79
443.646	232.11
443.857	232.88
444.068	228.23
444.279	221.84
444.49	299.73
444.701	263.11
444.912	341.77
445.123	292.95
445.334	270.47
445.545	260.2
445.756	257.68
445.967	233.27
446.178	261.56
446.388	304.76
446.599	275.12
446.81	260.2
447.021	256.13
447.232	288.68
447.443	330.73
447.653	240.25
447.864	339.83
448.075	294.88
448.286	305.35
448.496	303.02
448.707	312.13
448.918	271.05
449.129	369.48
449.339	252.26
449.55	314.84
449.761	296.63
449.971	356.88
450.182	289.65
450.393	323.56
450.603	293.33
450.814	334.21
451.024	314.06
451.235	340.61
451.446	361.34
451.656	378.39
451.867	332.86
452.077	307.67
452.288	344.87
452.498	346.03
452.709	303.99
452.919	344.1
453.13	298.37
453.34	345.06
453.55	266.01
453.761	359.01
453.971	331.5
454.182	350.68
454.392	329.76
454.602	386.33
454.813	377.42
455.023	347
455.233	301.08
455.444	328.21
455.654	283.06
455.864	340.22
456.075	329.76
456.285	310.38
456.495	318.91
456.705	319.49
456.916	385.36
457.126	388.27
457.336	373.74
457.546	280.55
457.756	339.83
457.967	384.39
458.177	328.01
458.387	368.7
458.597	299.53
458.807	337.31
459.017	330.73
459.227	352.04
459.437	344.48
459.647	402.41
459.857	361.53
460.068	318.13
460.278	395.24
460.488	378.58
460.698	430.12
460.908	377.61
461.117	322.01
461.327	344.68
461.537	381.88
461.747	373.16
461.957	347.97
462.167	480.69
462.377	397.57
462.587	369.09
462.797	391.56
463.007	381.1
463.216	411.52
463.426	439.03
463.636	442.13
463.846	365.21
464.056	363.28
464.265	418.88
464.475	364.83
464.685	383.23
464.895	404.74
465.104	387.88
465.314	422.37
465.524	372.96
465.733	391.37
465.943	429.93
466.153	432.44
466.362	414.62
466.572	427.21
466.782	402.22
466.991	395.63
467.201	443.1
467.41	359.59
467.62	424.11
467.829	410.16
468.039	421.79
468.249	417.14
468.458	407.06
468.668	440.77
468.877	469.64
469.086	482.43
469.296	480.3
469.505	446.97
469.715	519.44
469.924	453.37
470.134	478.17
470.343	491.73
470.552	423.73
470.762	451.62
470.971	402.61
471.18	483.98
471.39	454.14
471.599	417.72
471.808	473.52
472.018	427.79
472.227	517.11
472.436	508.78
472.645	493.86
472.855	483.21
473.064	540.94
473.273	501.42
473.482	519.82
473.691	552.76
473.901	515.76
474.11	486.11
474.319	565.16
474.528	506.65
474.737	541.14
474.946	508.97
475.155	529.51
475.364	575.62
475.573	546.37
475.783	530.29
475.992	548.5
476.201	575.43
476.41	491.34
476.619	510.72
476.828	541.52
477.037	502.58
477.245	505.49
477.454	556.64
477.663	532.42
477.872	565.94
478.081	598.87
478.29	531.84
478.499	661.07
478.708	575.43
478.917	644.02
479.125	557.02
479.334	609.53
479.543	582.4
479.752	645.18
479.961	599.84
480.169	634.52
480.378	593.25
480.587	743.6
480.796	652.54
481.004	624.83
481.213	651.18
481.422	614.76
481.63	670.75
481.839	625.61
482.048	712.6
482.256	657.58
482.465	678.12
482.674	681.22
482.882	717.06
483.091	729.85
483.299	670.56
483.508	679.86
483.716	663.2
483.925	712.6
484.134	687.42
484.342	678.31
484.551	717.25
484.759	717.45
484.967	731.98
485.176	730.43
485.384	732.95
485.593	748.45
485.801	747.67
486.01	688
486.218	670.17
486.426	622.7
486.635	627.55
486.843	618.05
487.051	672.5
487.26	632.39
487.468	702.72
487.676	735.27
487.885	679.86
488.093	740.11
488.301	729.26
488.509	727.13
488.717	756.2
488.926	724.23
489.134	747.86
489.342	743.8
489.55	712.8
489.758	773.44
489.967	757.16
490.175	862.37
490.383	760.46
490.591	862.18
490.799	787.39
491.007	856.56
491.215	802.89
491.423	798.04
491.631	805.79
491.839	803.86
492.047	861.98
492.255	757.55
492.463	728.3
492.671	788.74
492.879	823.23
493.087	805.6
493.295	832.92
493.503	861.79
493.711	867.41
493.919	895.11
494.127	882.52
494.334	896.27
494.542	820.13
494.75	846.68
494.958	870.51
495.166	909.84
495.374	884.46
495.581	885.81
495.789	881.94
495.997	921.66
496.205	864.5
496.412	880.97
496.62	857.53
496.828	865.86
497.035	860.63
497.243	915.26
497.451	883.68
497.658	878.64
497.866	904.02
498.074	984.82
498.281	866.63
498.489	968.54
498.696	912.74
498.904	866.24
499.112	866.63
499.319	988.69
499.527	917.78
499.734	969.7
499.942	871.67
500.149	914.68
500.357	911
500.564	879.61
500.771	939.67
500.979	890.66
501.186	860.43
501.394	921.27
501.601	902.28
501.808	938.51
502.016	901.7
502.223	890.27
502.43	924.56
502.638	920.3
502.845	880.77
503.052	1041
503.26	923.01
503.467	1009.04
503.674	942
503.881	972.61
504.089	1050.88
504.296	960.6
504.503	911.77
504.71	942
504.917	932.51
505.125	978.23
505.332	951.11
505.539	972.42
505.746	1030.93
505.953	1051.47
506.16	1000.12
506.367	1081.3
506.574	1075.49
506.781	1068.32
506.988	994.7
507.195	1034.22
507.402	1023.95
507.609	1037.9
507.816	1015.62
508.023	997.8
508.23	1009.62
508.437	964.86
508.644	1039.65
508.851	1090.8
509.058	1084.21
509.265	1040.81
509.472	1055.34
509.679	1138.65
509.885	1050.3
510.092	1061.35
510.299	1067.93
510.506	1072.97
510.713	1074.72
510.92	1089.25
511.126	1098.16
511.333	1147.37
511.54	1102.62
511.746	1145.63
511.953	1137.88
512.16	1152.21
512.367	1079.95
512.573	1090.99
512.78	1107.46
512.987	1066
513.193	1115.98
513.4	1048.37
513.606	1091.18
513.813	1126.06
514.02	1117.73
514.226	1182.44
514.433	1170.04
514.639	1111.14
514.846	1112.69
515.052	1103
515.259	1140.2
515.465	1142.72
515.672	1124.9
515.878	1208.4
516.085	1148.34
516.291	1176.63
516.497	1151.44
516.704	1112.11
516.91	1061.93
517.117	1065.22
517.323	1003.03
517.529	1044.69
517.736	1053.79
517.942	1037.52
518.148	1075.3
518.354	1092.73
518.561	1112.88
518.767	1096.8
518.973	1165.78
519.179	1171.01
519.386	1115.6
519.592	1113.27
519.798	1164.81
520.004	1253.35
520.21	1209.95
520.417	1240.37
520.623	1240.56
520.829	1245.6
521.035	1271.37
521.241	1276.99
521.447	1266.72
521.653	1357.2
521.859	1242.5
522.065	1290.94
522.271	1381.61
522.477	1325.62
522.683	1357.01
522.889	1295.2
523.095	1299.08
523.301	1332.4
523.507	1241.73
523.713	1350.42
523.919	1287.45
524.125	1373.47
524.331	1323.29
524.537	1424.62
524.742	1377.35
524.948	1390.72
525.154	1401.57
525.36	1512
525.566	1426.75
525.772	1430.24
525.977	1359.91
526.183	1411.45
526.389	1434.5
526.595	1347.9
526.8	1357.78
527.006	1282.03
527.212	1271.56
527.417	1225.64
527.623	1278.93
527.829	1365.72
528.034	1348.09
528.24	1351.39
528.446	1374.06
528.651	1459.3
528.857	1409.7
529.062	1496.12
529.268	1446.52
529.473	1485.27
529.679	1446.71
529.884	1518.78
530.09	1506.19
530.295	1541.07
530.501	1537
530.706	1515.3
530.912	1480.62
531.117	1487.98
531.323	1476.55
531.528	1536.61
531.733	1533.32
531.939	1497.67
532.144	1550.37
532.35	1523.24
532.555	1514.72
532.76	1530.22
532.966	1507.55
533.171	1524.79
533.376	1451.36
533.581	1471.32
533.787	1470.54
533.992	1528.67
534.197	1531.57
534.402	1554.05
534.607	1502.32
534.813	1607.52
535.018	1516.65
535.223	1553.66
535.428	1551.53
535.633	1588.15
535.838	1591.05
536.043	1616.82
536.249	1650.73
536.454	1605.58
536.659	1608.68
536.864	1543.78
537.069	1553.08
537.274	1598.8
537.479	1609.07
537.684	1587.56
537.889	1512.97
538.094	1657.12
538.299	1602.29
538.504	1643.17
538.708	1626.51
538.913	1609.85
539.118	1612.75
539.323	1617.79
539.528	1552.5
539.733	1534.28
539.938	1614.11
540.142	1635.42
540.347	1572.26
540.552	1560.25
540.757	1529.63
540.962	1548.23
541.166	1514.33
541.371	1530.22
541.576	1557.92
541.781	1478.1
541.985	1614.5
542.19	1580.59
542.395	1622.63
542.599	1679.01
542.804	1632.13
543.008	1691.8
543.213	1610.04
543.418	1562.18
543.622	1654.8
543.827	1565.28
544.031	1637.94
544.236	1705.17
544.44	1683.47
544.645	1745.66
544.849	1616.24
545.054	1684.83
545.258	1746.05
545.463	1700.71
545.667	1590.86
545.872	1671.07
546.076	1687.54
546.281	1674.56
546.485	1618.76
546.689	1667.97
546.894	1660.8
547.098	1666.81
547.302	1652.66
547.507	1662.54
547.711	1691.8
547.915	1729.19
548.119	1635.03
548.324	1664.87
548.528	1703.23
548.732	1691.03
548.936	1710.4
549.141	1745.28
549.345	1680.37
549.549	1736.94
549.753	1755.74
549.957	1789.06
550.161	1792.74
550.366	1733.07
550.57	1687.15
550.774	1698.39
550.978	1673.59
551.182	1750.89
551.386	1667.97
551.59	1703.81
551.794	1699.36
551.998	1714.47
552.202	1712.53
552.406	1690.06
552.61	1715.44
552.814	1722.61
553.018	1742.95
553.222	1722.61
553.426	1707.88
553.63	1817.54
553.833	1695.87
554.037	1650.15
554.241	1719.31
554.445	1716.41
554.649	1740.24
554.853	1706.72
555.056	1740.63
555.26	1788.09
555.464	1694.32
555.668	1731.52
555.871	1741.98
556.075	1764.26
556.279	1698
556.483	1636
556.686	1694.32
556.89	1716.99
557.094	1723.38
557.297	1634.06
557.501	1715.63
557.704	1608.3
557.908	1712.73
558.112	1600.93
558.315	1730.94
558.519	1654.6
558.722	1660.99
558.926	1629.03
559.129	1566.45
559.333	1581.56
559.536	1568.38
559.74	1555.98
559.943	1536.42
560.147	1547.46
560.35	1607.33
560.553	1569.55
560.757	1542.03
560.96	1665.26
561.164	1578.85
561.367	1660.41
561.57	1654.41
561.774	1655.96
561.977	1619.15
562.18	1578.26
562.384	1716.99
562.587	1594.54
562.79	1601.32
562.993	1627.86
563.197	1665.84
563.4	1667
563.603	1654.41
563.806	1710.79
564.009	1583.5
564.212	1610.81
564.416	1573.03
564.619	1643.75
564.822	1569.93
565.025	1631.93
565.228	1556.18
565.431	1605.97
565.634	1506.58
565.837	1545.91
566.04	1530.99
566.243	1549.59
566.446	1452.52
566.649	1588.15
566.852	1497.47
567.055	1518.4
567.258	1558.7
567.461	1601.51
567.664	1613.53
567.867	1490.11
568.07	1554.43
568.273	1552.3
568.475	1599
568.678	1514.52
568.881	1502.12
569.084	1507.93
569.287	1419.2
569.489	1490.69
569.692	1487.2
569.895	1529.44
570.098	1450.97
570.3	1429.27
570.503	1389.36
570.706	1404.28
570.909	1453.49
571.111	1361.46
571.314	1351.77
571.516	1413.19
571.719	1426.37
571.922	1428.89
572.124	1402.15
572.327	1443.8
572.529	1359.14
572.732	1356.62
572.935	1441.87
573.137	1469.38
573.34	1423.85
573.542	1444.19
573.745	1426.37
573.947	1436.64
574.15	1407.57
574.352	1385.1
574.554	1443.61
574.757	1330.85
574.959	1349.45
575.162	1322.71
575.364	1351.77
575.566	1448.45
575.769	1348.67
575.971	1388.78
576.173	1263.04
576.376	1354.29
576.578	1378.12
576.78	1428.3
576.982	1286.87
577.185	1361.85
577.387	1321.36
577.589	1301.79
577.791	1356.81
577.993	1363.59
578.196	1314.77
578.398	1341.89
578.6	1394.4
578.802	1263.43
579.004	1282.22
579.206	1336.08
579.408	1349.64
579.61	1305.47
579.812	1339.96
580.014	1280.09
580.216	1338.41
580.418	1339.76
580.62	1334.72
580.822	1284.74
581.024	1324.65
581.226	1376.57
581.428	1329.49
581.63	1397.31
581.832	1307.41
582.034	1350.61
582.236	1348.09
582.438	1366.69
582.64	1374.64
582.841	1415.71
583.043	1448.65
583.245	1328.52
583.447	1377.54
583.649	1356.42
583.85	1380.45
584.052	1418.23
584.254	1322.52
584.456	1404.47
584.657	1317.87
584.859	1357.2
585.061	1323.68
585.262	1319.61
585.464	1290.74
585.666	1386.84
585.867	1292.88
586.069	1394.79
586.27	1332.79
586.472	1312.25
586.674	1292.29
586.875	1290.74
587.077	1288.42
587.278	1328.52
587.48	1317.67
587.681	1428.69
587.883	1321.16
588.084	1240.37
588.285	1297.33
588.487	1274.08
588.688	1291.71
588.89	1207.43
589.091	1198.52
589.292	1232.81
589.494	1154.93
589.695	1147.56
589.896	1066.97
590.098	1097.77
590.299	1143.5
590.5	1095.64
590.702	1141.75
590.903	1174.5
591.104	1255.29
591.305	1239.79
591.507	1258.78
591.708	1218.48
591.909	1204.91
592.11	1290.74
592.311	1270.59
592.512	1192.9
592.714	1132.65
592.915	1194.84
593.116	1171.2
593.317	1243.47
593.518	1182.63
593.719	1188.83
593.92	1218.48
594.121	1292.88
594.322	1228.36
594.523	1189.03
594.724	1149.89
594.925	1183.8
595.126	1180.5
595.327	1203.56
595.528	1223.71
595.729	1202.78
595.929	1226.23
596.13	1188.06
596.331	1184.57
596.532	1194.45
596.733	1270.4
596.934	1241.92
597.135	1231.84
597.335	1217.7
597.536	1203.56
597.737	1192.71
597.938	1121.99
598.138	1240.56
598.339	1180.5
598.54	1208.01
598.74	1190.38
598.941	1196.58
599.142	1259.74
599.342	1235.72
599.543	1188.83
599.744	1168.49
599.944	1212.86
600.145	1201.81
600.345	1182.83
600.546	1285.32
600.746	1260.13
600.947	1304.31
601.147	1223.9
601.348	1291.91
601.548	1211.89
601.749	1214.41
601.949	1176.43
602.15	1172.56
602.35	1198.91
602.551	1237.08
602.751	1146.79
602.951	1169.46
603.152	1154.93
603.352	1224.29
603.552	1199.88
603.753	1241.53
603.953	1243.86
604.153	1229.71
604.354	1220.61
604.554	1210.34
604.754	1180.31
604.954	1191.93
605.155	1242.89
605.355	1194.84
605.555	1229.71
605.755	1241.92
605.955	1187.48
606.155	1253.74
606.356	1226.81
606.556	1217.31
606.756	1253.54
606.956	1166.55
607.156	1226.61
607.356	1203.95
607.556	1208.98
607.756	1197.75
607.956	1257.61
608.156	1180.5
608.356	1171.2
608.556	1212.47
608.756	1196.97
608.956	1128.19
609.156	1183.21
609.356	1139.23
609.556	1146.21
609.755	1187.86
609.955	1134.78
610.155	1161.51
610.355	1162.1
610.555	1145.43
610.755	1153.18
610.954	1084.6
611.154	1164.61
611.354	1186.7
611.554	1168.68
611.753	1127.61
611.953	1127.8
612.153	1176.24
612.352	1137.49
612.552	1082.47
612.752	1050.3
612.951	1119.67
613.151	1147.95
613.351	1110.17
613.55	1116.18
613.75	1143.88
613.949	1105.33
614.149	1131.87
614.348	1076.65
614.548	1092.15
614.747	1063.87
614.947	1069.68
615.146	1067.35
615.346	1128.38
615.545	1097.97
615.745	1092.93
615.944	1132.65
616.144	1096.42
616.343	1126.45
616.542	1070.07
616.742	1080.92
616.941	1065.22
617.14	996.25
617.34	1058.25
617.539	1036.55
617.738	1039.84
617.938	1111.33
618.137	1080.14
618.336	1028.22
618.535	1107.65
