Data from pine_FLMT105791__172__17-23-26-073.txt Node

Date: Mon Mar 20 17:23:26 GMT 2023
User: antho
Spectrometer: FLMT10579
Trigger mode: 0
Integration Time (sec): 1.000000E-1
Scans to average: 10
Electric dark correction enabled: true
Nonlinearity correction enabled: false
Boxcar width: 0
XAxis mode: Wavelengths
Number of Pixels in Spectrum: 3648
>>>>>Begin Spectral Data<<<<<
345.248	-171.93
345.464	-171.93
345.681	-171.93
345.898	-176.97
346.114	-175.62
346.331	-44.45
346.548	43.51
346.764	-13.45
346.981	-7.44
347.197	-5.7
347.414	33.24
347.631	-15.39
347.847	31.31
348.064	-14.61
348.28	10.19
348.497	-36.7
348.713	19.49
348.93	20.84
349.146	31.31
349.363	-12.67
349.579	11.16
349.796	9.41
350.012	-8.02
350.229	1.86
350.445	4.76
350.661	-25.85
350.878	-22.75
351.094	-10.54
351.311	10.77
351.527	18.33
351.743	-13.45
351.96	32.47
352.176	31.89
352.392	27.63
352.609	32.28
352.825	-18.87
353.041	12.32
353.257	-13.06
353.474	-20.23
353.69	21.04
353.906	-7.64
354.122	-15.58
354.339	39.06
354.555	-13.84
354.771	-28.37
354.987	59.21
355.203	62.69
355.42	-7.06
355.636	3.6
355.852	-20.04
356.068	10.19
356.284	-32.63
356.5	39.64
356.716	-17.91
356.932	17.74
357.148	12.32
357.364	3.99
357.58	37.89
357.796	34.99
358.012	29.76
358.228	17.16
358.444	-68.47
358.66	39.06
358.876	40.99
359.092	6.31
359.308	-2.41
359.524	18.91
359.74	-28.76
359.956	-16.94
360.172	28.21
360.388	55.14
360.604	-15.39
360.819	57.07
361.035	14.45
361.251	37.51
361.467	-20.42
361.683	40.99
361.898	12.13
362.114	5.15
362.33	29.37
362.546	48.94
362.762	21.43
362.977	1.28
363.193	-22.17
363.409	25.88
363.624	-35.54
363.84	-15.19
364.056	-22.17
364.271	6.51
364.487	25.3
364.703	-10.74
364.918	-24.49
365.134	2.05
365.35	-15.97
365.565	78.39
365.781	27.43
365.996	11.74
366.212	49.91
366.427	18.33
366.643	-14.61
366.858	12.32
367.074	-10.93
367.289	41.77
367.505	71.99
367.72	-18.1
367.936	0.89
368.151	45.84
368.367	10.38
368.582	1.86
368.798	-26.43
369.013	67.54
369.228	9.03
369.444	17.55
369.659	41.38
369.874	14.26
370.09	37.7
370.305	-51.81
370.52	-25.07
370.736	57.46
370.951	4.38
371.166	53.97
371.381	59.21
371.597	8.06
371.812	-30.5
372.027	-30.89
372.242	5.34
372.458	83.04
372.673	-42.12
372.888	-4.92
373.103	5.93
373.318	85.75
373.533	29.18
373.749	19.88
373.964	-38.64
374.179	75.29
374.394	-39.02
374.609	55.91
374.824	-39.22
375.039	47.39
375.254	-33.21
375.469	67.34
375.684	31.31
375.899	51.46
376.114	-15.39
376.329	26.46
376.544	61.53
376.759	28.4
376.974	-35.73
377.189	-9.77
377.404	-19.07
377.619	50.49
377.834	-20.23
378.049	-59.37
378.264	-22.56
378.478	30.53
378.693	-34.18
378.908	31.69
379.123	4.18
379.338	33.24
379.553	28.01
379.767	4.57
379.982	32.47
380.197	29.37
380.412	6.7
380.626	6.7
380.841	74.9
381.056	-0.27
381.271	26.27
381.485	-35.34
381.7	-20.81
381.915	40.22
382.129	-6.47
382.344	34.6
382.559	-19.46
382.773	47.97
382.988	-20.81
383.202	10.77
383.417	-17.52
383.632	94.47
383.846	15.81
384.061	20.07
384.275	26.08
384.49	11.93
384.704	22.78
384.919	4.76
385.133	16.39
385.348	25.3
385.562	-14.61
385.777	38.67
385.991	-2.21
386.206	-0.27
386.42	-29.53
386.634	55.72
386.849	17.94
387.063	8.83
387.277	-37.67
387.492	-8.41
387.706	-8.99
387.92	-30.69
388.135	51.07
388.349	6.31
388.563	45.26
388.778	-10.16
388.992	9.03
389.206	60.37
389.42	78.97
389.635	2.24
389.849	29.95
390.063	53.97
390.277	3.41
390.491	73.74
390.706	37.51
390.92	30.53
391.134	32.08
391.348	17.94
391.562	-58.98
391.776	-13.64
391.99	-26.82
392.205	44.87
392.419	-26.43
392.633	-4.73
392.847	62.5
393.061	-4.54
393.275	77.42
393.489	7.28
393.703	31.69
393.917	68.89
394.131	14.26
394.345	36.92
394.559	36.54
394.773	12.51
394.986	38.28
395.2	32.47
395.414	47.77
395.628	-2.41
395.842	6.31
396.056	-10.74
396.27	-43.87
396.484	23.94
396.697	-5.7
396.911	79.74
397.125	26.66
397.339	52.62
397.553	21.04
397.766	66.76
397.98	34.41
398.194	46.22
398.408	-10.35
398.621	12.71
398.835	31.69
399.049	5.54
399.262	70.25
399.476	39.64
399.69	14.84
399.903	55.52
400.117	3.79
400.331	27.04
400.544	-6.86
400.758	122.37
400.971	8.44
401.185	34.6
401.398	2.63
401.612	53.39
401.826	18.13
402.039	48.55
402.253	-4.15
402.466	22.98
402.68	20.07
402.893	0.31
403.106	34.41
403.32	8.06
403.533	47.39
403.747	3.02
403.96	15.23
404.174	42.35
404.387	-40.38
404.6	44.87
404.814	47.77
405.027	8.25
405.24	34.41
405.454	15.81
405.667	78.19
405.88	-21.01
406.094	31.31
406.307	41.77
406.52	38.47
406.733	-23.91
406.947	-31.66
407.16	85.36
407.373	68.31
407.586	-0.66
407.799	-15.77
408.012	65.79
408.226	21.04
408.439	55.72
408.652	-37.09
408.865	40.22
409.078	51.46
409.291	22.98
409.504	-11.71
409.717	38.86
409.93	29.76
410.143	29.18
410.357	-28.17
410.57	-28.76
410.783	10.77
410.996	49.13
411.209	28.01
411.421	34.21
411.634	17.55
411.847	-26.43
412.06	28.98
412.273	21.23
412.486	16.58
412.699	91.95
412.912	27.04
413.125	60.17
413.338	28.01
413.55	12.9
413.763	23.94
413.976	9.61
414.189	-3.96
414.402	13.29
414.615	59.79
414.827	-29.72
415.04	70.83
415.253	3.79
415.466	45.45
415.678	54.36
415.891	19.1
416.104	20.26
416.316	-3.76
416.529	-28.56
416.742	43.12
416.954	43.9
417.167	0.69
417.38	-11.51
417.592	37.89
417.805	-17.71
418.017	-19.46
418.23	40.41
418.442	-5.31
418.655	18.33
418.868	26.85
419.08	31.89
419.293	64.82
419.505	19.49
419.718	16
419.93	59.79
420.142	-9.38
420.355	59.01
420.567	79.16
420.78	52.62
420.992	19.68
421.205	66.96
421.417	-28.76
421.629	8.06
421.842	-5.7
422.054	-40.77
422.266	48.94
422.479	63.66
422.691	15.61
422.903	59.01
423.115	7.28
423.328	13.68
423.54	47.97
423.752	22.01
423.964	-15.97
424.177	31.69
424.389	9.61
424.601	134.38
424.813	38.09
425.025	45.64
425.238	48.74
425.45	2.63
425.662	-5.7
425.874	332.2
426.086	10.38
426.298	40.61
426.51	52.42
426.722	9.61
426.934	3.6
427.146	46.03
427.358	-13.45
427.57	39.06
427.782	29.95
427.994	13.87
428.206	9.41
428.418	-26.04
428.63	41.96
428.842	10.77
429.054	13.09
429.266	69.67
429.478	-15.77
429.69	37.89
429.902	-9.77
430.114	50.1
430.325	38.09
430.537	29.18
430.749	23.56
430.961	-18.1
431.173	32.08
431.384	63.08
431.596	-46.77
431.808	17.55
432.02	45.06
432.231	38.09
432.443	41.96
432.655	37.7
432.867	-12.67
433.078	31.89
433.29	99.7
433.502	43.12
433.713	55.33
433.925	20.65
434.136	62.5
434.348	-35.34
434.56	-44.64
434.771	96.41
434.983	-11.9
435.194	-4.54
435.406	5.54
435.617	47.19
435.829	81.87
436.04	54.94
436.252	81.68
436.463	78.39
436.675	49.32
436.886	29.76
437.098	33.24
437.309	59.98
437.521	29.37
437.732	38.67
437.943	28.21
438.155	44.48
438.366	-41.35
438.578	96.79
438.789	58.43
439	73.16
439.211	22.98
439.423	36.54
439.634	64.82
439.845	47.39
440.057	37.7
440.268	71.02
440.479	-5.51
440.69	41.57
440.902	4.18
441.113	30.92
441.324	23.75
441.535	34.41
441.746	77.61
441.957	-9.57
442.168	25.11
442.38	58.43
442.591	51.84
442.802	7.67
443.013	-6.09
443.224	36.73
443.435	21.23
443.646	41.19
443.857	26.85
444.068	-8.8
444.279	18.33
444.49	91.76
444.701	31.69
444.912	127.4
445.123	63.66
445.334	44.09
445.545	59.79
445.756	31.31
445.967	-0.86
446.178	44.09
446.388	99.7
446.599	53.01
446.81	76.64
447.021	44.67
447.232	100.09
447.443	99.51
447.653	0.89
447.864	80.91
448.075	39.44
448.286	90.98
448.496	45.84
448.707	104.35
448.918	27.82
449.129	153.95
449.339	12.51
449.55	54.36
449.761	29.95
449.971	89.04
450.182	18.71
450.393	87.69
450.603	29.76
450.814	66.37
451.024	50.1
451.235	65.79
451.446	85.94
451.656	104.54
451.867	16.39
452.077	53.01
452.288	112.29
452.498	105.51
452.709	40.99
452.919	83.42
453.13	52.42
453.34	124.11
453.55	10.38
453.761	104.93
453.971	59.59
454.182	103.19
454.392	104.16
454.602	129.92
454.813	86.33
455.023	75.87
455.233	22.01
455.444	83.23
455.654	-17.91
455.864	62.69
456.075	30.73
456.285	14.45
456.495	52.04
456.705	89.82
456.916	92.14
457.126	141.35
457.336	82.46
457.546	9.03
457.756	44.87
457.967	103.96
458.177	52.04
458.387	80.71
458.597	39.64
458.807	58.62
459.017	49.52
459.227	43.9
459.437	33.83
459.647	83.23
459.857	100.09
460.068	50.68
460.278	86.33
460.488	105.71
460.698	109.39
460.908	60.17
461.117	7.48
461.327	7.09
461.537	61.34
461.747	75.29
461.957	67.34
462.167	159.37
462.377	83.62
462.587	69.09
462.797	106.48
463.007	53.59
463.216	77.42
463.426	116.94
463.636	85.36
463.846	23.17
464.056	50.29
464.265	102.22
464.475	28.98
464.685	81.1
464.895	86.72
465.104	82.26
465.314	102.02
465.524	60.56
465.733	57.07
465.943	135.54
466.153	132.05
466.362	107.26
466.572	64.82
466.782	82.46
466.991	83.42
467.201	123.72
467.41	25.3
467.62	88.46
467.829	65.99
468.039	67.34
468.249	80.52
468.458	62.31
468.668	94.47
468.877	114.81
469.086	134.38
469.296	93.5
469.505	49.52
469.715	117.52
469.924	111.13
470.134	134.19
470.343	114.23
470.552	62.11
470.762	82.26
470.971	31.5
471.18	97.76
471.39	82.07
471.599	71.8
471.808	120.04
472.018	18.71
472.227	123.92
472.436	125.85
472.645	41.96
472.855	45.06
473.064	95.82
473.273	77.42
473.482	97.37
473.691	137.48
473.901	115.97
474.11	82.65
474.319	165.57
474.528	109
474.737	134.96
474.946	116.36
475.155	102.8
475.364	128.57
475.573	112.49
475.783	72.77
475.992	117.52
476.201	121.59
476.41	62.89
476.619	70.64
476.828	114.81
477.037	85.17
477.245	97.57
477.454	140
477.663	73.74
477.872	91.95
478.081	136.32
478.29	33.83
478.499	149.3
478.708	84.01
478.917	156.27
479.125	116.56
479.334	120.43
479.543	88.66
479.752	83.62
479.961	128.37
480.169	152.2
480.378	75.67
480.587	211.3
480.796	133.41
481.004	112.49
481.213	118.49
481.422	101.25
481.63	96.21
481.839	134.57
482.048	163.83
482.256	120.62
482.465	81.1
482.674	132.25
482.882	124.69
483.091	179.72
483.299	107.26
483.508	123.14
483.716	106.67
483.925	133.6
484.134	86.52
484.342	110.36
484.551	155.11
484.759	140.97
484.967	128.76
485.176	154.14
485.384	137.67
485.593	151.04
485.801	136.51
486.01	141.35
486.218	136.7
486.426	80.71
486.635	141.16
486.843	109.97
487.051	118.49
487.26	104.35
487.468	160.92
487.676	165.19
487.885	104.74
488.093	143.68
488.301	138.06
488.509	138.64
488.717	137.67
488.926	139.61
489.134	119.46
489.342	130.31
489.55	105.12
489.758	145.42
489.967	76.45
490.175	233.38
490.383	100.09
490.591	184.95
490.799	72.77
491.007	177.39
491.215	136.12
491.423	136.7
491.631	127.6
491.839	113.84
492.047	180.69
492.255	140.39
492.463	118.49
492.671	163.64
492.879	177
493.087	143.87
493.295	156.27
493.503	156.85
493.711	154.72
493.919	205.68
494.127	156.47
494.334	208.39
494.542	129.34
494.75	143.68
494.958	156.85
495.166	158.79
495.374	157.44
495.581	167.12
495.789	152.59
495.997	184.75
496.205	118.69
496.412	145.04
496.62	127.21
496.828	182.04
497.035	123.92
497.243	182.82
497.451	120.62
497.658	150.85
497.866	167.7
498.074	194.83
498.281	120.82
498.489	205.49
498.696	180.1
498.904	164.02
499.112	143.68
499.319	202.19
499.527	175.84
499.734	203.35
499.942	115.2
500.149	129.15
500.357	168.09
500.564	129.15
500.771	161.12
500.979	149.3
501.186	139.61
501.394	157.82
501.601	168.67
501.808	186.5
502.016	160.54
502.223	167.12
502.43	188.63
502.638	205.1
502.845	124.5
503.052	255.08
503.26	159.95
503.467	229.12
503.674	152.79
503.881	178.55
504.089	261.28
504.296	194.44
504.503	156.66
504.71	158.99
504.917	140.58
505.125	184.75
505.332	198.51
505.539	180.69
505.746	214.2
505.953	209.75
506.16	187.85
506.367	208.78
506.574	225.83
506.781	226.99
506.988	146.2
507.195	176.23
507.402	176.23
507.609	205.1
507.816	171
508.023	190.57
508.23	161.89
508.437	156.85
508.644	207.23
508.851	254.7
509.058	229.12
509.265	174.68
509.472	202.19
509.679	273.3
509.885	191.34
510.092	187.66
510.299	174.29
510.506	199.09
510.713	227.18
510.92	213.04
511.126	227.18
511.333	246.75
511.54	222.92
511.746	285.12
511.953	244.82
512.16	233.19
512.367	193.86
512.573	214.59
512.78	219.05
512.987	204.71
513.193	194.05
513.4	126.05
513.606	217.88
513.813	208.39
514.02	206.65
514.226	286.28
514.433	274.65
514.639	164.02
514.846	243.07
515.052	182.43
515.259	203.35
515.465	201.03
515.672	227.18
515.878	296.55
516.085	209.75
516.291	234.55
516.497	159.57
516.704	230.67
516.91	198.51
517.117	209.55
517.323	182.62
517.529	221.18
517.736	223.89
517.942	221.95
518.148	181.27
518.354	211.88
518.561	245.59
518.767	220.21
518.973	260.32
519.179	250.24
519.386	174.1
519.592	209.55
519.798	220.98
520.004	261.67
520.21	207.42
520.417	241.13
520.623	260.51
520.829	244.04
521.035	240.75
521.241	254.5
521.447	256.05
521.653	353.31
521.859	245.59
522.065	257.41
522.271	329.29
522.477	305.46
522.683	303.71
522.889	261.48
523.095	275.82
523.301	273.68
523.507	254.89
523.713	278.53
523.919	210.33
524.125	280.08
524.331	227.57
524.537	314.18
524.742	269.81
524.948	285.12
525.154	287.83
525.36	384.9
525.566	275.82
525.772	323.67
525.977	214.59
526.183	297.71
526.389	309.91
526.595	297.32
526.8	282.79
527.006	267.87
527.212	253.53
527.417	257.22
527.623	217.11
527.829	277.17
528.034	282.4
528.24	299.84
528.446	228.35
528.651	292.09
528.857	288.02
529.062	369.59
529.268	283.76
529.473	296.55
529.679	273.88
529.884	309.14
530.09	288.6
530.295	359.32
530.501	332.2
530.706	310.88
530.912	255.47
531.117	296.93
531.323	287.63
531.528	301.97
531.733	287.44
531.939	296.74
532.144	323.48
532.35	287.05
532.555	350.21
532.76	359.32
532.966	354.86
533.171	332
533.376	321.35
533.581	264
533.787	305.07
533.992	321.54
534.197	387.03
534.402	307.01
534.607	324.45
534.813	411.24
535.018	297.32
535.223	274.46
535.428	320.76
535.633	368.43
535.838	338.2
536.043	333.16
536.249	389.93
536.454	322.9
536.659	328.71
536.864	285.12
537.069	320.38
537.274	329.1
537.479	373.85
537.684	314.95
537.889	306.04
538.094	385.28
538.299	334.13
538.504	317.47
538.708	334.13
538.913	352.54
539.118	306.62
539.323	336.07
539.528	314.56
539.733	325.8
539.938	332.97
540.142	367.85
540.347	339.56
540.552	330.45
540.757	366.68
540.962	337.62
541.166	289.18
541.371	310.11
541.576	326.38
541.781	234.74
541.985	339.75
542.19	337.43
542.395	358.16
542.599	426.36
542.804	350.8
543.008	375.6
543.213	317.28
543.418	298.48
543.622	376.56
543.827	312.63
544.031	377.73
544.236	375.21
544.44	335.88
544.645	403.49
544.849	310.88
545.054	376.37
545.258	419.19
545.463	418.8
545.667	343.82
545.872	359.13
546.076	328.9
546.281	344.21
546.485	317.08
546.689	358.93
546.894	387.61
547.098	359.32
547.302	296.93
547.507	339.36
547.711	344.98
547.915	425
548.119	324.83
548.324	350.6
548.528	425.19
548.732	354.67
548.936	360.29
549.141	387.99
549.345	336.26
549.549	350.02
549.753	362.03
549.957	432.17
550.161	405.24
550.366	335.49
550.57	334.71
550.774	335.49
550.978	327.93
551.182	367.46
551.386	328.13
551.59	363.78
551.794	322.31
551.998	355.06
552.202	315.73
552.406	340.72
552.61	347.7
552.814	350.41
553.018	401.17
553.222	363.39
553.426	367.65
553.63	423.45
553.833	358.55
554.037	308.56
554.241	375.79
554.445	367.85
554.649	351.57
554.853	336.07
555.056	398.07
555.26	394.39
555.464	384.12
555.668	374.05
555.871	364.16
556.075	372.88
556.279	350.02
556.483	332.58
556.686	371.53
556.89	351.18
557.094	355.25
557.297	324.45
557.501	418.03
557.704	326.38
557.908	409.31
558.112	320.96
558.315	446.89
558.519	363.97
558.722	345.18
558.926	360.68
559.129	339.75
559.333	290.35
559.536	347.11
559.74	325.22
559.943	342.46
560.147	298.68
560.35	357.19
560.553	321.93
560.757	280.47
560.96	401.94
561.164	329.48
561.367	406.79
561.57	319.02
561.774	379.86
561.977	345.76
562.18	304.68
562.384	419.96
562.587	353.51
562.79	310.69
562.993	331.61
563.197	389.54
563.4	417.83
563.603	422.87
563.806	455.03
564.009	338.98
564.212	396.91
564.416	314.37
564.619	381.21
564.822	311.27
565.025	388.19
565.228	339.75
565.431	345.37
565.634	259.35
565.837	333.55
566.04	319.6
566.243	349.83
566.446	291.9
566.649	356.41
566.852	288.41
567.055	343.63
567.258	380.25
567.461	404.85
567.664	361.84
567.867	286.86
568.07	348.08
568.273	324.64
568.475	372.88
568.678	349.83
568.881	336.65
569.084	330.45
569.287	257.22
569.489	303.91
569.692	338.59
569.895	337.43
570.098	298.1
570.3	300.23
570.503	245.4
570.706	315.15
570.909	284.92
571.111	251.02
571.314	278.72
571.516	308.56
571.719	335.68
571.922	286.86
572.124	257.22
572.327	322.7
572.529	232.61
572.732	265.35
572.935	301.39
573.137	370.17
573.34	280.85
573.542	297.32
573.745	306.43
573.947	331.42
574.15	297.52
574.352	271.55
574.554	345.18
574.757	260.32
574.959	291.51
575.162	260.32
575.364	258.18
575.566	391.48
575.769	298.29
575.971	307.98
576.173	205.87
576.376	309.14
576.578	328.71
576.78	362.03
576.982	229.32
577.185	275.04
577.387	233.97
577.589	239
577.791	321.93
577.993	298.87
578.196	269.42
578.398	319.02
578.6	333.36
578.802	237.45
579.004	275.62
579.206	267.68
579.408	301.58
579.61	271.55
579.812	309.72
580.014	275.82
580.216	261.48
580.418	279.88
580.62	230.87
580.822	223.12
581.024	264.38
581.226	319.6
581.428	257.6
581.63	326.77
581.832	248.88
582.034	315.73
582.236	266.52
582.438	279.11
582.64	305.46
582.841	328.32
583.043	380.05
583.245	296.93
583.447	288.99
583.649	289.96
583.85	309.72
584.052	324.45
584.254	255.08
584.456	325.22
584.657	231.25
584.859	285.5
585.061	270
585.262	249.08
585.464	230.48
585.666	318.44
585.867	300.23
586.069	348.66
586.27	278.33
586.472	314.18
586.674	293.83
586.875	273.1
587.077	250.05
587.278	304.68
587.48	274.07
587.681	386.25
587.883	293.83
588.084	227.57
588.285	283.57
588.487	265.55
588.688	290.93
588.89	234.74
589.091	242.3
589.292	284.53
589.494	288.41
589.695	262.64
589.896	198.7
590.098	201.8
590.299	272.33
590.5	220.02
590.702	215.17
590.903	235.9
591.104	295.38
591.305	256.63
591.507	300.42
591.708	290.54
591.909	274.46
592.11	333.75
592.311	287.83
592.512	282.02
592.714	211.88
592.915	224.28
593.116	258.57
593.317	261.48
593.518	231.64
593.719	218.66
593.92	251.6
594.121	288.41
594.322	277.56
594.523	245.01
594.724	232.8
594.925	241.72
595.126	268.65
595.327	256.83
595.528	260.9
595.729	251.02
595.929	270.2
596.13	255.47
596.331	241.33
596.532	271.55
596.733	319.6
596.934	296.16
597.135	263.61
597.335	278.14
597.536	219.43
597.737	280.85
597.938	233.97
598.138	273.88
598.339	254.31
598.54	292.28
598.74	280.08
598.941	281.24
599.142	317.86
599.342	273.68
599.543	221.57
599.744	245.98
599.944	248.88
600.145	227.57
600.345	255.47
600.546	320.38
600.746	326.19
600.947	324.06
601.147	283.37
601.348	292.28
601.548	247.33
601.749	236.68
601.949	217.3
602.15	239.97
602.35	250.63
602.551	317.47
602.751	228.73
602.951	267.48
603.152	175.45
603.352	273.3
603.552	266.13
603.753	265.55
603.953	271.17
604.153	264.38
604.354	248.69
604.554	254.31
604.754	241.13
604.954	220.21
605.155	234.55
605.355	248.3
605.555	278.72
605.755	296.16
605.955	264.19
606.155	282.21
606.356	264.38
606.556	292.09
606.756	275.43
606.956	214.78
607.156	304.49
607.356	256.25
607.556	250.43
607.756	249.08
607.956	289.18
608.156	291.51
608.356	242.3
608.556	300.42
608.756	267.1
608.956	230.28
609.156	282.79
609.356	232.22
609.556	224.28
609.755	258.96
609.955	223.12
610.155	271.55
610.355	264.58
610.555	251.4
610.755	274.65
610.954	181.65
611.154	247.33
611.354	315.73
611.554	250.24
611.753	244.23
611.953	221.95
612.153	255.67
612.352	264.19
612.552	204.13
612.752	184.95
612.951	224.67
613.151	250.24
613.351	202.97
613.55	277.95
613.75	260.32
613.949	261.67
614.149	273.68
614.348	251.21
614.548	220.4
614.747	178.36
614.947	242.88
615.146	172.74
615.346	275.43
615.545	242.68
615.745	268.07
615.944	291.7
616.144	236.68
616.343	285.12
616.542	223.89
616.742	253.53
616.941	233.19
617.14	205.49
617.34	275.04
617.539	237.84
617.738	235.32
617.938	306.23
618.137	225.44
618.336	203.16
618.535	260.7
618.734	243.85
618.934	276.01
619.133	237.07
619.332	258.57
619.531	216.92
619.73	217.11
619.929	270.58
620.128	260.7
620.328	264.19
620.527	228.73
620.726	213.04
620.925	224.28
621.124	191.54
621.323	260.32
621.522	210.91
621.721	200.45
621.92	233.58
622.119	256.05
622.318	197.74
622.517	214.2
622.715	230.87
622.914	169.06
623.113	235.71
623.312	171.58
623.511	253.73
623.71	209.94
623.909	207.81
624.107	290.73
624.306	181.65
624.505	178.17
624.704	200.06
624.902	218.85
625.101	264.19
625.3	209.55
625.499	211.88
625.697	184.75
625.896	203.16
626.095	254.12
626.293	187.47
626.492	208.59
626.69	244.43
626.889	166.15
627.088	249.08
627.286	202.97
627.485	200.06
627.683	220.02
627.882	247.72
628.08	154.72
628.279	202.39
