Data from pine_FLMT105791__76__17-21-16-077.txt Node

Date: Mon Mar 20 17:21:16 GMT 2023
User: antho
Spectrometer: FLMT10579
Trigger mode: 0
Integration Time (sec): 1.000000E-1
Scans to average: 10
Electric dark correction enabled: true
Nonlinearity correction enabled: false
Boxcar width: 0
XAxis mode: Wavelengths
Number of Pixels in Spectrum: 3648
>>>>>Begin Spectral Data<<<<<
345.248	-156.55
345.464	-156.55
345.681	-156.55
345.898	-166.04
346.114	-174.57
346.331	-49.6
346.548	23.25
346.764	-7.17
346.981	0.58
347.197	-25.19
347.414	14.92
347.631	-10.85
347.847	57.74
348.064	7.36
348.28	35.26
348.497	-60.26
348.713	13.95
348.93	45.14
349.146	18.02
349.363	-9.11
349.579	31
349.796	5.42
350.012	-28.29
350.229	39.91
350.445	-4.84
350.661	-17.24
350.878	6.59
351.094	15.5
351.311	-4.46
351.527	44.95
351.743	-12.98
351.96	9.69
352.176	55.41
352.392	-15.69
352.609	31.39
352.825	-19.96
353.041	8.14
353.257	-6.78
353.474	13.17
353.69	14.53
353.906	17.82
354.122	-33.52
354.339	62.97
354.555	21.51
354.771	-12.98
354.987	61.61
355.203	74.21
355.42	8.33
355.636	-5.04
355.852	-5.23
356.068	12.01
356.284	-41.46
356.5	73.04
356.716	-1.74
356.932	13.17
357.148	36.42
357.364	14.72
357.58	57.16
357.796	60.64
358.012	34.68
358.228	21.51
358.444	-32.36
358.66	57.54
358.876	29.64
359.092	-15.5
359.308	-7.17
359.524	44.56
359.74	-1.36
359.956	-9.69
360.172	28.67
360.388	47.27
360.604	7.75
360.819	103.65
361.035	21.31
361.251	19.76
361.467	-7.94
361.683	41.46
361.898	30.81
362.114	48.24
362.33	34.68
362.546	46.69
362.762	-9.88
362.977	12.4
363.193	-39.52
363.409	44.17
363.624	-18.99
363.84	-27.32
364.056	-2.71
364.271	26.16
364.487	18.79
364.703	2.91
364.918	-37.59
365.134	2.13
365.35	3.87
365.565	102.1
365.781	-7.36
365.996	32.16
366.212	65.1
366.427	13.95
366.643	-12.59
366.858	-14.34
367.074	-42.82
367.289	60.06
367.505	106.56
367.72	-53.67
367.936	-30.81
368.151	63.36
368.367	10.46
368.582	29.64
368.798	3.49
369.013	59.48
369.228	5.81
369.444	34.68
369.659	71.11
369.874	27.51
370.09	26.93
370.305	-41.66
370.52	-14.92
370.736	39.52
370.951	13.37
371.166	68.2
371.381	69.94
371.597	40.3
371.812	-9.49
372.027	-19.96
372.242	-1.94
372.458	62.39
372.673	18.79
372.888	33.52
373.103	41.66
373.318	89.12
373.533	40.11
373.749	50.96
373.964	-17.63
374.179	68.39
374.394	-4.65
374.609	51.15
374.824	-27.12
375.039	54.25
375.254	-8.33
375.469	57.93
375.684	15.5
375.899	37.78
376.114	15.31
376.329	26.16
376.544	31.19
376.759	44.56
376.974	-21.31
377.189	6.39
377.404	16.66
377.619	40.49
377.834	-58.71
378.049	-13.37
378.264	-5.04
378.478	7.36
378.693	-12.59
378.908	22.86
379.123	-7.56
379.338	64.91
379.553	18.79
379.767	19.37
379.982	53.67
380.197	31.97
380.412	35.26
380.626	32.55
380.841	64.71
381.056	23.06
381.271	61.22
381.485	-8.33
381.7	-5.23
381.915	15.89
382.129	-2.71
382.344	5.23
382.559	8.14
382.773	55.99
382.988	-12.59
383.202	25.77
383.417	1.94
383.632	89.9
383.846	23.83
384.061	39.91
384.275	10.66
384.49	24.61
384.704	53.86
384.919	44.56
385.133	-3.1
385.348	42.43
385.562	-19.96
385.777	68.01
385.991	6.2
386.206	10.66
386.42	-13.95
386.634	63.55
386.849	17.24
387.063	13.95
387.277	-24.8
387.492	-6.39
387.706	-13.95
387.92	3.29
388.135	56.38
388.349	29.26
388.563	22.47
388.778	15.11
388.992	34.68
389.206	12.4
389.42	81.37
389.635	27.71
389.849	39.72
390.063	70.72
390.277	31.97
390.491	80.02
390.706	19.18
390.92	53.86
391.134	26.93
391.348	41.46
391.562	-48.44
391.776	18.6
391.99	-20.92
392.205	66.65
392.419	-3.1
392.633	-1.36
392.847	79.44
393.061	4.07
393.275	95.9
393.489	30.42
393.703	39.91
393.917	57.74
394.131	21.7
394.345	34.49
394.559	50.96
394.773	9.49
394.986	30.61
395.2	13.56
395.414	67.04
395.628	-2.91
395.842	37.2
396.056	7.94
396.27	-64.32
396.484	35.84
396.697	8.14
396.911	43.01
397.125	45.72
397.339	48.24
397.553	38.36
397.766	95.52
397.98	79.44
398.194	71.11
398.408	12.59
398.621	45.92
398.835	54.44
399.049	37.2
399.262	71.49
399.476	47.08
399.69	50.76
399.903	89.32
400.117	7.94
400.331	33.52
400.544	8.14
400.758	126.9
400.971	41.27
401.185	49.02
401.398	7.56
401.612	80.99
401.826	61.81
402.039	59.09
402.253	33.32
402.466	42.43
402.68	29.64
402.893	54.06
403.106	33.32
403.32	5.23
403.533	57.35
403.747	26.16
403.96	14.34
404.174	49.99
404.387	-10.07
404.6	50.37
404.814	85.64
405.027	45.14
405.24	28.09
405.454	34.87
405.667	81.76
405.88	-18.79
406.094	40.3
406.307	66.84
406.52	64.32
406.733	6.2
406.947	-29.45
407.16	111.21
407.373	95.71
407.586	26.16
407.799	18.02
408.012	76.72
408.226	58.71
408.439	78.47
408.652	2.91
408.865	39.52
409.078	75.76
409.291	44.56
409.504	-25.19
409.717	50.57
409.93	70.33
410.143	37.59
410.357	11.82
410.57	-12.01
410.783	28.67
410.996	67.62
411.209	38.94
411.421	90.67
411.634	43.98
411.847	3.49
412.06	44.95
412.273	15.69
412.486	24.99
412.699	118.19
412.912	12.79
413.125	87.19
413.338	40.88
413.55	49.41
413.763	48.82
413.976	59.87
414.189	3.49
414.402	27.51
414.615	94.74
414.827	21.7
415.04	78.27
415.253	39.72
415.466	75.95
415.678	117.41
415.891	56.38
416.104	30.22
416.316	32.16
416.529	3.29
416.742	68.97
416.954	64.32
417.167	56.38
417.38	23.25
417.592	77.31
417.805	22.67
418.017	-12.59
418.23	88.15
418.442	33.32
418.655	47.27
418.868	83.89
419.08	51.15
419.293	87.57
419.505	71.69
419.718	60.06
419.93	91.06
420.142	46.5
420.355	89.9
420.567	104.24
420.78	90.29
420.992	51.92
421.205	110.44
421.417	9.69
421.629	50.37
421.842	16.66
422.054	-17.44
422.266	68.78
422.479	129.04
422.691	25.38
422.903	72.85
423.115	45.53
423.328	23.83
423.54	71.3
423.752	56.19
423.964	29.06
424.177	48.63
424.389	36.42
424.601	156.16
424.813	43.01
425.025	105.01
425.238	81.76
425.45	69.75
425.662	36.81
425.874	344.48
426.086	44.17
426.298	82.54
426.51	56.57
426.722	90.67
426.934	65.29
427.146	101.52
427.358	7.17
427.57	92.03
427.782	69.94
427.994	58.9
428.206	48.05
428.418	9.88
428.63	100.17
428.842	86.61
429.054	102.69
429.266	103.46
429.478	38.17
429.69	94.55
429.902	27.9
430.114	106.56
430.325	95.32
430.537	35.26
430.749	72.46
430.961	34.49
431.173	76.72
431.384	79.82
431.596	7.94
431.808	43.01
432.02	91.25
432.231	112.37
432.443	111.02
432.655	62.58
432.867	42.82
433.078	114.31
433.29	155.19
433.502	118.77
433.713	124.97
433.925	81.18
434.136	143.37
434.348	62.77
434.56	20.15
434.771	189.68
434.983	28.67
435.194	65.87
435.406	51.92
435.617	137.56
435.829	160.04
436.04	122.84
436.252	122.25
436.463	142.6
436.675	121.87
436.886	104.82
437.098	121.09
437.309	169.72
437.521	106.75
437.732	130.78
437.943	128.65
438.155	94.16
438.366	45.53
438.578	144.15
438.789	131.17
439	126.9
439.211	117.99
439.423	133.49
439.634	134.07
439.845	117.02
440.057	128.45
440.268	142.6
440.479	74.01
440.69	113.54
440.902	96.29
441.113	101.14
441.324	153.25
441.535	146.47
441.746	179.6
441.957	95.52
442.168	79.05
442.38	146.86
442.591	175.92
442.802	149.38
443.013	116.25
443.224	143.76
443.435	117.22
443.646	148.02
443.857	129.23
444.068	128.65
444.279	133.49
444.49	230.37
444.701	137.17
444.912	239.08
445.123	188.32
445.334	164.1
445.545	196.65
445.756	145.7
445.967	112.95
446.178	174.57
446.388	196.65
446.599	177.08
446.81	172.82
447.021	149.77
447.232	201.3
447.443	213.32
447.653	143.76
447.864	208.86
448.075	158.1
448.286	187.16
448.496	194.33
448.707	223
448.918	159.84
449.129	272.8
449.339	144.92
449.55	203.24
449.761	151.7
449.971	207.12
450.182	169.14
450.393	206.15
450.603	155
450.814	227.85
451.024	193.55
451.235	209.44
451.446	247.42
451.656	253.42
451.867	174.57
452.077	198.59
452.288	243.93
452.498	267.95
452.709	205.57
452.919	242.18
453.13	189.68
453.34	214.09
453.55	163.33
453.761	243.54
453.971	200.92
454.182	238.31
454.392	243.15
454.602	270.28
454.813	241.02
455.023	259.82
455.233	175.34
455.444	224.17
455.654	150.15
455.864	202.08
456.075	173.02
456.285	198.98
456.495	215.45
456.705	207.31
456.916	288.49
457.126	260.78
457.336	217.38
457.546	159.45
457.756	201.88
457.967	260.01
458.177	218.35
458.387	207.7
458.597	183.28
458.807	219.9
459.017	196.46
459.227	221.26
459.437	230.17
459.647	251.1
459.857	246.83
460.068	190.84
460.278	266.6
460.488	264.27
460.698	303.41
460.908	203.43
461.117	174.95
461.327	209.44
461.537	227.07
461.747	231.72
461.957	239.47
462.167	348.75
462.377	274.35
462.587	249.93
462.797	271.63
463.007	254.2
463.216	238.31
463.426	290.62
463.636	304.18
463.846	193.75
464.056	243.15
464.265	284.81
464.475	232.88
464.685	235.4
464.895	296.05
465.104	228.62
465.314	302.05
465.524	233.66
465.733	240.05
465.943	316.78
466.153	321.23
466.362	302.05
466.572	282.29
466.782	228.23
466.991	267.76
467.201	334.41
467.41	235.98
467.62	269.31
467.829	237.53
468.039	285.97
468.249	258.46
468.458	278.22
468.668	276.86
468.877	316.2
469.086	337.51
469.296	292.17
469.505	258.85
469.715	327.05
469.924	318.13
470.134	325.5
470.343	347
470.552	280.55
470.762	301.86
470.971	284.81
471.18	313.1
471.39	320.46
471.599	264.08
471.808	320.65
472.018	270.86
472.227	346.03
472.436	356.49
472.645	303.8
472.855	275.51
473.064	381.29
473.273	326.85
473.482	343.71
473.691	357.66
473.901	355.14
474.11	329.76
474.319	402.61
474.528	331.31
474.737	385.56
474.946	365.21
475.155	370.06
475.364	371.22
475.573	347.78
475.783	350.68
475.992	377.03
476.201	392.34
476.41	381.49
476.619	353.78
476.828	371.41
477.037	331.11
477.245	353.78
477.454	392.92
477.663	343.32
477.872	362.5
478.081	445.62
478.29	346.81
478.499	446.01
478.708	350.68
478.917	430.89
479.125	404.74
479.334	402.22
479.543	378
479.752	390.98
479.961	382.46
480.169	460.73
480.378	426.63
480.587	508.01
480.796	453.76
481.004	426.44
481.213	442.13
481.422	441.36
481.63	442.91
481.839	478.94
482.048	471.39
482.256	427.6
482.465	456.66
482.674	470.42
482.882	459.96
483.091	526.8
483.299	502.58
483.508	489.79
483.716	448.14
483.925	457.24
484.134	433.03
484.342	450.07
484.551	497.54
484.759	480.69
484.967	503.74
485.176	506.84
485.384	492.89
485.593	484.56
485.801	471.58
486.01	466.93
486.218	465.96
486.426	410.36
486.635	450.46
486.843	429.93
487.051	473.71
487.26	458.6
487.468	507.81
487.676	471.58
487.885	464.22
488.093	504.52
488.301	495.22
488.509	502.19
488.717	535.32
488.926	482.82
489.134	516.14
489.342	520.41
489.55	486.11
489.758	526.99
489.967	484.56
490.175	617.47
490.383	532.8
490.591	610.69
490.799	504.91
491.007	572.33
491.215	581.05
491.423	535.9
491.631	530.29
491.839	549.85
492.047	553.34
492.255	512.46
492.463	471
492.671	518.66
492.879	611.85
493.087	530.09
493.295	567.49
493.503	609.53
493.711	596.74
493.919	611.66
494.127	610.89
494.334	614.18
494.542	570.59
494.75	587.05
494.958	582.4
495.166	647.31
495.374	603.14
495.581	622.7
495.789	610.11
495.997	688.19
496.205	578.34
496.412	603.52
496.62	599.45
496.828	619.99
497.035	603.91
497.243	638.78
497.451	634.91
497.658	640.33
497.866	609.14
498.074	677.73
498.281	581.24
498.489	683.54
498.696	606.62
498.904	609.14
499.112	621.15
499.319	712.02
499.527	650.22
499.734	685.09
499.942	637.62
500.149	592.87
500.357	657.19
500.564	599.26
500.771	632.58
500.979	613.79
501.186	615.34
501.394	615.53
501.601	633.55
501.808	656.22
502.016	659.32
502.223	630.45
502.43	667.85
502.638	651.57
502.845	609.72
503.052	716.48
503.26	642.66
503.467	725.39
503.674	660.29
503.881	698.65
504.089	784.29
504.296	717.25
504.503	633.17
504.71	652.54
504.917	632.39
505.125	685.87
505.332	693.81
505.539	693.23
505.746	746.9
505.953	719.58
506.16	729.65
506.367	766.66
506.574	771.5
506.781	771.11
506.988	692.07
507.195	755.61
507.402	722.87
507.609	768.98
507.816	699.81
508.023	716.28
508.23	716.09
508.437	686.45
508.644	752.9
508.851	802.5
509.058	744.76
509.265	747.48
509.472	769.18
509.679	821.1
509.885	769.37
510.092	755.61
510.299	756.97
510.506	762.78
510.713	766.46
510.92	766.46
511.126	775.38
511.333	828.85
511.54	793.78
511.746	836.21
511.953	857.72
512.16	849.97
512.367	775.38
512.573	803.66
512.78	804.63
512.987	798.04
513.193	830.59
513.4	727.71
513.606	774.8
513.813	830.79
514.02	821.88
514.226	863.73
514.433	834.47
514.639	773.83
514.846	829.82
515.052	800.18
515.259	810.64
515.465	842.22
515.672	855.39
515.878	919.91
516.085	863.92
516.291	908.67
516.497	857.33
516.704	840.86
516.91	830.4
517.117	739.53
517.323	712.99
517.529	757.75
517.736	809.28
517.942	760.46
518.148	803.66
518.354	859.66
518.561	831.56
518.767	839.12
518.973	865.47
519.179	875.35
519.386	832.14
519.592	863.53
519.798	850.94
520.004	909.06
520.21	891.43
520.417	886.97
520.623	967.57
520.829	960.02
521.035	941.03
521.241	932.51
521.447	952.07
521.653	1032.29
521.859	960.6
522.065	980.55
522.271	1078.4
522.477	1014.27
522.683	1025.5
522.889	1023.76
523.095	999.15
523.301	1005.74
523.507	956.34
523.713	1006.32
523.919	976.1
524.125	1061.73
524.331	1029.19
524.537	1089.83
524.742	1048.56
524.948	1058.63
525.154	1057.47
525.36	1165.58
525.566	1089.44
525.772	1127.8
525.977	1035.97
526.183	1097.97
526.389	1116.95
526.595	1055.73
526.8	1048.95
527.006	1000.7
527.212	967.19
527.417	957.89
527.623	954.4
527.829	1062.12
528.034	1032.29
528.24	1101.84
528.446	1037.52
528.651	1122.57
528.857	1115.6
529.062	1167.33
529.268	1119.86
529.473	1138.07
529.679	1093.7
529.884	1205.11
530.09	1177.01
530.295	1154.15
530.501	1204.53
530.706	1186.51
530.912	1107.85
531.117	1179.92
531.323	1175.08
531.528	1179.15
531.733	1177.4
531.939	1152.41
532.144	1235.91
532.35	1210.92
532.555	1224.87
532.76	1201.81
532.966	1218.86
533.171	1148.53
533.376	1158.8
533.581	1119.86
533.787	1183.8
533.992	1177.6
534.197	1223.32
534.402	1206.27
534.607	1200.65
534.813	1288.42
535.018	1166.55
535.223	1190.58
535.428	1206.46
535.633	1264.59
535.838	1260.71
536.043	1243.08
536.249	1316.51
536.454	1209.18
536.659	1268.46
536.864	1224.68
537.069	1256.64
537.274	1247.73
537.479	1273.89
537.684	1257.03
537.889	1199.3
538.094	1307.6
538.299	1236.88
538.504	1281.64
538.708	1291.52
538.913	1307.02
539.118	1234.75
539.323	1294.62
539.528	1237.46
539.733	1245.02
539.938	1275.44
540.142	1276.41
540.347	1270.21
540.552	1206.85
540.757	1280.67
540.962	1224.48
541.166	1180.89
541.371	1197.36
541.576	1247.93
541.781	1144.46
541.985	1254.71
542.19	1252.38
542.395	1313.61
542.599	1348.09
542.804	1325.23
543.008	1320
543.213	1250.64
543.418	1253.54
543.622	1298.49
543.827	1261.68
544.031	1344.02
544.236	1332.79
544.44	1310.31
544.645	1392.07
544.849	1312.83
545.054	1306.24
545.258	1388.78
545.463	1396.14
545.667	1327.56
545.872	1336.08
546.076	1331.62
546.281	1312.83
546.485	1272.92
546.689	1380.06
546.894	1362.24
547.098	1343.44
547.302	1284.16
547.507	1344.02
547.711	1347.51
547.915	1383.74
548.119	1316.51
548.324	1292.49
548.528	1411.45
548.732	1366.5
548.936	1387.81
549.141	1401.95
549.345	1357.59
549.549	1368.44
549.753	1383.16
549.957	1420.17
550.161	1421.72
550.366	1383.36
550.57	1366.11
550.774	1393.04
550.978	1357.39
551.182	1399.63
551.386	1351.77
551.59	1330.66
551.794	1333.95
551.998	1384.52
552.202	1348.67
552.406	1323.29
552.61	1380.26
552.814	1391.49
553.018	1452.52
553.222	1360.88
553.426	1339.57
553.63	1434.7
553.833	1363.98
554.037	1321.74
554.241	1387.04
554.445	1395.95
554.649	1374.64
554.853	1395.95
555.056	1407.19
555.26	1400.02
555.464	1387.23
555.668	1422.3
555.871	1423.46
556.075	1422.1
556.279	1374.25
556.483	1347.12
556.686	1382
556.89	1378.51
557.094	1371.34
557.297	1330.46
557.501	1388.2
557.704	1293.07
557.908	1356.62
558.112	1320.97
558.315	1424.82
558.519	1342.28
558.722	1336.86
558.926	1337.44
559.129	1267.69
559.333	1252.77
559.536	1278.34
559.74	1276.99
559.943	1235.91
560.147	1296.94
560.35	1283.19
560.553	1316.71
560.757	1250.83
560.96	1345.77
561.164	1281.25
561.367	1353.91
561.57	1349.84
561.774	1350.42
561.977	1291.13
562.18	1260.52
562.384	1389.36
562.587	1291.71
562.79	1293.84
562.993	1289.97
563.197	1299.66
563.4	1336.66
563.603	1332.01
563.806	1410.87
564.009	1275.44
564.212	1324.46
564.416	1247.93
564.619	1319.03
564.822	1227.97
565.025	1340.92
565.228	1265.94
565.431	1309.54
565.634	1201.43
565.837	1252.77
566.04	1219.64
566.243	1248.7
566.446	1158.61
566.649	1245.99
566.852	1196
567.055	1227
567.258	1286.48
567.461	1337.44
567.664	1297.91
567.867	1198.71
568.07	1266.14
568.273	1257.42
568.475	1234.94
568.678	1201.04
568.881	1218.09
569.084	1212.28
569.287	1129.16
569.489	1160.55
569.692	1230.29
569.895	1236.3
570.098	1151.63
570.3	1158.22
570.503	1098.16
570.706	1143.11
570.909	1140.01
571.111	1111.72
571.314	1085.37
571.516	1132.07
571.719	1132.84
571.922	1143.88
572.124	1144.66
572.327	1175.85
572.529	1082.27
572.732	1099.9
572.935	1152.99
573.137	1195.03
573.34	1110.37
573.542	1166.94
573.745	1156.48
573.947	1149.89
574.15	1129.74
574.352	1106.49
574.554	1191.55
574.757	1094.28
574.959	1092.54
575.162	1086.15
575.364	1079.56
575.566	1175.66
575.769	1097.38
575.971	1094.09
576.173	1021.24
576.376	1094.28
576.578	1140.98
576.78	1162.48
576.982	1010.97
577.185	1067.74
577.387	1048.56
577.589	1021.05
577.791	1096.22
577.993	1084.21
578.196	1061.15
578.398	1084.6
578.6	1128
578.802	1041.97
579.004	1007.29
579.206	1050.3
579.408	1106.68
579.61	1043.91
579.812	1094.28
580.014	1022.02
580.216	1053.21
580.418	1037.13
580.62	1016.98
580.822	1012.14
581.024	1070.26
581.226	1108.04
581.428	1050.88
581.63	1160.93
581.832	1024.15
582.034	1135.36
582.236	1069.68
582.438	1124.9
582.64	1129.74
582.841	1109.78
583.043	1178.76
583.245	1101.45
583.447	1102.62
583.649	1082.08
583.85	1111.72
584.052	1137.49
584.254	1046.82
584.456	1111.14
584.657	1062.9
584.859	1108.82
585.061	1062.12
585.262	1081.11
585.464	1049.53
585.666	1092.73
585.867	1040.81
586.069	1124.9
586.27	1053.02
586.472	1062.51
586.674	1031.7
586.875	1028.02
587.077	1025.5
587.278	1079.37
587.48	1047.79
587.681	1166.36
587.883	1072.78
588.084	987.92
588.285	1020.85
588.487	1014.46
588.688	1036.94
588.89	976.29
589.091	966.6
589.292	962.15
589.494	921.66
589.695	947.81
589.896	850.16
590.098	874.57
590.299	923.4
590.5	879.03
590.702	929.79
590.903	922.24
591.104	1006.9
591.305	1004.19
591.507	1020.47
591.708	995.86
591.909	966.02
592.11	1042.94
592.311	1034.22
592.512	935.22
592.714	924.37
592.915	973.97
593.116	953.43
593.317	964.09
593.518	963.5
593.719	940.06
593.92	1000.9
594.121	1036.35
594.322	997.02
594.523	968.93
594.724	944.71
594.925	973.58
595.126	990.24
595.327	1003.22
595.528	979.59
595.729	950.14
595.929	986.37
596.13	962.73
596.331	949.17
596.532	981.14
596.733	1035
596.934	996.44
597.135	1011.75
597.335	980.17
597.536	916.81
597.737	949.17
597.938	952.46
598.138	972.42
598.339	946.26
598.54	997.02
598.74	970.67
598.941	969.32
599.142	999.15
599.342	977.07
599.543	938.51
599.744	967.19
599.944	970.09
600.145	975.13
600.345	979.39
600.546	1034.42
600.746	1015.04
600.947	1048.75
601.147	994.12
601.348	1001.29
601.548	950.52
601.749	958.08
601.949	916.62
602.15	932.89
602.35	934.44
602.551	991.79
602.751	923.98
602.951	933.86
603.152	918.17
603.352	970.09
603.552	963.89
603.753	995.28
603.953	1004.19
604.153	980.55
604.354	975.32
604.554	946.84
604.754	961.57
604.954	918.36
605.155	957.89
605.355	918.75
605.555	1019.89
605.755	1020.08
605.955	965.83
606.155	1019.5
606.356	954.98
606.556	1000.32
606.756	990.44
606.956	924.95
607.156	1002.84
607.356	956.14
607.556	955.56
607.756	951.69
607.956	1025.89
608.156	985.01
608.356	938.12
608.556	979.2
608.756	952.27
608.956	915.65
609.156	934.64
609.356	902.09
609.556	892.59
609.755	939.09
609.955	896.66
610.155	960.79
610.355	929.02
610.555	926.11
610.755	914.87
610.954	848.61
611.154	939.29
611.354	927.08
611.554	898.79
611.753	918.56
611.953	863.34
612.153	942.77
612.352	941.22
612.552	866.05
612.752	811.03
612.951	896.47
613.151	898.79
613.351	874.19
613.55	904.41
613.75	908.09
613.949	873.22
614.149	910.03
614.348	878.84
614.548	857.14
614.747	820.33
614.947	855.2
615.146	794.56
615.346	892.59
615.545	881.94
615.745	864.31
615.944	868.96
616.144	840.67
616.343	892.98
616.542	857.33
616.742	874.38
616.941	859.85
617.14	790.88
617.34	830.59
617.539	870.12
617.738	803.66
617.938	910.81
618.137	838.54
618.336	812.38
618.535	862.76
618.734	861.59
618.934	864.31
619.133	823.62
619.332	853.26
619.531	835.63
619.73	817.81
619.929	886.97
620.128	867.6
620.328	890.85
620.527	816.64
620.726	797.08
620.925	870.7
621.124	844.74
621.323	882.91
621.522	801.92
621.721	816.06
621.92	806.96
