Data from pine_FLMT105791__166__17-23-20-073.txt Node

Date: Mon Mar 20 17:23:20 GMT 2023
User: antho
Spectrometer: FLMT10579
Trigger mode: 0
Integration Time (sec): 1.000000E-1
Scans to average: 10
Electric dark correction enabled: true
Nonlinearity correction enabled: false
Boxcar width: 0
XAxis mode: Wavelengths
Number of Pixels in Spectrum: 3648
>>>>>Begin Spectral Data<<<<<
345.248	-132.36
345.464	-132.36
345.681	-132.36
345.898	-174.6
346.114	-132.94
346.331	-35.88
346.548	23.8
346.764	-13.98
346.981	9.85
347.197	-10.11
347.414	20.12
347.631	-14.76
347.847	51.7
348.064	23.6
348.28	10.62
348.497	-38.01
348.713	-26.96
348.93	44.34
349.146	57.9
349.363	-6.23
349.579	19.73
349.796	-2.94
350.012	8.11
350.229	8.3
350.445	7.33
350.661	7.72
350.878	-0.61
351.094	17.4
351.311	9.27
351.527	21.67
351.743	-1.58
351.96	54.02
352.176	29.03
352.392	42.01
352.609	34.26
352.825	-8.56
353.041	-0.61
353.257	19.54
353.474	17.21
353.69	10.82
353.906	36.2
354.122	15.66
354.339	59.45
354.555	13.53
354.771	-17.86
354.987	63.71
355.203	66.04
355.42	4.23
355.636	-10.88
355.852	-3.91
356.068	1.52
356.284	-19.6
356.5	43.37
356.716	11.79
356.932	27.48
357.148	41.24
357.364	-5.84
357.58	58.87
357.796	42.59
358.012	39.49
358.228	4.42
358.444	-42.85
358.66	41.82
358.876	32.9
359.092	-18.44
359.308	27.29
359.524	17.99
359.74	-8.17
359.956	-6.04
360.172	16.24
360.388	50.15
360.604	9.46
360.819	104.98
361.035	14.11
361.251	6.17
361.467	-40.14
361.683	59.06
361.898	24.19
362.114	42.01
362.33	13.53
362.546	46.27
362.762	26.7
362.977	13.72
363.193	-22.31
363.409	50.73
363.624	17.6
363.84	-22.51
364.056	-11.46
364.271	24.96
364.487	39.3
364.703	2.68
364.918	-9.53
365.134	24.57
365.35	11.59
365.565	96.07
365.781	32.9
365.996	31.55
366.212	61.77
366.427	33.68
366.643	32.32
366.858	-20.96
367.074	-11.08
367.289	64.68
367.505	78.82
367.72	-35.49
367.936	5.78
368.151	32.52
368.367	10.43
368.582	39.3
368.798	0.16
369.013	59.64
369.228	26.51
369.444	9.07
369.659	51.12
369.874	22.83
370.09	60.42
370.305	-68.43
370.52	-10.69
370.736	54.02
370.951	16.44
371.166	55.77
371.381	77.85
371.597	58.67
371.812	1.71
372.027	-32.39
372.242	11.79
372.458	60.03
372.673	6.56
372.888	-1.78
373.103	45.5
373.318	88.12
373.533	25.74
373.749	42.59
373.964	-27.93
374.179	63.52
374.394	-11.27
374.609	71.07
374.824	-10.3
375.039	78.05
375.254	-5.65
375.469	66.81
375.684	3.07
375.899	67.97
376.114	11.4
376.329	42.2
376.544	58.67
376.759	33.1
376.974	-11.27
377.189	16.44
377.404	28.06
377.619	48.02
377.834	-33.94
378.049	-13.4
378.264	-32.19
378.478	-2.55
378.693	-15.73
378.908	47.44
379.123	23.6
379.338	64.1
379.553	9.46
379.767	28.45
379.982	33.29
380.197	34.84
380.412	12.56
380.626	44.53
380.841	92.97
381.056	55.38
381.271	82.89
381.485	9.27
381.7	-16.69
381.915	26.7
382.129	9.27
382.344	33.68
382.559	29.03
382.773	76.69
382.988	-41.49
383.202	32.52
383.417	14.69
383.632	114.47
383.846	28.06
384.061	12.76
384.275	8.49
384.49	35.81
384.704	56.35
384.919	27.29
385.133	20.5
385.348	31.35
385.562	-18.63
385.777	59.45
385.991	15.08
386.206	22.05
386.42	4.62
386.634	66.62
386.849	30.97
387.063	33.68
387.277	-14.37
387.492	11.21
387.706	-15.14
387.92	-1.97
388.135	63.13
388.349	54.41
388.563	14.5
388.778	14.69
388.992	41.24
389.206	35.23
389.42	98.97
389.635	22.25
389.849	43.95
390.063	49.76
390.277	22.25
390.491	73.01
390.706	39.1
390.92	43.75
391.134	52.47
391.348	36.78
391.562	-16.31
391.776	13.53
391.99	-8.56
392.205	24.38
392.419	-9.33
392.633	41.82
392.847	100.72
393.061	-23.09
393.275	86.96
393.489	32.13
393.703	36.78
393.917	72.62
394.131	33.1
394.345	49.18
394.559	80.76
394.773	13.92
394.986	44.53
395.2	12.37
395.414	37.75
395.628	-7.2
395.842	23.22
396.056	-8.17
396.27	-23.67
396.484	47.05
396.697	33.68
396.911	55.38
397.125	75.14
397.339	81.73
397.553	43.37
397.766	92.77
397.98	59.06
398.194	78.63
398.408	35.81
398.621	65.07
398.835	40.85
399.049	45.3
399.262	80.57
399.476	42.79
399.69	32.9
399.903	107.5
400.117	30.39
400.331	59.45
400.544	-13.59
400.758	143.92
400.971	52.86
401.185	61.77
401.398	-15.92
401.612	70.1
401.826	52.09
402.039	40.65
402.253	17.79
402.466	53.64
402.68	39.3
402.893	44.92
403.106	32.52
403.32	11.01
403.533	48.6
403.747	40.07
403.96	38.33
404.174	63.52
404.387	-3.13
404.6	2.87
404.814	67
405.027	36.97
405.24	19.15
405.454	30.97
405.667	89.48
405.88	-11.46
406.094	22.64
406.307	35.81
406.52	34.84
406.733	-10.11
406.947	-8.17
407.16	85.6
407.373	61.39
407.586	-8.56
407.799	26.12
408.012	65.07
408.226	45.11
408.439	83.09
408.652	35.81
408.865	40.46
409.078	73.79
409.291	46.27
409.504	-10.88
409.717	21.86
409.93	53.05
410.143	26.7
410.357	-14.56
410.57	1.52
410.783	18.37
410.996	23.41
411.209	39.69
411.421	70.3
411.634	33.49
411.847	12.37
412.06	28.06
412.273	22.05
412.486	20.31
412.699	112.53
412.912	25.74
413.125	89.09
413.338	9.85
413.55	62.35
413.763	46.47
413.976	62.35
414.189	0.94
414.402	18.18
414.615	85.02
414.827	-7.39
415.04	75.53
415.253	25.54
415.466	71.07
415.678	83.67
415.891	41.62
416.104	18.57
416.316	20.12
416.529	5.59
416.742	57.32
416.954	78.82
417.167	48.6
417.38	37.94
417.592	69.14
417.805	-1.39
418.017	-0.42
418.23	37.75
418.442	41.82
418.655	27.29
418.868	39.3
419.08	78.63
419.293	61
419.505	53.64
419.718	52.28
419.93	65.65
420.142	14.11
420.355	72.04
420.567	97.04
420.78	55.57
420.992	49.18
421.205	101.88
421.417	1.52
421.629	29.22
421.842	9.27
422.054	-12.82
422.266	54.6
422.479	59.25
422.691	13.53
422.903	59.25
423.115	33.49
423.328	43.56
423.54	30.97
423.752	36
423.964	13.53
424.177	41.43
424.389	23.99
424.601	144.12
424.813	38.33
425.025	63.13
425.238	55.38
425.45	29.03
425.662	34.45
425.874	315.19
426.086	37.75
426.298	84.25
426.51	35.23
426.722	42.2
426.934	29.22
427.146	49.95
427.358	-9.72
427.57	89.09
427.782	43.17
427.994	42.4
428.206	34.45
428.418	-8.75
428.63	56.35
428.842	71.27
429.054	35.23
429.266	74.75
429.478	11.21
429.69	44.14
429.902	-12.43
430.114	72.04
430.325	73.59
430.537	20.7
430.749	54.8
430.961	-11.85
431.173	58.67
431.384	79.21
431.596	-25.99
431.808	32.52
432.02	39.49
432.231	67.97
432.443	79.21
432.655	45.89
432.867	14.31
433.078	68.94
433.29	112.73
433.502	72.04
433.713	112.15
433.925	65.26
434.136	70.1
434.348	-3.13
434.56	-1.58
434.771	135.59
434.983	-9.72
435.194	28.45
435.406	4.81
435.617	86.19
435.829	110.02
436.04	92.58
436.252	67.2
436.463	93.55
436.675	77.27
436.886	69.91
437.098	53.25
437.309	77.66
437.521	52.47
437.732	67.59
437.943	53.64
438.155	49.18
438.366	9.46
438.578	104.01
438.789	79.79
439	93.55
439.211	36.97
439.423	78.63
439.634	79.79
439.845	77.66
440.057	38.91
440.268	83.09
440.479	36.2
440.69	43.17
440.902	30.19
441.113	34.65
441.324	45.11
441.535	51.89
441.746	102.27
441.957	33.29
442.168	40.27
442.38	86.77
442.591	85.6
442.802	21.86
443.013	44.92
443.224	65.84
443.435	56.15
443.646	29.42
443.857	59.64
444.068	32.52
444.279	23.41
444.49	114.28
444.701	47.82
444.912	164.07
445.123	59.25
445.334	47.63
445.545	62.94
445.756	82.12
445.967	29.03
446.178	84.83
446.388	112.53
446.599	92
446.81	98
447.021	66.23
447.232	101.1
447.443	129.97
447.653	44.14
447.864	107.69
448.075	76.5
448.286	102.27
448.496	70.49
448.707	106.53
448.918	66.42
449.129	161.17
449.339	35.04
449.55	93.74
449.761	63.13
449.971	123
450.182	60.8
450.393	73.2
450.603	62.35
450.814	89.67
451.024	95.1
451.235	104.01
451.446	113.89
451.656	140.05
451.867	47.05
452.077	96.65
452.288	159.23
452.498	127.45
452.709	76.69
452.919	118.15
453.13	58.87
453.34	159.03
453.55	46.66
453.761	113.89
453.971	85.02
454.182	122.22
454.392	106.53
454.602	152.25
454.813	97.23
455.023	121.64
455.233	50.15
455.444	92.77
455.654	51.31
455.864	69.91
456.075	100.14
456.285	77.47
456.495	84.44
456.705	103.62
456.916	133.85
457.126	139.66
457.336	77.66
457.546	31.35
457.756	64.29
457.967	123.38
458.177	83.86
458.387	98.78
458.597	81.73
458.807	77.47
459.017	107.69
459.227	67.59
459.437	103.23
459.647	134.43
459.857	119.51
460.068	69.14
460.278	138.88
460.488	114.28
460.698	165.43
460.908	75.72
461.117	48.6
461.327	59.64
461.537	126.87
461.747	114.08
461.957	108.47
462.167	200.88
462.377	140.05
462.587	91.03
462.797	118.73
463.007	110.79
463.216	121.06
463.426	145.08
463.636	126.29
463.846	68.75
464.056	72.24
464.265	159.23
464.475	91.03
464.685	116.99
464.895	139.27
465.104	90.45
465.314	143.15
465.524	100.33
465.733	83.47
465.943	183.64
466.153	131.33
466.362	134.04
466.572	120.09
466.782	98.78
466.991	100.33
467.201	173.57
467.41	60.42
467.62	100.14
467.829	88.9
468.039	125.9
468.249	114.28
468.458	116.99
468.668	129.39
468.877	155.74
469.086	144.7
469.296	138.5
469.505	74.17
469.715	172.6
469.924	140.82
470.134	145.86
470.343	183.25
470.552	110.6
470.762	124.35
470.971	58.29
471.18	119.7
471.39	123.19
471.599	117.38
471.808	143.73
472.018	95.68
472.227	147.02
472.436	147.41
472.645	110.79
472.855	95.49
473.064	178.8
473.273	120.87
473.482	145.67
473.691	171.82
473.901	129.58
474.11	129.2
474.319	208.05
474.528	118.15
474.737	159.62
474.946	166.01
475.155	136.75
475.364	162.52
475.573	135.4
475.783	151.28
475.992	139.08
476.201	175.31
476.41	136.37
476.619	110.79
476.828	135.01
477.037	101.69
477.245	137.14
477.454	167.75
477.663	137.92
477.872	101.88
478.081	171.43
478.29	93.74
478.499	200.5
478.708	135.78
478.917	219.87
479.125	131.91
479.334	149.35
479.543	114.47
479.752	154.58
479.961	161.36
480.169	181.7
480.378	111.37
480.587	252.42
480.796	200.69
481.004	158.65
481.213	154.19
481.422	165.04
481.63	130.36
481.839	158.45
482.048	190.81
482.256	125.71
482.465	154.97
482.674	175.7
482.882	168.92
483.091	222.2
483.299	185.97
483.508	168.72
483.716	157.68
483.925	177.05
484.134	152.64
484.342	152.06
484.551	193.71
484.759	181.9
484.967	176.47
485.176	169.3
485.384	192.16
485.593	188.29
485.801	186.55
486.01	212.7
486.218	159.62
486.426	134.04
486.635	161.36
486.843	163.88
487.051	200.69
487.26	162.72
487.468	204.76
487.676	207.86
487.885	152.83
488.093	159.03
488.301	173.76
488.509	172.79
488.717	202.82
488.926	173.37
489.134	173.18
489.342	160.58
489.55	147.99
489.758	149.15
489.967	160.2
490.175	269.08
490.383	163.3
490.591	248.74
490.799	143.73
491.007	216
491.215	170.27
491.423	165.43
491.631	175.89
491.839	179.57
492.047	230.33
492.255	171.82
492.463	139.27
492.671	163.88
492.879	206.89
493.087	168.72
493.295	216.58
493.503	218.13
493.711	221.61
493.919	239.05
494.127	206.7
494.334	241.76
494.542	166.59
494.75	171.05
494.958	188.48
495.166	197.78
495.374	208.25
495.581	208.05
495.789	221.03
495.997	247.58
496.205	203.6
496.412	209.99
496.62	187.71
496.828	209.8
497.035	189.84
497.243	218.32
497.451	211.73
497.658	183.64
497.866	177.05
498.074	253
498.281	176.08
498.489	258.43
498.696	254.75
498.904	204.56
499.112	215.41
499.319	285.55
499.527	192.75
499.734	236.53
499.942	201.85
500.149	168.33
500.357	203.4
500.564	165.62
500.771	234.98
500.979	189.26
501.186	188.87
501.394	224.71
501.601	212.7
501.808	240.6
502.016	202.63
502.223	220.45
502.43	239.63
502.638	264.43
502.845	174.53
503.052	259.59
503.26	200.88
503.467	287.29
503.674	191.39
503.881	221.42
504.089	307.06
504.296	267.15
504.503	186.35
504.71	239.05
504.917	192.75
505.125	249.71
505.332	202.63
505.539	244.67
505.746	282.45
505.953	235.37
506.16	252.81
506.367	284.19
506.574	272.38
506.781	277.03
506.988	212.51
507.195	244.28
507.402	227.23
507.609	258.23
507.816	215.41
508.023	232.08
508.23	221.61
508.437	208.05
508.644	246.03
508.851	316.74
509.058	274.51
509.265	253.2
509.472	277.03
509.679	312.09
509.885	221.23
510.092	244.48
510.299	240.02
510.506	245.06
510.713	268.89
510.92	260.95
511.126	268.7
511.333	285.36
511.54	271.21
511.746	305.51
511.953	315.58
512.16	316.16
512.367	242.35
512.573	234.21
512.78	243.12
512.987	244.09
513.193	274.31
513.4	191.58
513.606	248.55
513.813	250.1
514.02	245.45
514.226	339.8
514.433	329.14
514.639	244.48
514.846	274.7
515.052	217.93
515.259	258.81
515.465	266.56
515.672	261.53
515.878	339.99
516.085	244.28
516.291	268.89
516.497	214.64
516.704	266.18
516.91	229.36
517.117	238.28
517.323	206.7
517.529	264.82
517.736	270.25
517.942	264.63
518.148	230.72
518.354	278.38
518.561	262.69
518.767	279.16
518.973	312.68
519.179	284.58
519.386	249.51
519.592	224.33
519.798	218.51
520.004	271.21
520.21	250.87
520.417	295.04
520.623	289.23
520.829	285.94
521.035	307.44
521.241	306.67
521.447	285.94
521.653	390.95
521.859	270.25
522.065	287.68
522.271	380.68
522.477	319.46
522.683	321.98
522.889	324.69
523.095	303.38
523.301	317.33
523.507	282.64
523.713	278.77
523.919	288.84
524.125	335.54
524.331	280.71
524.537	350.65
524.742	337.28
524.948	340.77
525.154	319.46
525.36	430.67
525.566	334.38
525.772	374.29
525.977	289.04
526.183	352.39
526.389	370.8
526.595	276.06
526.8	312.87
527.006	285.94
527.212	288.07
527.417	303.96
527.623	290.39
527.829	349.88
528.034	347.36
528.24	322.94
528.446	290.39
528.651	354.72
528.857	343.29
529.062	386.11
529.268	287.68
529.473	311.9
529.679	281.48
529.884	390.95
530.09	345.42
530.295	378.74
530.501	344.26
530.706	348.91
530.912	296.4
531.117	322.94
531.323	328.18
531.528	329.34
531.733	351.43
531.939	313.06
532.144	336.51
532.35	343.87
532.555	404.12
532.76	356.08
532.966	410.91
533.171	377.77
533.376	355.49
533.581	308.8
533.787	381.65
533.992	361.11
534.197	432.02
534.402	336.12
534.607	355.11
534.813	428.54
535.018	336.89
535.223	321.2
535.428	365.96
535.633	376.61
535.838	384.56
536.043	317.71
536.249	415.17
536.454	369.64
536.659	369.44
536.864	334.18
537.069	376.22
537.274	414.01
537.479	364.99
537.684	384.75
537.889	353.17
538.094	432.22
538.299	368.47
538.504	403.93
538.708	386.3
538.913	392.69
539.118	377.97
539.323	387.07
539.528	359.95
539.733	368.28
539.938	393.86
540.142	426.02
540.347	417.88
540.552	360.92
540.757	370.22
540.962	367.12
541.166	356.27
541.371	314.61
541.576	384.36
541.781	269.28
541.985	373.32
542.19	363.05
542.395	418.85
542.599	452.37
542.804	414.2
543.008	432.02
543.213	352.39
543.418	333.41
543.622	403.74
543.827	357.24
544.031	441.52
544.236	405.67
544.44	350.46
544.645	448.11
544.849	380.87
545.054	426.99
545.258	447.52
545.463	426.6
545.667	383.59
545.872	406.26
546.076	401.22
546.281	416.72
546.485	373.32
546.689	401.41
546.894	417.69
547.098	385.91
547.302	332.05
547.507	382.42
547.711	411.49
547.915	440.74
548.119	371.19
548.324	381.84
548.528	440.94
548.732	396.37
548.936	422.92
549.141	446.75
549.345	384.36
549.549	386.88
549.753	404.71
549.957	480.07
550.161	460.31
550.366	398.51
550.57	378.74
550.774	386.49
550.978	382.81
551.182	429.51
551.386	408.19
551.59	365.18
551.794	382.81
551.998	401.41
552.202	388.24
552.406	366.34
552.61	377.39
552.814	404.32
553.018	476.78
553.222	403.74
553.426	402.57
553.63	451.4
553.833	375.45
554.037	340.19
554.241	408.97
554.445	416.91
554.649	396.96
554.853	357.24
555.056	431.06
555.26	406.64
555.464	416.33
555.668	415.36
555.871	441.32
556.075	427.18
556.279	386.11
556.483	369.44
556.686	415.56
556.89	401.22
557.094	439.77
557.297	364.41
557.501	445.2
557.704	370.41
557.908	450.82
558.112	377.19
558.315	458.37
558.519	380.49
558.722	434.93
558.926	374.67
559.129	361.31
559.333	321.78
559.536	369.44
559.74	369.64
559.943	356.66
560.147	339.99
560.35	418.27
560.553	370.41
560.757	324.88
560.96	432.22
561.164	364.21
561.367	450.24
561.57	369.83
561.774	392.11
561.977	383.78
562.18	375.06
562.384	474.65
562.587	381.84
562.79	365.76
562.993	391.53
563.197	409.55
563.4	430.86
563.603	436.87
563.806	493.64
564.009	360.14
564.212	391.14
564.416	341.74
564.619	426.21
564.822	354.72
565.025	442.68
565.228	387.07
565.431	393.66
565.634	308.41
565.837	382.23
566.04	390.95
566.243	366.15
566.446	304.73
566.649	403.54
566.852	347.16
567.055	368.86
567.258	405.29
567.461	437.26
567.664	458.57
567.867	332.44
568.07	406.84
568.273	366.15
568.475	400.44
568.678	365.76
568.881	367.31
569.084	388.43
569.287	318.1
569.489	354.33
569.692	397.54
569.895	414.01
570.098	351.62
570.3	367.51
570.503	307.64
570.706	336.31
570.909	349.49
571.111	307.44
571.314	302.99
571.516	352.01
571.719	366.73
571.922	321.78
572.124	364.79
572.327	338.64
572.529	318.68
572.732	318.68
572.935	322.56
573.137	380.49
573.34	343.29
573.542	375.84
573.745	340.96
573.947	372.16
574.15	355.88
574.352	310.54
574.554	402.19
574.757	303.57
574.959	307.06
575.162	326.82
575.364	321.39
575.566	418.66
575.769	315.78
575.971	350.46
576.173	255.33
576.376	330.31
576.578	348.71
576.78	405.87
576.982	267.34
577.185	325.46
577.387	309.77
577.589	297.37
577.791	349.68
577.993	347.36
578.196	311.51
578.398	349.29
578.6	385.33
578.802	280.71
579.004	284.19
579.206	282.06
579.408	304.15
579.61	321.78
579.812	343.68
580.014	313.45
580.216	283.03
580.418	296.79
580.62	312.48
580.822	224.91
581.024	312.09
581.226	319.84
581.428	284.19
581.63	361.89
581.832	264.24
582.034	359.37
582.236	330.69
582.438	349.49
582.64	348.52
582.841	370.02
583.043	390.17
583.245	321.78
583.447	355.69
583.649	321.01
583.85	323.72
584.052	388.24
584.254	283.23
584.456	362.28
584.657	294.85
584.859	323.91
585.061	324.88
585.262	292.91
585.464	300.86
585.666	341.74
585.867	306.09
586.069	374.87
586.27	338.83
586.472	339.8
586.674	314.42
586.875	343.29
587.077	297.56
587.278	321.78
587.48	294.85
587.681	454.5
587.883	342.51
588.084	289.23
588.285	329.34
588.487	320.81
588.688	322.94
588.89	284.58
589.091	285.16
589.292	321.98
589.494	287.29
589.695	290.59
589.896	260.95
590.098	263.27
590.299	296.79
590.5	239.05
590.702	263.66
590.903	288.65
591.104	321.98
591.305	293.49
591.507	352.59
591.708	325.46
591.909	308.8
592.11	362.28
592.311	314.81
592.512	276.45
592.714	243.7
592.915	277.8
593.116	277.41
593.317	291.56
593.518	287.88
593.719	269.47
593.92	325.46
594.121	348.33
594.322	303.96
594.523	313.84
594.724	274.31
594.925	285.36
595.126	325.08
595.327	297.95
595.528	307.64
595.729	289.04
595.929	301.05
596.13	313.84
596.331	284.58
596.532	292.14
596.733	336.12
596.934	329.14
597.135	343.68
597.335	318.29
597.536	281.09
597.737	303.18
597.938	279.74
598.138	306.28
598.339	320.62
598.54	313.06
598.74	289.81
598.941	333.21
599.142	373.9
599.342	324.69
599.543	296.01
599.744	306.48
599.944	260.17
600.145	262.69
600.345	311.9
600.546	366.92
600.746	344.26
600.947	359.95
601.147	322.94
601.348	349.1
601.548	290.59
601.749	292.14
601.949	266.56
602.15	278.38
602.35	306.28
602.551	339.03
602.751	291.75
602.951	282.84
603.152	240.02
603.352	323.72
603.552	300.28
603.753	335.93
603.953	322.75
604.153	292.53
604.354	274.51
604.554	304.93
604.754	296.01
604.954	274.12
605.155	317.13
605.355	308.41
605.555	332.63
605.755	362.86
605.955	332.44
606.155	333.41
606.356	307.64
606.556	333.79
606.756	321.01
606.956	264.24
607.156	350.07
607.356	285.36
607.556	322.56
607.756	284.58
607.956	358.01
608.156	311.32
608.356	279.93
608.556	350.65
608.756	317.52
608.956	274.31
609.156	332.83
609.356	253.39
609.556	290.01
609.755	313.84
609.955	276.64
610.155	308.03
610.355	309.96
610.555	244.09
610.755	313.64
610.954	248.55
611.154	326.24
611.354	333.99
611.554	282.84
611.753	286.33
611.953	245.06
612.153	315.78
612.352	287.29
612.552	254.55
612.752	222
612.951	280.51
613.151	307.25
613.351	246.22
613.55	277.8
613.75	315.97
613.949	290.78
614.149	326.24
614.348	299.89
614.548	284.58
614.747	239.83
614.947	271.99
615.146	231.11
615.346	303.96
615.545	280.51
615.745	286.13
615.944	315.19
616.144	265.01
616.343	323.72
616.542	274.7
616.742	317.52
616.941	300.86
617.14	244.09
617.34	291.94
617.539	291.36
617.738	245.45
617.938	341.74
618.137	275.28
618.336	213.48
618.535	269.66
618.734	251.65
618.934	262.69
619.133	268.89
619.332	279.74
619.531	251.84
619.73	256.3
619.929	296.79
620.128	318.1
620.328	342.51
620.527	287.49
620.726	260.36
620.925	298.53
621.124	240.02
621.323	283.23
621.522	227.04
621.721	222.39
621.92	264.05
622.119	302.79
622.318	260.56
622.517	256.68
622.715	246.61
622.914	220.84
623.113	253
623.312	212.31
623.511	301.83
623.71	280.71
623.909	241.38
624.107	306.67
624.306	237.5
624.505	230.53
624.704	242.35
624.902	241.76
625.101	312.68
625.3	281.87
625.499	249.32
625.697	259.2
625.896	234.21
626.095	272.57
626.293	224.91
626.492	248.93
626.69	267.15
626.889	227.04
627.088	278.58
627.286	219.87
627.485	244.28
627.683	248.16
627.882	290.59
