Data from pine_FLMT105791__127__17-22-26-075.txt Node

Date: Mon Mar 20 17:22:26 GMT 2023
User: antho
Spectrometer: FLMT10579
Trigger mode: 0
Integration Time (sec): 1.000000E-1
Scans to average: 10
Electric dark correction enabled: true
Nonlinearity correction enabled: false
Boxcar width: 0
XAxis mode: Wavelengths
Number of Pixels in Spectrum: 3648
>>>>>Begin Spectral Data<<<<<
345.248	-148.86
345.464	-148.86
345.681	-148.86
345.898	-172.5
346.114	-177.92
346.331	-36.3
346.548	15.63
346.764	10.2
346.981	-22.73
347.197	-24.28
347.414	8.27
347.631	-14.6
347.847	70.85
348.064	28.61
348.28	34.23
348.497	-45.4
348.713	-24.48
348.93	13.5
349.146	-0.06
349.363	17.57
349.579	10.01
349.796	-26.03
350.012	-5.49
350.229	15.24
350.445	24.15
350.661	-27.38
350.878	-9.95
351.094	37.13
351.311	27.84
351.527	17.37
351.743	-27.38
351.96	14.47
352.176	37.33
352.392	5.17
352.609	31.71
352.825	1.87
353.041	24.54
353.257	-25.45
353.474	11.75
353.69	15.44
353.906	12.92
354.122	-18.66
354.339	51.28
354.555	11.37
354.771	-7.43
354.987	60.77
355.203	85.18
355.42	-0.45
355.636	-5.68
355.852	1.1
356.068	10.01
356.284	-36.1
356.5	49.92
356.716	32.1
356.932	-3.94
357.148	34.23
357.364	40.23
357.58	26.29
357.796	73.37
358.012	13.11
358.228	21.64
358.444	-26.8
358.66	46.24
358.876	17.37
359.092	3.42
359.308	5.55
359.524	35
359.74	-10.91
359.956	16.21
360.172	29.58
360.388	43.72
360.604	1.29
360.819	93.13
361.035	33.26
361.251	29.19
361.467	-10.72
361.683	37.72
361.898	26.29
362.114	39.65
362.33	25.7
362.546	31.13
362.762	8.27
362.977	31.13
363.193	10.4
363.409	35.58
363.624	-4.91
363.84	-18.08
364.056	26.09
364.271	36.75
364.487	43.14
364.703	-2.78
364.918	-24.28
365.134	-15.76
365.35	4.97
365.565	93.52
365.781	29.58
365.996	2.07
366.212	71.82
366.427	49.53
366.643	-8.2
366.858	1.29
367.074	-10.72
367.289	64.65
367.505	116.76
367.72	-44.82
367.936	-5.49
368.151	29.77
368.367	29.58
368.582	38.3
368.798	11.17
369.013	65.42
369.228	8.27
369.444	5.75
369.659	84.41
369.874	58.64
370.09	94.68
370.305	-54.51
370.52	-18.08
370.736	79.37
370.951	2.84
371.166	68.13
371.381	75.88
371.597	28.03
371.812	-29.9
372.027	-20.8
372.242	11.75
372.458	48.95
372.673	0.52
372.888	17.76
373.103	15.24
373.318	103.2
373.533	22.6
373.749	53.41
373.964	-15.18
374.179	70.65
374.394	-2.2
374.609	66.39
374.824	-13.63
375.039	40.23
375.254	3.23
375.469	94.1
375.684	16.4
375.899	69.3
376.114	30.35
376.329	52.05
376.544	60.58
376.759	63.87
376.974	7.1
377.189	-3.55
377.404	8.65
377.619	53.8
377.834	-35.52
378.049	-17.7
378.264	0.71
378.478	20.09
378.693	-10.53
378.908	33.84
379.123	40.62
379.338	75.88
379.553	15.82
379.767	22.41
379.982	57.48
380.197	60.58
380.412	28.22
380.626	45.66
380.841	117.35
381.056	55.54
381.271	77.43
381.485	-22.15
381.7	-16.15
381.915	27.84
382.129	29.77
382.344	41.78
382.559	40.23
382.773	57.48
382.988	-21.96
383.202	3.04
383.417	-4.71
383.632	123.16
383.846	44.69
384.061	22.6
384.275	24.74
384.49	32.29
384.704	62.71
384.919	48.37
385.133	2.07
385.348	29.77
385.562	-20.6
385.777	75.88
385.991	8.27
386.206	9.04
386.42	-2.2
386.634	74.14
386.849	28.03
387.063	64.65
387.277	0.52
387.492	-3.16
387.706	6.91
387.92	-22.73
388.135	34.42
388.349	43.33
388.563	41.78
388.778	32.87
388.992	28.03
389.206	79.95
389.42	101.46
389.635	48.18
389.849	69.1
390.063	83.83
390.277	52.05
390.491	93.71
390.706	59.22
390.92	54.96
391.134	34.42
391.348	51.67
391.562	-29.71
391.776	28.61
391.99	8.27
392.205	44.5
392.419	11.75
392.633	13.3
392.847	76.08
393.061	0.9
393.275	72.4
393.489	25.7
393.703	69.68
393.917	67.75
394.131	14.85
394.345	52.44
394.559	45.47
394.773	24.35
394.986	43.53
395.2	23.96
395.414	94.87
395.628	-8.59
395.842	43.53
396.056	18.54
396.27	-33.78
396.484	54.38
396.697	54.38
396.911	79.76
397.125	39.07
397.339	95.45
397.553	60.38
397.766	112.12
397.98	77.82
398.194	72.2
398.408	53.41
398.621	40.82
398.835	78.79
399.049	52.25
399.262	63.87
399.476	83.25
399.69	62.9
399.903	113.47
400.117	66.39
400.331	78.6
400.544	24.35
400.758	187.68
400.971	77.24
401.185	97.78
401.398	9.24
401.612	121.41
401.826	75.11
402.039	83.44
402.253	43.14
402.466	82.47
402.68	63.1
402.893	103.78
403.106	42.95
403.32	68.52
403.533	77.63
403.747	71.43
403.96	40.62
404.174	92.93
404.387	42.95
404.6	66
404.814	66.97
405.027	65.42
405.24	65.23
405.454	65.62
405.667	104.56
405.88	6.14
406.094	81.7
406.307	89.64
406.52	100.68
406.733	37.52
406.947	12.92
407.16	117.15
407.373	126.26
407.586	37.13
407.799	22.6
408.012	100.49
408.226	94.1
408.439	123.55
408.652	26.48
408.865	108.82
409.078	112.31
409.291	92.55
409.504	34.62
409.717	78.4
409.93	79.95
410.143	75.11
410.357	25.32
410.57	27.45
410.783	76.66
410.996	66.58
411.209	97.39
411.421	106.69
411.634	71.43
411.847	44.5
412.06	66.39
412.273	73.95
412.486	106.69
412.699	151.06
412.912	80.73
413.125	106.88
413.338	74.92
413.55	97
413.763	78.4
413.976	87.12
414.189	85.18
414.402	58.45
414.615	130.13
414.827	54.96
415.04	125.29
415.253	114.25
415.466	128.39
415.678	171.21
415.891	106.88
416.104	86.73
416.316	98.36
416.529	75.5
416.742	94.29
416.954	140.98
417.167	101.07
417.38	87.51
417.592	149.51
417.805	66.2
418.017	26.29
418.23	122.96
418.442	64.65
418.655	75.88
418.868	88.28
419.08	126.65
419.293	131.1
419.505	120.64
419.718	108.05
419.93	146.6
420.142	103.4
420.355	137.88
420.567	162.88
420.78	140.6
420.992	82.67
421.205	160.55
421.417	73.95
421.629	95.07
421.842	86.93
422.054	67.36
422.266	143.5
422.479	165.98
422.691	92.74
422.903	144.47
423.115	91.58
423.328	128.39
423.54	108.43
423.752	117.54
423.964	108.05
424.177	161.13
424.389	103.59
424.601	210.15
424.813	124.32
425.025	160.16
425.238	155.51
425.45	129.55
425.662	109.98
425.874	430.25
426.086	112.5
426.298	153.58
426.51	155.51
426.722	128
426.934	101.27
427.146	170.63
427.358	99.91
427.57	182.83
427.782	115.22
427.994	129.94
428.206	114.05
428.418	93.13
428.63	171.21
428.842	173.73
429.054	149.31
429.266	159.58
429.478	118.31
429.69	119.48
429.902	92.74
430.114	168.5
430.325	152.22
430.537	124.51
430.749	143.89
430.961	78.21
431.173	112.12
431.384	165.98
431.596	85.77
431.808	131.88
432.02	159.58
432.231	198.72
432.443	206.66
432.655	172.37
432.867	130.13
433.078	176.44
433.29	232.82
433.502	222.55
433.713	217.51
433.925	188.45
434.136	210.15
434.348	112.5
434.56	114.25
434.771	240.96
434.983	126.26
435.194	177.99
435.406	154.93
435.617	217.51
435.829	272.15
436.04	196.59
436.252	204.92
436.463	234.18
436.675	224.29
436.886	214.99
437.098	236.11
437.309	264.4
437.521	206.28
437.732	220.61
437.943	206.28
438.155	209.96
438.366	153.19
438.578	279.71
438.789	241.93
439	220.23
439.211	230.88
439.423	221.97
439.634	225.07
439.845	240.57
440.057	237.28
440.268	263.04
440.479	178.38
440.69	240.18
440.902	201.82
441.113	226.81
441.324	205.31
441.535	251.23
441.746	298.89
441.957	202.6
442.168	219.26
442.38	239.6
442.591	270.21
442.802	219.26
443.013	221.39
443.224	241.34
443.435	230.49
443.646	238.05
443.857	249.68
444.068	231.66
444.279	197.56
444.49	319.04
444.701	260.33
444.912	367.09
445.123	297.92
445.334	279.71
445.545	300.82
445.756	275.64
445.967	246.58
446.178	261.11
446.388	322.52
446.599	293.46
446.81	280.48
447.021	274.48
447.232	296.76
447.443	352.36
447.653	263.24
447.864	290.94
448.075	292.69
448.286	323.69
448.496	294.82
448.707	327.17
448.918	288.62
449.129	410.87
449.339	256.65
449.55	304.51
449.761	301.79
449.971	381.81
450.182	315.94
450.393	318.07
450.603	317.29
450.814	353.33
451.024	343.06
451.235	343.45
451.446	405.45
451.656	382.2
451.867	299.08
452.077	333.18
452.288	384.14
452.498	389.17
452.709	324.07
452.919	363.99
453.13	332.99
453.34	377.94
453.55	267.69
453.761	345.58
453.971	357.4
454.182	381.81
454.392	321.56
454.602	400.8
454.813	366.12
455.023	396.15
455.233	304.12
455.444	364.96
455.654	290.94
455.864	338.61
456.075	326.21
456.285	324.85
456.495	343.64
456.705	363.79
456.916	390.72
457.126	407.97
457.336	327.76
457.546	291.14
457.756	313.22
457.967	405.45
458.177	339.38
458.387	370.77
458.597	340.35
458.807	338.61
459.017	354.3
459.227	362.44
459.437	366.12
459.647	388.2
459.857	368.83
460.068	347.71
460.278	427.34
460.488	385.3
460.698	410.1
460.908	378.52
461.117	300.44
461.327	349.26
461.537	374.06
461.747	373.29
461.957	391.11
462.167	474.81
462.377	431.99
462.587	403.32
462.797	425.4
463.007	368.83
463.216	421.72
463.426	469.38
463.636	433.54
463.846	376
464.056	398.86
464.265	428.89
464.475	353.72
464.685	390.53
464.895	465.9
465.104	389.75
465.314	424.82
465.524	396.15
465.733	364.37
465.943	482.95
466.153	455.63
466.362	450.79
466.572	425.21
466.782	368.64
466.991	413.78
467.201	454.85
467.41	383.94
467.62	436.45
467.829	404.87
468.039	433.15
468.249	429.47
468.458	437.61
468.668	445.36
468.877	482.56
469.086	493.22
469.296	465.7
469.505	421.53
469.715	508.52
469.924	448.65
470.134	512.4
470.343	495.15
470.552	450.01
470.762	416.49
470.971	396.92
471.18	459.31
471.39	469.97
471.599	409.52
471.808	505.23
472.018	475.39
472.227	511.43
472.436	548.82
472.645	464.35
472.855	456.99
473.064	518.02
473.273	511.04
473.482	523.63
473.691	545.92
473.901	526.15
474.11	485.47
474.319	580.4
474.528	510.07
474.737	571.49
474.946	550.57
475.155	542.43
475.364	555.21
475.573	554.05
475.783	546.5
475.992	576.33
476.201	555.6
476.41	559.86
476.619	536.42
476.828	553.08
477.037	546.3
477.245	529.64
477.454	574.98
477.663	552.5
477.872	525.38
478.081	631.36
478.29	546.88
478.499	661.97
478.708	599.78
478.917	652.28
479.125	587.38
479.334	627.1
479.543	617.02
479.752	605.98
479.961	621.67
480.169	667.78
480.378	592.8
480.587	703.24
480.796	672.43
481.004	637.75
481.213	651.89
481.422	667.2
481.63	663.52
481.839	678.44
482.048	719.9
482.256	668.56
482.465	704.59
482.674	713.7
482.882	699.75
483.091	743.54
483.299	679.21
483.508	700.33
483.716	710.6
483.925	708.66
484.134	669.33
484.342	666.62
484.551	722.81
484.759	723.58
484.967	707.69
485.176	753.61
485.384	766.98
485.593	755.74
485.801	710.6
486.01	727.65
486.218	673.01
486.426	620.7
486.635	660.03
486.843	660.42
487.051	687.74
487.26	649.18
487.468	701.3
487.676	717.96
487.885	689.48
488.093	739.66
488.301	727.46
488.509	734.82
488.717	765.82
488.926	714.48
489.134	730.36
489.342	765.04
489.55	714.28
489.758	778.8
489.967	744.89
490.175	865.4
490.383	761.94
490.591	889.62
490.799	754.39
491.007	838.67
491.215	816
491.423	778.02
491.631	791.39
491.839	793.72
492.047	824.52
492.255	761.17
492.463	759.23
492.671	770.47
492.879	863.27
493.087	810.77
493.295	820.65
493.503	857.46
493.711	873.35
493.919	855.72
494.127	892.34
494.334	858.04
494.542	847.58
494.75	893.69
494.958	850.87
495.166	934.18
495.374	865.6
495.581	901.05
495.789	871.6
495.997	915.39
496.205	894.08
496.412	893.5
496.62	863.85
496.828	912.29
497.035	894.85
497.243	905.51
497.451	891.95
497.658	946.39
497.866	914.42
498.074	965.77
498.281	861.72
498.489	965.96
498.696	928.95
498.904	857.85
499.112	885.55
499.319	983.4
499.527	932.25
499.734	945.03
499.942	871.41
500.149	896.6
500.357	917.52
500.564	892.72
500.771	936.32
500.979	874.12
501.186	878.97
501.394	926.24
501.601	900.47
501.808	969.45
502.016	918.3
502.223	931.28
502.43	955.3
502.638	914.42
502.845	920.23
503.052	999.48
503.26	958.4
503.467	988.63
503.674	950.85
503.881	972.93
504.089	1054.11
504.296	970.61
504.503	935.54
504.71	964.22
504.917	946.78
505.125	972.74
505.332	998.9
505.539	983.98
505.746	1078.72
505.953	1047.53
506.16	1052.56
506.367	1114.76
506.574	1098.87
506.781	1065.16
506.988	1014.78
507.195	996.76
507.402	1038.03
507.609	1052.18
507.816	1005.48
508.023	1045.78
508.23	1032.22
508.437	998.9
508.644	1036.68
508.851	1084.73
509.058	1075.23
509.265	1059.93
509.472	1101.19
509.679	1162.61
509.885	1103.13
510.092	1083.18
510.299	1100.42
510.506	1088.41
510.713	1116.5
510.92	1074.65
511.126	1138.39
511.333	1179.08
511.54	1162.23
511.746	1199.62
511.953	1223.06
512.16	1214.73
512.367	1149.24
512.573	1136.65
512.78	1144.59
512.987	1139.36
513.193	1144.59
513.4	1063.61
513.606	1116.89
513.813	1171.14
514.02	1150.79
514.226	1209.31
514.433	1174.82
514.639	1082.59
514.846	1187.99
515.052	1106.04
515.259	1166.1
515.465	1187.61
515.672	1212.21
515.878	1277.5
516.085	1178.11
516.291	1271.5
516.497	1147.31
516.704	1157.38
516.91	1135.88
517.117	1109.53
517.323	1071.55
517.529	1102.74
517.736	1084.53
517.942	1100.23
518.148	1144.79
518.354	1152.34
518.561	1166.1
518.767	1147.31
518.973	1203.11
519.179	1200.59
519.386	1195.55
519.592	1187.99
519.798	1194.58
520.004	1287.39
520.21	1231.2
520.417	1281.38
520.623	1319.74
520.829	1342.41
521.035	1324.59
521.241	1311.22
521.447	1379.61
521.653	1449.55
521.859	1316.64
522.065	1357.33
522.271	1473.96
522.477	1398.21
522.683	1437.93
522.889	1406.35
523.095	1376.12
523.301	1402.67
523.507	1352.1
523.713	1377.28
523.919	1410.03
524.125	1469.51
524.331	1417
524.537	1513.3
524.742	1490.24
524.948	1514.46
525.154	1506.51
525.36	1585.76
525.566	1502.25
525.772	1569.48
525.977	1452.85
526.183	1523.18
526.389	1553.21
526.595	1479
526.8	1494.7
527.006	1409.25
527.212	1380.77
527.417	1357.33
527.623	1377.28
527.829	1446.65
528.034	1449.36
528.24	1484.62
528.446	1443.93
528.651	1531.51
528.857	1545.26
529.062	1607.65
529.268	1569.29
529.473	1614.24
529.679	1589.83
529.884	1627.02
530.09	1648.34
530.295	1609.97
530.501	1598.54
530.706	1621.41
530.912	1583.04
531.117	1614.62
531.323	1649.11
531.528	1674.3
531.733	1671.59
531.939	1629.74
532.144	1687.47
532.35	1652.79
532.555	1690.19
532.76	1666.74
532.966	1673.33
533.171	1627.22
533.376	1562.31
533.581	1613.46
533.787	1645.24
533.992	1626.06
534.197	1684.18
534.402	1632.64
534.607	1644.66
534.813	1744.24
535.018	1690.19
535.223	1700.65
535.428	1719.64
535.633	1745.6
535.838	1748.31
536.043	1741.34
536.249	1821.74
536.454	1731.45
536.659	1748.5
536.864	1704.14
537.069	1712.47
537.274	1766.91
537.479	1716.73
537.684	1749.86
537.889	1723.12
538.094	1819.22
538.299	1745.99
538.504	1773.11
538.708	1760.32
538.913	1799.85
539.118	1765.94
539.323	1760.9
539.528	1750.25
539.733	1716.54
539.938	1769.62
540.142	1784.93
540.347	1748.12
540.552	1715.95
540.757	1742.89
540.962	1718.86
541.166	1673.14
541.371	1698.71
541.576	1729.52
541.781	1634.77
541.985	1811.86
542.19	1771.17
542.395	1794.23
542.599	1843.63
542.804	1812.44
543.008	1808.57
543.213	1774.08
543.418	1768.27
543.622	1805.66
543.827	1747.92
544.031	1855.07
544.236	1852.16
544.44	1843.63
544.645	1916.48
544.849	1800.62
545.054	1861.07
545.258	1904.47
545.463	1877.35
545.667	1813.8
545.872	1844.99
546.076	1838.6
546.281	1845.38
546.485	1826.39
546.689	1857.97
546.894	1855.26
547.098	1894.98
547.302	1816.12
547.507	1853.9
547.711	1852.55
547.915	1903.5
548.119	1831.23
548.324	1804.88
548.528	1922.49
548.732	1838.02
548.936	1904.28
549.141	1904.86
549.345	1842.67
549.549	1846.54
549.753	1889.16
549.957	1931.01
550.161	1929.85
550.366	1871.92
550.57	1886.45
550.774	1865.33
550.978	1886.45
551.182	1917.84
551.386	1834.33
551.59	1858.94
551.794	1914.35
551.998	1916.87
552.202	1860.68
552.406	1833.56
552.61	1925.4
552.814	1869.4
553.018	1957.36
553.222	1845.57
553.426	1846.35
553.63	1962.98
553.833	1885.68
554.037	1827.17
554.241	1887.81
554.445	1877.93
554.649	1923.65
554.853	1867.66
555.056	1927.91
555.26	1942.45
555.464	1913
555.668	1905.44
555.871	1918.23
556.075	1951.94
556.279	1895.36
556.483	1848.09
556.686	1871.15
556.89	1876.57
557.094	1888
557.297	1820.77
557.501	1904.08
557.704	1797.33
557.908	1891.3
558.112	1803.33
558.315	1885.48
558.519	1825.03
558.722	1824.07
558.926	1807.4
559.129	1731.84
559.333	1744.63
559.536	1734.17
559.74	1754.9
559.943	1743.85
560.147	1756.25
560.35	1764.59
560.553	1748.7
560.757	1710.53
560.96	1845.38
561.164	1747.54
561.367	1846.73
561.57	1758.19
561.774	1779.12
561.977	1791.9
562.18	1751.6
562.384	1844.99
562.587	1760.52
562.79	1812.63
562.993	1762.45
563.197	1784.73
563.4	1847.51
563.603	1812.63
563.806	1850.8
564.009	1749.28
564.212	1816.12
564.416	1715.95
564.619	1788.03
564.822	1697.35
565.025	1782.41
565.228	1722.15
565.431	1747.54
565.634	1636.91
565.837	1699.49
566.04	1662.48
566.243	1670.42
566.446	1639.04
566.649	1680.31
566.852	1627.61
567.055	1633.03
567.258	1713.44
567.461	1755.87
567.664	1718.86
567.867	1619.08
568.07	1677.4
568.273	1673.52
568.475	1737.07
568.678	1648.53
568.881	1648.14
569.084	1639.62
569.287	1535.58
569.489	1566.96
569.692	1614.43
569.895	1642.52
570.098	1567.74
570.3	1544.49
570.503	1497.6
570.706	1515.04
570.909	1524.14
571.111	1464.08
571.314	1513.1
571.516	1530.54
571.719	1534.41
571.922	1454.01
572.124	1534.03
572.327	1495.28
572.529	1468.15
572.732	1481.13
572.935	1559.6
573.137	1613.46
573.34	1485.98
573.542	1554.18
573.745	1547.59
573.947	1514.65
574.15	1509.42
574.352	1482.3
574.554	1560.57
574.757	1506.51
574.959	1479.97
575.162	1462.92
575.364	1465.44
575.566	1550.69
575.769	1466.8
575.971	1464.66
576.173	1377.09
576.376	1464.28
576.578	1507.48
576.78	1514.84
576.982	1363.92
577.185	1458.08
577.387	1404.02
577.589	1429.98
577.791	1432.89
577.993	1460.98
578.196	1424.95
578.398	1467.96
578.6	1458.85
578.802	1358.49
579.004	1356.17
579.206	1384.84
579.408	1409.45
579.61	1399.37
579.812	1446.65
580.014	1375.93
580.216	1372.25
580.418	1431.15
580.62	1372.63
580.822	1350.74
581.024	1402.28
581.226	1448.78
581.428	1406.73
581.63	1505.35
581.832	1397.43
582.034	1468.93
582.236	1391.23
582.438	1459.82
582.64	1465.25
582.841	1503.03
583.043	1543.71
583.245	1474.35
583.447	1432.89
583.649	1431.53
583.85	1446.84
584.052	1463.89
584.254	1395.69
584.456	1503.41
584.657	1384.26
584.859	1428.05
585.061	1403.83
585.262	1380.97
585.464	1373.6
585.666	1393.37
585.867	1383.29
586.069	1462.92
586.27	1421.65
586.472	1408.48
586.674	1350.74
586.875	1389.3
587.077	1345.32
587.278	1394.92
587.48	1379.42
587.681	1466.21
587.883	1400.53
588.084	1315.48
588.285	1347.45
588.487	1332.34
588.688	1364.69
588.89	1308.31
589.091	1262.78
589.292	1222.09
589.494	1227.32
589.695	1196.52
589.896	1122.89
590.098	1119.99
590.299	1204.46
590.5	1127.54
590.702	1163
590.903	1209.11
591.104	1306.18
591.305	1280.99
591.507	1322.65
591.708	1265.69
591.909	1268.98
592.11	1318.77
592.311	1290.29
592.512	1238.17
592.714	1196.52
592.915	1250.96
593.116	1239.34
593.317	1283.12
593.518	1267.04
593.719	1260.26
593.92	1314.9
594.121	1292.42
594.322	1281.57
594.523	1274.21
594.724	1219.77
594.925	1217.64
595.126	1257.94
595.327	1305.21
595.528	1260.26
595.729	1265.49
595.929	1256
596.13	1251.54
596.331	1258.32
596.532	1270.72
596.733	1319.35
596.934	1276.73
597.135	1293.78
597.335	1282.54
597.536	1235.07
597.737	1271.69
597.938	1245.73
598.138	1254.45
598.339	1252.9
598.54	1260.84
598.74	1274.21
598.941	1268.4
599.142	1290.68
599.342	1277.31
599.543	1246.7
599.744	1286.8
599.944	1242.82
600.145	1266.65
600.345	1244.37
600.546	1359.27
600.746	1313.54
600.947	1357.91
601.147	1280.8
601.348	1321.29
601.548	1251.54
601.749	1284.29
601.949	1238.37
602.15	1227.32
602.35	1245.92
602.551	1258.71
602.751	1241.08
602.951	1243.21
603.152	1196.32
603.352	1309.09
603.552	1247.47
603.753	1319.16
603.953	1308.31
604.153	1296.69
604.354	1254.84
604.554	1251.93
604.754	1262.39
604.954	1221.71
605.155	1270.34
605.355	1235.85
605.555	1283.32
605.755	1312.19
605.955	1241.47
606.155	1302.5
606.356	1249.41
606.556	1278.67
606.756	1266.07
606.956	1200.78
607.156	1286.42
607.356	1209.5
607.556	1235.85
607.756	1268.2
607.956	1279.64
608.156	1239.72
608.356	1201.75
608.556	1258.32
608.756	1217.25
608.956	1210.47
609.156	1229.84
609.356	1214.73
609.556	1163.58
609.755	1221.32
609.955	1184.7
610.155	1201.36
610.355	1228.68
610.555	1166.68
610.755	1179.27
610.954	1168.81
611.154	1214.54
611.354	1204.66
611.554	1153.31
611.753	1176.56
611.953	1141.49
612.153	1199.81
612.352	1207.56
612.552	1151.76
612.752	1115.53
612.951	1176.17
613.151	1169.97
613.351	1139.94
613.55	1146.53
613.75	1178.69
613.949	1163.78
614.149	1180.82
614.348	1170.17
614.548	1108.94
614.747	1059.15
614.947	1103.13
615.146	1089.38
615.346	1190.71
615.545	1148.08
615.745	1150.02
615.944	1164.55
616.144	1119.6
616.343	1200.2
616.542	1134.33
616.742	1131.23
616.941	1110.49
617.14	1025.25
617.34	1117.66
617.539	1093.64
617.738	1055.28
617.938	1161.64
618.137	1117.08
618.336	1084.14
618.535	1117.47
