Data from pine_FLMT105791__189__17-23-43-072.txt Node

Date: Mon Mar 20 17:23:43 GMT 2023
User: antho
Spectrometer: FLMT10579
Trigger mode: 0
Integration Time (sec): 1.000000E-1
Scans to average: 10
Electric dark correction enabled: true
Nonlinearity correction enabled: false
Boxcar width: 0
XAxis mode: Wavelengths
Number of Pixels in Spectrum: 3648
>>>>>Begin Spectral Data<<<<<
345.248	-148.02
345.464	-148.02
345.681	-148.02
345.898	-170.89
346.114	-153.64
346.331	-30.03
346.548	20.34
346.764	24.99
346.981	-5.62
347.197	-28.48
347.414	30.22
347.631	-32.55
347.847	32.55
348.064	13.76
348.28	-1.16
348.497	-37.01
348.713	12.98
348.93	35.46
349.146	18.21
349.363	-5.04
349.579	5.81
349.796	-3.29
350.012	5.42
350.229	2.91
350.445	-7.56
350.661	-37.78
350.878	5.23
351.094	36.42
351.311	14.34
351.527	12.59
351.743	-17.63
351.96	8.33
352.176	15.11
352.392	4.65
352.609	8.91
352.825	-29.45
353.041	-19.57
353.257	-15.11
353.474	-18.79
353.69	17.82
353.906	-13.56
354.122	-44.17
354.339	60.84
354.555	-16.27
354.771	-1.36
354.987	48.05
355.203	21.51
355.42	-25.57
355.636	-12.59
355.852	-18.21
356.068	0
356.284	-23.44
356.5	71.69
356.716	25.57
356.932	-15.11
357.148	11.24
357.364	17.05
357.58	35.84
357.796	58.9
358.012	38.94
358.228	2.32
358.444	-39.91
358.66	63.74
358.876	20.54
359.092	-30.81
359.308	6.39
359.524	27.9
359.74	-22.67
359.956	-22.09
360.172	-9.69
360.388	28.67
360.604	-14.34
360.819	60.26
361.035	-16.47
361.251	55.61
361.467	-11.04
361.683	-4.65
361.898	18.02
362.114	45.14
362.33	3.1
362.546	4.84
362.762	-1.94
362.977	-7.75
363.193	-32.36
363.409	26.54
363.624	-33.91
363.84	-28.67
364.056	-9.88
364.271	-14.53
364.487	17.24
364.703	-8.91
364.918	-18.41
365.134	-8.52
365.35	-1.36
365.565	108.11
365.781	-5.04
365.996	30.22
366.212	45.92
366.427	4.26
366.643	-16.86
366.858	1.74
367.074	-52.89
367.289	59.09
367.505	94.94
367.72	-59.09
367.936	-26.54
368.151	15.11
368.367	11.24
368.582	20.92
368.798	-20.73
369.013	55.61
369.228	18.99
369.444	8.91
369.659	52.12
369.874	1.55
370.09	67.04
370.305	-56.19
370.52	4.07
370.736	58.12
370.951	4.26
371.166	62.58
371.381	81.76
371.597	37.78
371.812	-29.45
372.027	-31.58
372.242	-17.44
372.458	64.52
372.673	-19.57
372.888	4.07
373.103	-16.66
373.318	70.14
373.533	9.3
373.749	18.6
373.964	-29.64
374.179	67.81
374.394	-26.16
374.609	47.47
374.824	-31.97
375.039	50.76
375.254	-6.2
375.469	59.48
375.684	4.07
375.899	57.93
376.114	7.94
376.329	6.97
376.544	54.64
376.759	38.36
376.974	-44.17
377.189	5.04
377.404	-0.97
377.619	31.39
377.834	-29.84
378.049	-40.3
378.264	-22.86
378.478	16.47
378.693	-34.87
378.908	15.31
379.123	-6.97
379.338	66.84
379.553	34.87
379.767	7.75
379.982	35.26
380.197	17.63
380.412	-0.77
380.626	21.7
380.841	95.13
381.056	12.01
381.271	76.72
381.485	-12.79
381.7	-51.73
381.915	-0.97
382.129	-1.94
382.344	18.79
382.559	-25.77
382.773	36.81
382.988	-27.71
383.202	1.94
383.417	18.02
383.632	100.75
383.846	9.3
384.061	12.4
384.275	6.2
384.49	15.69
384.704	2.71
384.919	14.34
385.133	-2.91
385.348	23.06
385.562	-16.86
385.777	32.36
385.991	-12.59
386.206	-14.34
386.42	-14.34
386.634	25.57
386.849	19.96
387.063	13.37
387.277	-31.19
387.492	-17.24
387.706	-17.63
387.92	-26.35
388.135	20.15
388.349	23.64
388.563	8.72
388.778	-1.94
388.992	31.97
389.206	31.39
389.42	66.84
389.635	-1.36
389.849	21.12
390.063	19.37
390.277	13.56
390.491	54.06
390.706	46.31
390.92	18.6
391.134	7.36
391.348	19.37
391.562	-61.61
391.776	-13.95
391.99	-17.82
392.205	39.72
392.419	-21.89
392.633	-2.32
392.847	50.37
393.061	-12.79
393.275	101.91
393.489	30.81
393.703	27.9
393.917	55.02
394.131	5.42
394.345	24.99
394.559	43.01
394.773	-0.77
394.986	30.61
395.2	11.04
395.414	30.61
395.628	-50.96
395.842	10.46
396.056	4.26
396.27	-78.86
396.484	14.92
396.697	4.07
396.911	31.77
397.125	13.17
397.339	45.53
397.553	34.87
397.766	70.14
397.98	59.48
398.194	60.45
398.408	7.17
398.621	20.73
398.835	31.77
399.049	10.46
399.262	46.31
399.476	50.18
399.69	31
399.903	67.81
400.117	26.16
400.331	27.51
400.544	-33.71
400.758	130.39
400.971	23.83
401.185	53.09
401.398	-25.19
401.612	49.99
401.826	27.9
402.039	5.23
402.253	0.58
402.466	27.71
402.68	-19.18
402.893	24.22
403.106	21.31
403.32	19.18
403.533	24.61
403.747	17.82
403.96	30.03
404.174	36.04
404.387	-24.22
404.6	-17.44
404.814	35.07
405.027	21.51
405.24	8.72
405.454	-19.18
405.667	24.8
405.88	-38.17
406.094	4.26
406.307	60.06
406.52	29.64
406.733	-26.74
406.947	-32.55
407.16	80.6
407.373	65.29
407.586	-26.16
407.799	-25.57
408.012	78.08
408.226	23.06
408.439	56.38
408.652	-22.67
408.865	15.5
409.078	49.21
409.291	15.89
409.504	-0.77
409.717	23.83
409.93	8.52
410.143	30.42
410.357	-25.19
410.57	-23.44
410.783	-7.75
410.996	18.41
411.209	9.49
411.421	68.39
411.634	9.88
411.847	2.32
412.06	21.7
412.273	-27.51
412.486	14.53
412.699	96.68
412.912	-8.33
413.125	39.52
413.338	20.34
413.55	32.55
413.763	22.09
413.976	31
414.189	-11.43
414.402	-0.39
414.615	59.09
414.827	-8.14
415.04	37.2
415.253	27.51
415.466	53.09
415.678	77.5
415.891	15.69
416.104	17.44
416.316	2.13
416.529	-15.11
416.742	24.41
416.954	44.56
417.167	6.2
417.38	-9.69
417.592	48.05
417.805	-35.26
418.017	-52.51
418.23	43.01
418.442	5.23
418.655	11.62
418.868	14.72
419.08	42.04
419.293	87.96
419.505	36.04
419.718	26.93
419.93	26.74
420.142	-2.13
420.355	47.47
420.567	61.22
420.78	27.71
420.992	-5.42
421.205	63.55
421.417	-37.01
421.629	-7.75
421.842	-37.01
422.054	-26.54
422.266	24.99
422.479	41.27
422.691	2.71
422.903	35.07
423.115	5.81
423.328	17.05
423.54	26.93
423.752	54.83
423.964	-2.13
424.177	23.44
424.389	-13.76
424.601	117.99
424.813	17.44
425.025	63.74
425.238	59.87
425.45	0.19
425.662	6.2
425.874	301.28
426.086	12.59
426.298	33.52
426.51	21.7
426.722	35.07
426.934	1.16
427.146	49.02
427.358	-35.26
427.57	47.86
427.782	13.95
427.994	24.99
428.206	7.17
428.418	-13.95
428.63	20.54
428.842	33.91
429.054	28.09
429.266	53.28
429.478	-9.3
429.69	35.46
429.902	-40.49
430.114	63.16
430.325	70.91
430.537	38.56
430.749	31.58
430.961	3.87
431.173	29.06
431.384	71.49
431.596	-41.07
431.808	10.46
432.02	28.67
432.231	60.45
432.443	47.27
432.655	-2.32
432.867	-2.13
433.078	47.08
433.29	53.47
433.502	36.23
433.713	63.55
433.925	5.42
434.136	40.69
434.348	-29.26
434.56	-34.68
434.771	111.79
434.983	-0.77
435.194	-7.17
435.406	6.59
435.617	45.14
435.829	82.15
436.04	39.33
436.252	37.39
436.463	74.21
436.675	53.86
436.886	39.33
437.098	26.93
437.309	63.36
437.521	9.69
437.732	15.11
437.943	57.93
438.155	-11.82
438.366	-30.61
438.578	74.59
438.789	30.22
439	75.56
439.211	19.37
439.423	43.79
439.634	44.95
439.845	38.94
440.057	44.17
440.268	52.7
440.479	7.75
440.69	12.79
440.902	11.82
441.113	16.66
441.324	6.59
441.535	19.57
441.746	78.86
441.957	-22.09
442.168	-0
442.38	31
442.591	38.94
442.802	-7.75
443.013	18.41
443.224	27.32
443.435	22.86
443.646	19.57
443.857	20.54
444.068	19.96
444.279	-0.58
444.49	72.46
444.701	33.91
444.912	124.19
445.123	59.29
445.334	42.43
445.545	25.19
445.756	23.83
445.967	3.68
446.178	29.26
446.388	56.19
446.599	56.38
446.81	51.92
447.021	36.42
447.232	75.56
447.443	61.42
447.653	-1.55
447.864	64.91
448.075	18.79
448.286	54.44
448.496	48.44
448.707	68.2
448.918	7.94
449.129	96.29
449.339	-19.18
449.55	58.71
449.761	39.72
449.971	78.08
450.182	30.61
450.393	39.91
450.603	6.39
450.814	40.69
451.024	39.91
451.235	62.97
451.446	73.62
451.656	99.39
451.867	20.92
452.077	48.44
452.288	69.94
452.498	97.26
452.709	31.19
452.919	56.96
453.13	8.14
453.34	94.16
453.55	7.17
453.761	55.8
453.971	65.87
454.182	75.37
454.392	72.66
454.602	103.65
454.813	75.95
455.023	82.54
455.233	2.52
455.444	69.17
455.654	9.88
455.864	42.82
456.075	35.84
456.285	0
456.495	38.36
456.705	55.22
456.916	108.69
457.126	84.67
457.336	32.16
457.546	-22.47
457.756	33.91
457.967	91.84
458.177	37.2
458.387	59.48
458.597	10.27
458.807	29.64
459.017	48.05
459.227	36.42
459.437	53.09
459.647	79.44
459.857	90.09
460.068	44.95
460.278	108.89
460.488	44.37
460.698	97.07
460.908	36.04
461.117	4.65
461.327	4.84
461.537	44.17
461.747	55.41
461.957	66.65
462.167	165.46
462.377	71.88
462.587	73.43
462.797	98.62
463.007	49.79
463.216	69.36
463.426	98.81
463.636	64.71
463.846	7.75
464.056	33.71
464.265	95.13
464.475	56.96
464.685	61.42
464.895	64.13
465.104	66.07
465.314	85.64
465.524	38.17
465.733	32.16
465.943	121.09
466.153	109.85
466.362	85.44
466.572	49.21
466.782	69.17
466.991	41.85
467.201	119.74
467.41	27.9
467.62	98.62
467.829	62
468.039	96.49
468.249	32.94
468.458	66.07
468.668	99.78
468.877	79.05
469.086	112.18
469.296	113.54
469.505	45.14
469.715	99.59
469.924	51.54
470.134	92.03
470.343	116.25
470.552	86.02
470.762	65.29
470.971	42.24
471.18	64.71
471.39	73.82
471.599	39.52
471.808	71.49
472.018	27.51
472.227	94.55
472.436	107.92
472.645	23.44
472.855	32.16
473.064	114.7
473.273	77.5
473.482	115.28
473.691	118.77
473.901	80.21
474.11	75.56
474.319	152.67
474.528	88.15
474.737	79.24
474.946	84.67
475.155	95.13
475.364	114.89
475.573	90.48
475.783	86.61
475.992	86.22
476.201	125.35
476.41	62.77
476.619	49.99
476.828	68.01
477.037	51.34
477.245	77.11
477.454	103.65
477.663	58.12
477.872	63.55
478.081	137.56
478.29	58.12
478.499	160.23
478.708	88.74
478.917	138.34
479.125	106.17
479.334	95.71
479.543	53.86
479.752	83.12
479.961	80.79
480.169	116.05
480.378	68.78
480.587	166.04
480.796	86.61
481.004	92.61
481.213	101.14
481.422	90.87
481.63	75.56
481.839	125.35
482.048	124.58
482.256	76.34
482.465	92.42
482.674	115.09
482.882	102.1
483.091	167.79
483.299	119.15
483.508	114.89
483.716	90.67
483.925	108.69
484.134	61.03
484.342	60.06
484.551	101.91
484.759	115.47
484.967	119.15
485.176	145.89
485.384	125.74
485.593	135.24
485.801	131.36
486.01	136.98
486.218	124.19
486.426	61.61
486.635	99
486.843	123.03
487.051	136.59
487.26	93.77
487.468	140.27
487.676	147.25
487.885	79.44
488.093	111.79
488.301	99.78
488.509	107.53
488.717	119.93
488.926	102.1
489.134	114.31
489.342	137.17
489.55	70.14
489.758	103.85
489.967	77.89
490.175	211.18
490.383	89.9
490.591	162.17
490.799	74.79
491.007	159.84
491.215	109.08
491.423	102.49
491.631	108.89
491.839	122.84
492.047	150.35
492.255	105.01
492.463	90.48
492.671	121.67
492.879	182.9
493.087	110.05
493.295	148.99
493.503	142.02
493.711	137.95
493.919	145.7
494.127	175.53
494.334	190.07
494.542	85.83
494.75	118.77
494.958	119.15
495.166	148.02
495.374	142.4
495.581	140.27
495.789	136.98
495.997	185.61
496.205	120.9
496.412	145.7
496.62	133.69
496.828	147.83
497.035	116.25
497.243	130
497.451	113.73
497.658	150.35
497.866	133.3
498.074	196.85
498.281	130.78
498.489	191.42
498.696	156.94
498.904	134.46
499.112	148.41
499.319	214.28
499.527	135.04
499.734	177.08
499.942	117.6
500.149	118.96
500.357	156.94
500.564	125.94
500.771	153.64
500.979	119.35
501.186	126.9
501.394	152.67
501.601	140.08
501.808	179.02
502.016	141.63
502.223	133.1
502.43	161.59
502.638	144.92
502.845	116.64
503.052	217.97
503.26	129.62
503.467	213.12
503.674	127.68
503.881	178.05
504.089	231.72
504.296	202.08
504.503	131.75
504.71	150.35
504.917	112.57
505.125	191.81
505.332	127.87
505.539	182.32
505.746	218.16
505.953	189.87
506.16	164.69
506.367	208.08
506.574	221.65
506.781	200.14
506.988	142.4
507.195	185.61
507.402	144.54
507.609	196.85
507.816	145.31
508.023	136.98
508.23	164.1
508.437	123.42
508.644	163.72
508.851	224.94
509.058	206.92
509.265	171.08
509.472	161.39
509.679	262.14
509.885	148.99
510.092	176.12
510.299	152.48
510.506	171.47
510.713	208.08
510.92	164.49
511.126	185.42
511.333	208.08
511.54	223.2
511.746	215.25
511.953	229.78
512.16	223.58
512.367	188.13
512.573	181.35
512.78	146.47
512.987	194.13
513.193	176.89
513.4	119.54
513.606	147.25
513.813	205.57
514.02	203.24
514.226	271.25
514.433	225.33
514.639	161.39
514.846	202.08
515.052	170.3
515.259	195.68
515.465	210.99
515.672	182.32
515.878	250.9
516.085	167.79
516.291	206.34
516.497	167.59
516.704	188.13
516.91	154.42
517.117	171.08
517.323	119.93
517.529	194.52
517.736	151.51
517.942	208.86
518.148	179.22
518.354	210.6
518.561	177.67
518.767	195.49
518.973	236.18
519.179	213.7
519.386	170.5
519.592	152.48
519.798	163.91
520.004	212.54
520.21	170.3
520.417	210.02
520.623	230.56
520.829	217.19
521.035	207.89
521.241	211.96
521.447	240.05
521.653	309.41
521.859	217.58
522.065	226.3
522.271	309.61
522.477	242.57
522.683	246.06
522.889	217.77
523.095	233.66
523.301	229.2
523.507	232.69
523.713	251.29
523.919	200.33
524.125	257.1
524.331	205.37
524.537	289.85
524.742	219.9
524.948	267.18
525.154	232.5
525.36	333.83
525.566	246.45
525.772	275.7
525.977	194.72
526.183	254.78
526.389	265.05
526.595	220.87
526.8	253.03
527.006	236.37
527.212	220.29
527.417	195.49
527.623	224.55
527.829	238.7
528.034	240.25
528.24	245.28
528.446	210.41
528.651	290.43
528.857	267.76
529.062	335.38
529.268	225.72
529.473	239.47
529.679	234.63
529.884	312.51
530.09	281.32
530.295	303.8
530.501	278.41
530.706	245.67
530.912	204.98
531.117	253.42
531.323	253.03
531.528	265.24
531.733	264.66
531.939	234.82
532.144	268.92
532.35	256.52
532.555	289.85
532.76	310.38
532.966	309.41
533.171	318.52
533.376	261.37
533.581	230.56
533.787	270.28
533.992	263.3
534.197	301.28
534.402	260.2
534.607	271.83
534.813	363.08
535.018	266.01
535.223	221.07
535.428	300.11
535.633	315.03
535.838	300.89
536.043	263.5
536.249	353.98
536.454	257.1
536.659	291.01
536.864	238.12
537.069	277.64
537.274	304.38
537.479	289.85
537.684	290.04
537.889	280.93
538.094	332.47
538.299	283.26
538.504	312.9
538.708	311.16
538.913	297.4
539.118	288.1
539.323	293.72
539.528	289.26
539.733	285.78
539.938	311.16
540.142	315.81
540.347	331.89
540.552	272.8
540.757	305.73
540.962	286.94
541.166	251.68
541.371	220.68
541.576	319.49
541.781	210.8
541.985	287.52
542.19	305.54
542.395	330.15
542.599	367.93
542.804	341.77
543.008	363.08
543.213	280.35
543.418	274.73
543.622	344.29
543.827	277.64
544.031	355.53
544.236	341.96
544.44	292.75
544.645	398.73
544.849	300.11
545.054	303.6
545.258	384.98
545.463	336.15
545.667	304.18
545.872	310
546.076	324.53
546.281	323.56
546.485	276.67
546.689	337.31
546.894	332.66
547.098	337.12
547.302	248.77
547.507	307.09
547.711	322.59
547.915	352.81
548.119	297.6
548.324	307.09
548.528	402.22
548.732	301.66
548.936	342.35
549.141	367.73
549.345	287.71
549.549	303.99
549.753	277.45
549.957	405.13
550.161	366.18
550.366	324.33
550.57	288.1
550.774	313.68
550.978	329.95
551.182	367.15
551.386	289.85
551.59	323.36
551.794	297.6
551.998	300.89
552.202	299.92
552.406	289.07
552.61	311.16
552.814	309.03
553.018	384.01
553.222	313.48
553.426	295.46
553.63	398.54
553.833	304.38
554.037	267.95
554.241	350.49
554.445	312.9
554.649	324.72
554.853	288.88
555.056	326.08
555.26	385.56
555.464	332.86
555.668	317.16
555.871	338.28
556.075	344.68
556.279	287.13
556.483	283.26
556.686	335.18
556.89	315.23
557.094	373.54
557.297	303.41
557.501	387.69
557.704	293.14
557.908	368.31
558.112	330.53
558.315	390.21
558.519	318.33
558.722	343.13
558.926	310.58
559.129	316.58
559.333	249.74
559.536	307.09
559.74	280.74
559.943	313.1
560.147	266.4
560.35	311.35
560.553	302.25
560.757	251.48
560.96	365.21
561.164	299.15
561.367	342.93
561.57	300.11
561.774	332.28
561.977	296.24
562.18	278.22
562.384	391.76
562.587	323.56
562.79	256.13
562.993	304.76
563.197	338.28
563.4	348.36
563.603	345.65
563.806	398.93
564.009	272.6
564.212	334.41
564.416	266.6
564.619	314.84
564.822	276.86
565.025	359.01
565.228	317.36
565.431	317.55
565.634	207.12
565.837	297.4
566.04	281.13
566.243	318.91
566.446	230.17
566.649	338.67
566.852	267.76
567.055	303.8
567.258	313.68
567.461	363.86
567.664	325.69
567.867	249.35
568.07	329.37
568.273	280.16
568.475	350.29
568.678	291.59
568.881	300.7
569.084	321.43
569.287	245.67
569.489	263.11
569.692	300.7
569.895	338.86
570.098	261.75
570.3	252.65
570.503	220.68
570.706	251.48
570.909	240.25
571.111	237.53
571.314	244.32
571.516	259.82
571.719	280.93
571.922	249.35
572.124	256.52
572.327	284.23
572.529	214.09
572.732	207.7
572.935	280.93
573.137	308.45
573.34	248.19
573.542	299.15
573.745	297.21
573.947	284.61
574.15	241.8
574.352	212.35
574.554	309.22
574.757	247.03
574.959	254
575.162	226.68
575.364	259.04
575.566	346.42
575.769	237.15
575.971	261.95
576.173	180.77
576.376	269.89
576.578	304.57
576.78	328.6
576.982	200.53
577.185	255.55
577.387	198.78
577.589	205.76
577.791	284.03
577.993	267.18
578.196	254.78
578.398	291.59
578.6	303.6
578.802	212.54
579.004	215.45
579.206	220.87
579.408	255.36
579.61	241.22
579.812	265.24
580.014	244.12
580.216	239.67
580.418	210.8
580.62	227.85
580.822	194.52
581.024	253.23
581.226	308.83
581.428	228.43
581.63	289.46
581.832	211.38
582.034	277.83
582.236	249.55
582.438	251.48
582.64	305.73
582.841	281.71
583.043	312.51
583.245	271.83
583.447	243.73
583.649	248
583.85	270.47
584.052	278.61
584.254	225.13
584.456	302.44
584.657	217.58
584.859	226.3
585.061	243.54
585.262	223.2
585.464	191.42
585.666	252.07
585.867	224.36
586.069	301.08
586.27	277.45
586.472	266.6
586.674	261.37
586.875	253.42
587.077	206.34
587.278	250.9
587.48	255.75
587.681	327.43
587.883	244.7
588.084	192.2
588.285	232.88
588.487	205.95
588.688	243.54
588.89	210.02
589.091	218.16
589.292	269.89
589.494	256.33
589.695	245.28
589.896	199.75
590.098	195.49
590.299	239.67
590.5	200.53
590.702	218.93
590.903	233.85
591.104	270.08
591.305	206.73
591.507	287.91
591.708	252.45
591.909	214.48
592.11	304.18
592.311	252.45
592.512	238.12
592.714	192.78
592.915	194.33
593.116	222.81
593.317	218.74
593.518	237.92
593.719	183.48
593.92	259.23
594.121	257.1
594.322	233.85
594.523	235.4
594.724	177.86
594.925	223.78
595.126	244.51
595.327	255.55
595.528	225.13
595.729	260.78
595.929	240.25
596.13	226.3
596.331	201.69
596.532	220.68
596.733	267.95
596.934	251.68
597.135	260.4
597.335	241.99
597.536	190.26
597.737	224.94
597.938	220.1
598.138	242.57
598.339	194.52
598.54	241.8
598.74	222.23
598.941	253.03
599.142	284.81
599.342	222.62
599.543	195.3
599.744	225.52
599.944	197.62
600.145	209.44
600.345	235.98
600.546	285.39
600.746	255.36
600.947	298.76
601.147	247.61
601.348	283.45
601.548	200.33
601.749	235.4
601.949	212.73
602.15	220.48
602.35	222.81
602.551	279.19
602.751	215.06
602.951	202.85
603.152	173.21
603.352	251.68
603.552	241.99
603.753	255.17
603.953	245.48
604.153	250.9
604.354	230.95
604.554	230.17
604.754	240.44
604.954	186
605.155	235.98
605.355	219.9
605.555	266.6
605.755	292.56
605.955	228.04
606.155	287.52
606.356	236.76
606.556	249.35
606.756	248.77
606.956	178.25
607.156	274.15
607.356	191.81
607.556	242.57
607.756	220.1
607.956	275.7
608.156	248.77
608.356	206.73
608.556	257.1
608.756	238.31
608.956	204.21
609.156	281.51
609.356	202.47
609.556	182.7
609.755	255.55
609.955	205.18
610.155	241.99
610.355	263.69
610.555	222.62
610.755	237.73
610.954	184.25
611.154	233.08
611.354	247.8
611.554	215.64
611.753	229.98
611.953	161.78
612.153	257.68
612.352	252.65
612.552	213.32
612.752	165.07
612.951	214.09
613.151	213.32
613.351	185.61
613.55	188.9
613.75	226.68
613.949	218.93
614.149	242.38
614.348	230.75
614.548	202.47
614.747	195.88
614.947	187.35
615.146	141.63
615.346	261.37
615.545	197.82
615.745	215.25
615.944	227.65
616.144	231.14
616.343	241.99
616.542	198.78
616.742	222.03
616.941	205.57
617.14	171.08
617.34	214.67
617.539	219.13
617.738	178.44
617.938	275.31
618.137	226.3
618.336	175.34
618.535	240.44
618.734	206.92
618.934	225.52
619.133	227.27
619.332	248.58
619.531	189.68
619.73	195.1
619.929	224.55
620.128	208.67
620.328	255.94
620.527	190.07
620.726	198.98
620.925	230.56
621.124	180.96
621.323	223
621.522	160.42
621.721	182.32
621.92	176.5
622.119	217.97
622.318	184.06
622.517	201.11
622.715	207.12
622.914	147.05
623.113	208.28
623.312	145.31
623.511	196.27
623.71	188.32
623.909	173.99
624.107	202.47
624.306	148.99
624.505	176.89
624.704	186.97
624.902	202.08
625.101	229.2
625.3	206.92
625.499	208.08
625.697	156.74
625.896	151.7
626.095	213.12
626.293	136.98
626.492	165.85
626.69	216.61
626.889	151.9
627.088	204.02
627.286	139.89
627.485	170.89
627.683	184.45
627.882	225.72
628.08	143.76
628.279	200.92
628.477	240.05
628.676	184.06
628.874	167.01
629.073	165.27
629.271	149.38
