Data from pine_FLMT105791__72__17-21-12-077.txt Node

Date: Mon Mar 20 17:21:12 GMT 2023
User: antho
Spectrometer: FLMT10579
Trigger mode: 0
Integration Time (sec): 1.000000E-1
Scans to average: 10
Electric dark correction enabled: true
Nonlinearity correction enabled: false
Boxcar width: 0
XAxis mode: Wavelengths
Number of Pixels in Spectrum: 3648
>>>>>Begin Spectral Data<<<<<
345.248	-164.22
345.464	-164.22
345.681	-164.22
345.898	-185.53
346.114	-190.76
346.331	-51.07
346.548	29.53
346.764	-15.81
346.981	9.38
347.197	-16.78
347.414	24.69
347.631	3.57
347.847	53.55
348.064	9.19
348.28	17.91
348.497	-55.33
348.713	-8.83
348.93	13.84
349.146	21.01
349.363	2.02
349.579	25.27
349.796	11.71
350.012	-4.18
350.229	27.4
350.445	8.22
350.661	-25.49
350.878	27.59
351.094	18.87
351.311	2.6
351.527	34.18
351.743	-29.56
351.96	28.37
352.176	-4.18
352.392	12.29
352.609	29.14
352.825	-14.06
353.041	-16.78
353.257	-3.21
353.474	-0.31
353.69	45.42
353.906	9.96
354.122	-24.91
354.339	51.23
354.555	14.61
354.771	4.15
354.987	50.84
355.203	64.99
355.42	-29.18
355.636	-13.48
355.852	-14.64
356.068	21.78
356.284	-22.2
356.5	75.06
356.716	-10.38
356.932	-3.21
357.148	32.05
357.364	-0.11
357.58	58.2
357.796	31.66
358.012	23.72
358.228	28.76
358.444	-59.59
358.66	70.8
358.876	25.27
359.092	-21.43
359.308	13.45
359.524	39.41
359.74	-3.99
359.956	-21.81
360.172	-4.38
360.388	37.47
360.604	-10.77
360.819	77.97
361.035	29.92
361.251	19.46
361.467	-21.81
361.683	27.01
361.898	22.75
362.114	35.73
362.33	-1.08
362.546	59.17
362.762	2.41
362.977	13.06
363.193	-16.19
363.409	36.89
363.624	-7.09
363.84	-13.87
364.056	-2.05
364.271	10.16
364.487	15.39
364.703	1.44
364.918	-27.63
365.134	-10.96
365.35	5.51
365.565	84.55
365.781	26.43
365.996	-1.66
366.212	52.78
366.427	20.62
366.643	-22.78
366.858	-7.28
367.074	-30.14
367.289	51.81
367.505	109.16
367.72	-46.42
367.936	-16.58
368.151	50.26
368.367	39.8
368.582	0.27
368.798	-16.19
369.013	65.57
369.228	31.08
369.444	20.42
369.659	45.42
369.874	9.96
370.09	54.33
370.305	-37.89
370.52	-3.41
370.736	70.22
370.951	6.86
371.166	44.45
371.381	69.44
371.597	37.09
371.812	-14.45
372.027	-17.36
372.242	-12.32
372.458	75.45
372.673	21.01
372.888	8.41
373.103	12.48
373.318	90.75
373.533	29.14
373.749	34.96
373.964	-35.57
374.179	42.71
374.394	-15.23
374.609	65.18
374.824	-13.87
375.039	58.01
375.254	-11.54
375.469	78.94
375.684	38.44
375.899	53.55
376.114	22.75
376.329	17.32
376.544	43.29
376.759	42.9
376.974	-26.27
377.189	11.12
377.404	-6.7
377.619	19.46
377.834	-42.93
378.049	-27.24
378.264	-11.93
378.478	19.26
378.693	-4.38
378.908	21.97
379.123	3.96
379.338	46
379.553	26.62
379.767	19.26
379.982	15.77
380.197	30.69
380.412	0.08
380.626	31.66
380.841	95.21
381.056	27.98
381.271	57.82
381.485	-11.74
381.7	-43.32
381.915	15.77
382.129	13.45
382.344	25.46
382.559	15.97
382.773	49.1
382.988	-21.43
383.202	5.12
383.417	21.59
383.632	105.48
383.846	-8.06
384.061	31.66
384.275	-2.44
384.49	33.02
384.704	30.5
384.919	20.23
385.133	7.06
385.348	18.49
385.562	-28.21
385.777	40.57
385.991	7.44
386.206	-2.83
386.42	-12.51
386.634	39.22
386.849	37.47
387.063	26.04
387.277	-28.98
387.492	-13.29
387.706	-19.1
387.92	-32.66
388.135	70.8
388.349	5.12
388.563	6.09
388.778	28.17
388.992	46.58
389.206	31.66
389.42	89.4
389.635	27.98
389.849	14.22
390.063	41.35
390.277	50.26
390.491	62.47
390.706	46.97
390.92	35.73
391.134	-12.51
391.348	56.85
391.562	-35.38
391.776	-0.69
391.99	-16
392.205	44.06
392.419	-3.41
392.633	4.73
392.847	72.74
393.061	-4.57
393.275	91.34
393.489	16.55
393.703	41.35
393.917	75.84
394.131	17.71
394.345	14.22
394.559	57.62
394.773	11.51
394.986	23.33
395.2	17.91
395.414	61.3
395.628	-25.88
395.842	34.96
396.056	-2.24
396.27	-49.52
396.484	22.94
396.697	30.5
396.911	61.11
397.125	64.99
397.339	57.82
397.553	52.2
397.766	86.69
397.98	65.95
398.194	60.34
398.408	14.42
398.621	56.07
398.835	39.8
399.049	28.56
399.262	73.9
399.476	34.76
399.69	29.92
399.903	76.42
400.117	45.03
400.331	30.11
400.544	-9.8
400.758	141.71
400.971	28.56
401.185	38.64
401.398	10.93
401.612	73.7
401.826	51.62
402.039	62.85
402.253	6.09
402.466	40.19
402.68	26.24
402.893	29.34
403.106	40.38
403.32	15.58
403.533	38.64
403.747	47.36
403.96	48.71
404.174	50.65
404.387	-20.07
404.6	37.67
404.814	42.32
405.027	41.16
405.24	36.89
405.454	31.47
405.667	70.41
405.88	-5.93
406.094	27.98
406.307	52.78
406.52	46.58
406.733	17.32
406.947	-19.29
407.16	101.99
407.373	65.57
407.586	21.97
407.799	10.54
408.012	42.71
408.226	48.32
408.439	84.36
408.652	-0.69
408.865	27.79
409.078	62.27
409.291	67.89
409.504	13.26
409.717	43.29
409.93	26.24
410.143	30.89
410.357	-8.44
410.57	-7.67
410.783	23.52
410.996	58.98
411.209	27.98
411.421	65.57
411.634	42.9
411.847	15
412.06	29.14
412.273	10.54
412.486	39.02
412.699	106.45
412.912	6.47
413.125	69.05
413.338	33.21
413.55	52.2
413.763	51.81
413.976	26.62
414.189	-15.42
414.402	29.34
414.615	88.43
414.827	4.73
415.04	69.83
415.253	32.63
415.466	69.64
415.678	113.42
415.891	40.96
416.104	13.64
416.316	47.74
416.529	12.48
416.742	41.35
416.954	85.72
417.167	24.69
417.38	32.24
417.592	81.84
417.805	23.33
418.017	15.77
418.23	71.96
418.442	3.57
418.655	37.86
418.868	54.72
419.08	84.75
419.293	76.42
419.505	54.52
419.718	69.44
419.93	68.86
420.142	39.61
420.355	94.63
420.567	93.08
420.78	65.95
420.992	35.73
421.205	117.88
421.417	-2.24
421.629	42.9
421.842	-4.96
422.054	15.97
422.266	77.77
422.479	76.03
422.691	15.97
422.903	92.69
423.115	32.82
423.328	43.29
423.54	82.62
423.752	31.08
423.964	47.36
424.177	59.37
424.389	16.74
424.601	142.68
424.813	62.47
425.025	85.91
425.238	96.57
425.45	60.72
425.662	33.99
425.874	358.32
426.086	70.02
426.298	81.84
426.51	87.46
426.722	52.2
426.934	52.59
427.146	65.37
427.358	10.74
427.57	118.27
427.782	46.58
427.994	72.93
428.206	34.76
428.418	27.98
428.63	92.69
428.842	98.31
429.054	71.19
429.266	73.9
429.478	34.76
429.69	60.53
429.902	1.82
430.114	102.77
430.325	77.77
430.537	59.37
430.749	60.72
430.961	17.13
431.173	80.49
431.384	99.47
431.596	13.64
431.808	54.91
432.02	69.64
432.231	79.52
432.443	94.63
432.655	107.8
432.867	60.53
433.078	106.06
433.29	153.33
433.502	99.86
433.713	133.38
433.925	84.94
434.136	164.96
434.348	48.52
434.56	32.82
434.771	173.29
434.983	52.39
435.194	27.21
435.406	77.58
435.617	115.94
435.829	151.98
436.04	125.44
436.252	126.21
436.463	135.12
436.675	123.89
436.886	114.59
437.098	105.09
437.309	163.6
437.521	94.82
437.732	118.65
437.943	116.33
438.155	120.2
438.366	61.69
438.578	165.54
438.789	109.16
439	144.81
439.211	92.3
439.423	138.42
439.634	138.22
439.845	139.19
440.057	114.97
440.268	134.35
440.479	90.95
440.69	143.45
440.902	126.02
441.113	122.92
441.324	116.14
441.535	140.55
441.746	160.12
441.957	104.32
442.168	74.67
442.38	123.89
442.591	167.28
442.802	107.03
443.013	132.02
443.224	135.51
443.435	120.98
443.646	135.7
443.857	130.09
444.068	108.58
444.279	101.8
444.49	213.78
444.701	138.42
444.912	252.53
445.123	186.85
445.334	150.04
445.545	146.55
445.756	126.02
445.967	96.18
446.178	155.08
446.388	199.45
446.599	158.57
446.81	170.77
447.021	143.45
447.232	193.05
447.443	188.79
447.653	118.46
447.864	155.66
448.075	151.78
448.286	190.34
448.496	168.83
448.707	204.48
448.918	153.53
449.129	254.47
449.339	143.65
449.55	182.78
449.761	149.65
449.971	225.02
450.182	145
450.393	213.4
450.603	172.32
450.814	224.25
451.024	185.69
451.235	207.2
451.446	246.91
451.656	255.44
451.867	170.77
452.077	215.92
452.288	252.34
452.498	263.58
452.709	168.25
452.919	221.34
453.13	189.76
453.34	222.31
453.55	145.2
453.761	233.55
453.971	205.26
454.182	256.6
454.392	225.22
454.602	266.48
454.813	222.89
455.023	241.88
455.233	175.81
455.444	212.04
455.654	105.87
455.864	221.15
456.075	189.95
456.285	193.25
456.495	201.38
456.705	238.2
456.916	264.16
457.126	277.53
457.336	206.81
457.546	151.4
457.756	186.08
457.967	252.34
458.177	214.37
458.387	218.05
458.597	187.82
458.807	203.13
459.017	214.75
459.227	206.81
459.437	235.48
459.647	221.53
459.857	242.85
460.068	202.16
460.278	259.51
460.488	234.32
460.698	283.92
460.908	229.09
461.117	182.01
461.327	197.7
461.537	223.86
461.747	242.26
461.957	219.21
462.167	326.54
462.377	244.4
462.587	221.34
462.797	277.14
463.007	240.33
463.216	250.79
463.426	267.26
463.636	250.4
463.846	199.45
464.056	231.03
464.265	280.63
464.475	213.4
464.685	256.02
464.895	283.92
465.104	229.28
465.314	271.91
465.524	226.38
465.733	221.53
465.943	293.41
466.153	297.29
466.362	295.74
466.572	266.68
466.782	256.02
466.991	254.66
467.201	313.56
467.41	220.18
467.62	287.21
467.829	254.47
468.039	272.1
468.249	249.82
468.458	264.74
468.668	282.56
468.877	296.71
469.086	340.88
469.296	308.53
469.505	261.25
469.715	324.22
469.924	295.93
470.134	339.53
470.343	322.28
470.552	302.33
470.762	273.85
470.971	235.29
471.18	289.73
471.39	289.93
471.599	251.76
471.808	326.93
472.018	246.14
472.227	330.81
472.436	336.81
472.645	285.86
472.855	293.03
473.064	362
473.273	357.93
473.482	319.57
473.691	345.73
473.901	347.47
474.11	298.84
474.319	393.19
474.528	319.76
474.737	397.46
474.946	346.31
475.155	334.88
475.364	347.28
475.573	339.14
475.783	322.09
475.992	374.79
476.201	387.58
476.41	343.21
476.619	298.65
476.828	360.26
477.037	302.33
477.245	331
477.454	375.18
477.663	338.17
477.872	353.28
478.081	411.99
478.29	326.54
478.499	440.47
478.708	375.18
478.917	413.92
479.125	384.48
479.334	382.15
479.543	397.46
479.752	405.59
479.961	400.36
480.169	435.62
480.378	369.17
480.587	502.08
480.796	432.72
481.004	401.52
481.213	402.69
481.422	383.7
481.63	380.6
481.839	461.97
482.048	516.61
482.256	459.26
482.465	420.51
482.674	448.99
482.882	432.72
483.091	501.69
483.299	464.49
483.508	500.34
483.716	460.81
483.925	438.53
484.134	422.84
484.342	432.52
484.551	466.82
484.759	478.64
484.967	490.07
485.176	487.94
485.384	481.74
485.593	497.62
485.801	489.49
486.01	437.56
486.218	452.48
486.426	377.31
486.635	405.98
486.843	410.63
487.051	462.94
487.26	432.14
487.468	474.37
487.676	496.85
487.885	448.22
488.093	477.09
488.301	479.8
488.509	477.28
488.717	534.24
488.926	485.81
489.134	460.23
489.342	491.23
489.55	455.39
489.758	515.45
489.967	478.83
490.175	599.15
490.383	519.52
490.591	564.47
490.799	442.99
491.007	566.99
491.215	534.44
491.423	527.27
491.631	508.28
491.839	551.49
492.047	551.87
492.255	514.29
492.463	456.55
492.671	512.54
492.879	557.49
493.087	525.72
493.295	566.21
493.503	590.23
493.711	557.1
493.919	574.15
494.127	570.47
494.334	585.58
494.542	485.81
494.75	551.68
494.958	560.01
495.166	615.23
495.374	594.69
495.581	559.62
495.789	583.26
495.997	623.95
496.205	584.42
496.412	554.39
496.62	573.57
496.828	604.96
497.035	572.6
497.243	600.7
497.451	586.36
497.658	622.4
497.866	596.82
498.074	665.8
498.281	567.57
498.489	657.27
498.696	609.03
498.904	613.1
499.112	603.6
499.319	676.65
499.527	592.37
499.734	679.16
499.942	554
500.149	595.85
500.357	606.51
500.564	577.45
500.771	642.74
500.979	591.78
501.186	578.42
501.394	607.87
501.601	623.37
501.808	661.34
502.016	612.9
502.223	596.05
502.43	631.5
502.638	603.22
502.845	587.13
503.052	674.51
503.26	596.43
503.467	687.88
503.674	657.66
503.881	660.76
504.089	713.46
504.296	686.14
504.503	618.91
504.71	669.48
504.917	587.52
505.125	668.51
505.332	655.53
505.539	682.65
505.746	744.07
505.953	738.45
506.16	676.26
506.367	729.93
506.574	717.14
506.781	722.76
506.988	672.96
507.195	702.03
507.402	693.89
507.609	726.83
507.816	663.47
508.023	674.51
508.23	671.22
508.437	659.02
508.644	705.51
508.851	756.47
509.058	745.43
509.265	738.65
509.472	749.11
509.679	821.38
509.885	740.78
510.092	712.68
510.299	718.69
510.506	727.6
510.713	716.56
510.92	737.1
511.126	728.38
511.333	802
511.54	781.85
511.746	820.6
511.953	823.89
512.16	826.8
512.367	750.66
512.573	767.51
512.78	746.01
512.987	749.88
513.193	792.7
513.4	717.53
513.606	738.06
513.813	789.79
514.02	788.83
514.226	853.92
514.433	814.21
514.639	745.04
514.846	815.18
515.052	774.49
515.259	787.66
515.465	806.07
515.672	803.55
515.878	898.29
516.085	790.96
516.291	827.58
516.497	787.08
516.704	790.76
516.91	740.2
517.117	739.03
517.323	683.23
517.529	764.41
517.736	733.41
517.942	771.97
518.148	760.73
518.354	790.18
518.561	768.68
518.767	817.5
518.973	818.28
519.179	830.29
519.386	783.01
519.592	795.99
519.798	804.71
520.004	897.13
520.21	842.69
520.417	902.56
520.623	913.99
520.829	900.81
521.035	931.42
521.241	926.97
521.447	906.04
521.653	1000.01
521.859	935.49
522.065	915.34
522.271	1024.62
522.477	953.9
522.683	990.13
522.889	963.78
523.095	980.44
523.301	971.92
523.507	923.48
523.713	993.04
523.919	958.16
524.125	1021.13
524.331	952.74
524.537	1056
524.742	1018.8
524.948	1024.23
525.154	1016.87
525.36	1118.97
525.566	1033.92
525.772	1081.97
525.977	968.04
526.183	1036.43
526.389	1079.06
526.595	989.55
526.8	1006.79
527.006	928.9
527.212	929.87
527.417	940.72
527.623	936.65
527.829	1004.27
528.034	1027.52
528.24	1011.44
528.446	968.04
528.651	1091.07
528.857	1055.81
529.062	1131.95
529.268	1040.7
529.473	1080.8
529.679	1084.1
529.884	1123.81
530.09	1112
530.295	1139.51
530.501	1139.31
530.706	1134.28
530.912	1071.89
531.117	1101.73
531.323	1133.89
531.528	1116.45
531.733	1148.03
531.939	1130.4
532.144	1152.3
532.35	1102.7
532.555	1125.95
532.76	1146.87
532.966	1186.59
533.171	1139.9
533.376	1096.69
533.581	1081.77
533.787	1126.72
533.992	1152.49
534.197	1173.41
534.402	1126.91
534.607	1143.96
534.813	1245.29
535.018	1169.35
535.223	1115.29
535.428	1170.7
535.633	1219.33
535.838	1205.38
536.043	1218.17
536.249	1271.84
536.454	1215.84
536.659	1233.86
536.864	1192.59
537.069	1202.09
537.274	1223.59
537.479	1207.13
537.684	1217.01
537.889	1191.63
538.094	1293.92
538.299	1211.58
538.504	1245.68
538.708	1226.11
538.913	1268.74
539.118	1215.84
539.323	1224.56
539.528	1186.2
539.733	1203.44
539.938	1239.68
540.142	1260.02
540.347	1197.83
540.552	1181.55
540.757	1224.18
540.962	1180.2
541.166	1154.81
541.371	1135.44
541.576	1174.58
541.781	1081.19
541.985	1259.44
542.19	1212.16
542.395	1285.01
542.599	1328.22
542.804	1269.71
543.008	1315.24
543.213	1225.92
543.418	1217.98
543.622	1265.06
543.827	1176.71
544.031	1291.02
544.236	1284.82
544.44	1235.99
544.645	1316.01
544.849	1238.13
545.054	1292.96
545.258	1352.44
545.463	1324.92
545.667	1262.34
545.872	1275.13
546.076	1287.72
546.281	1273.19
546.485	1235.61
546.689	1298.38
546.894	1332.09
547.098	1287.34
547.302	1231.93
547.507	1304.97
547.711	1317.37
547.915	1340.04
548.119	1267.19
548.324	1290.24
548.528	1383.44
548.732	1273.19
548.936	1299.93
549.141	1313.3
549.345	1296.64
549.549	1332.87
549.753	1294.12
549.957	1383.63
550.161	1371.62
550.366	1312.14
550.57	1306.13
550.774	1342.94
550.978	1306.13
551.182	1346.62
551.386	1293.34
551.59	1307.1
551.794	1316.4
551.998	1325.89
552.202	1299.35
552.406	1301.87
552.61	1367.94
552.814	1304.58
553.018	1382.08
553.222	1306.32
553.426	1328.61
553.63	1443.3
553.833	1295.86
554.037	1297.99
554.241	1385.76
554.445	1338.49
554.649	1317.37
554.853	1310.59
555.056	1337.13
555.26	1380.53
555.464	1345.46
555.668	1335.77
555.871	1356.89
556.075	1363.67
556.279	1297.61
556.483	1272.81
556.686	1331.71
556.89	1315.24
557.094	1339.26
557.297	1315.24
557.501	1355.34
557.704	1267.38
557.908	1340.62
558.112	1280.17
558.315	1388.28
558.519	1327.06
558.722	1302.06
558.926	1253.43
559.129	1227.08
559.333	1209.64
559.536	1213.71
559.74	1243.74
559.943	1229.02
560.147	1191.63
560.35	1296.06
560.553	1261.18
560.757	1189.3
560.96	1279.01
561.164	1240.84
561.367	1299.35
561.57	1245.1
561.774	1251.69
561.977	1278.04
562.18	1203.25
562.384	1319.5
562.587	1256.53
562.79	1242.58
562.993	1263.89
563.197	1297.8
563.4	1340.23
563.603	1303.03
563.806	1357.09
564.009	1212.55
564.212	1299.16
564.416	1207.32
564.619	1239.87
564.822	1198.79
565.025	1258.47
565.228	1245.68
565.431	1234.44
565.634	1135.05
565.837	1230.18
566.04	1185.43
566.243	1202.28
566.446	1126.33
566.649	1218.56
566.852	1156.95
567.055	1176.13
567.258	1224.56
567.461	1291.6
567.664	1236.58
567.867	1125.56
568.07	1197.24
568.273	1236.77
568.475	1264.86
568.678	1147.26
568.881	1180.78
569.084	1165.28
569.287	1094.17
569.489	1114.71
569.692	1156.95
569.895	1182.52
570.098	1126.53
570.3	1127.88
570.503	1098.24
570.706	1098.63
570.909	1096.11
571.111	1057.17
571.314	1083.71
571.516	1071.89
571.719	1138.15
571.922	1084.68
572.124	1122.07
572.327	1115.29
572.529	1049.03
572.732	1051.74
572.935	1116.06
573.137	1146.1
573.34	1069.57
573.542	1128.27
573.745	1097.27
573.947	1128.08
574.15	1089.33
574.352	1056.58
574.554	1136.99
574.757	1045.73
574.959	1041.28
575.162	1055.42
575.364	1054.65
575.566	1152.68
575.769	1016.87
575.971	1068.02
576.173	979.86
576.376	1060.27
576.578	1089.33
576.78	1101.92
576.982	979.47
577.185	1035.47
577.387	991.87
577.589	1011.83
577.791	1066.66
577.993	1055.62
578.196	1026.36
578.398	1054.26
578.6	1038.57
578.802	981.8
579.004	999.62
579.206	980.05
579.408	1050.19
579.61	1007.57
579.812	1062.01
580.014	1005.63
580.216	1014.93
580.418	1018.03
580.62	1008.15
580.822	958.16
581.024	1010.09
581.226	1059.68
581.428	1004.47
581.63	1069.76
581.832	965.14
582.034	1081.19
582.236	1020.35
582.438	1061.82
582.64	1091.65
582.841	1108.51
583.043	1151.91
583.245	1070.15
583.447	1047.67
583.649	1048.83
583.85	1088.55
584.052	1064.92
584.254	1000.59
584.456	1106.18
584.657	1014.35
584.859	1046.32
585.061	1028.88
585.262	1002.92
585.464	971.53
585.666	1045.35
585.867	997.1
586.069	1081
586.27	1030.62
586.472	1041.47
586.674	1023.45
586.875	1018.42
587.077	986.84
587.278	1049.8
587.48	988.97
587.681	1136.99
587.883	1027.91
588.084	956.61
588.285	980.05
588.487	971.92
588.688	1017.25
588.89	933.17
589.091	895.58
589.292	957.39
589.494	915.34
589.695	885.51
589.896	855.86
590.098	831.26
590.299	932.59
590.5	896.36
590.702	864
590.903	880.08
591.104	958.74
591.305	944.02
591.507	972.5
591.708	956.61
591.909	934.91
592.11	1025.78
592.311	973.85
592.512	918.44
592.714	865.94
592.915	930.84
593.116	925.03
593.317	927.94
593.518	958.94
593.719	937.04
593.92	973.66
594.121	1000.01
594.322	917.47
594.523	926.77
594.724	884.73
594.925	919.99
595.126	978.89
595.327	959.13
595.528	924.84
595.729	930.84
595.929	937.82
596.13	920.38
596.331	947.12
596.532	981.22
596.733	966.49
596.934	984.32
597.135	954.87
597.335	941.5
597.536	891.51
597.737	965.14
597.938	932
598.138	952.74
598.339	929.49
598.54	953.12
598.74	906.82
598.941	909.34
599.142	953.32
599.342	954.09
599.543	933.55
599.744	939.56
599.944	932
600.145	931.42
600.345	952.74
600.546	1012.22
600.746	966.69
600.947	974.44
601.147	918.25
601.348	987.61
601.548	907.4
601.749	966.49
601.949	893.26
602.15	891.71
602.35	945.57
602.551	977.54
602.751	899.65
602.951	889.38
603.152	864.19
603.352	944.21
603.552	928.13
603.753	958.16
603.953	947.89
604.153	949.05
604.354	908.56
604.554	894.81
604.754	944.21
604.954	853.92
605.155	922.9
605.355	888.02
605.555	961.45
605.755	1000.01
605.955	955.06
606.155	958.35
606.356	915.73
606.556	968.43
606.756	935.3
606.956	873.88
607.156	953.7
607.356	883.76
607.556	906.82
607.756	967.85
607.956	962.04
608.156	952.54
608.356	867.29
608.556	986.84
608.756	920.57
608.956	880.27
609.156	919.61
609.356	865.16
609.556	896.36
609.755	891.9
609.955	868.46
610.155	887.64
610.355	922.51
610.555	903.91
610.755	915.34
610.954	822.34
611.154	924.64
611.354	948.86
611.554	851.21
611.753	862.45
611.953	814.01
612.153	912.63
612.352	892.67
612.552	803.16
612.752	801.03
612.951	857.41
613.151	887.83
613.351	856.44
613.55	863.81
613.75	893.45
613.949	838.62
614.149	845.98
614.348	850.63
614.548	834.74
614.747	767.13
614.947	817.31
615.146	747.56
615.346	870.39
615.545	832.81
615.745	830.87
615.944	849.86
616.144	838.23
616.343	882.6
616.542	822.73
616.742	817.89
616.941	801.61
617.14	786.89
617.34	793.48
617.539	806.46
617.738	783.4
617.938	855.67
618.137	831.64
618.336	774.88
618.535	832.61
618.734	799.87
618.934	826.41
619.133	804.13
619.332	819.44
619.531	800.84
619.73	789.41
619.929	824.09
620.128	815.18
620.328	873.3
620.527	771.39
620.726	795.61
620.925	823.7
621.124	813.43
621.323	821.38
621.522	778.94
621.721	783.4
621.92	752.98
622.119	820.6
622.318	830.09
