Data from pine_FLMT105791__1__17-19-35-080.txt Node

Date: Mon Mar 20 17:19:35 GMT 2023
User: antho
Spectrometer: FLMT10579
Trigger mode: 0
Integration Time (sec): 1.000000E-1
Scans to average: 10
Electric dark correction enabled: true
Nonlinearity correction enabled: false
Boxcar width: 0
XAxis mode: Wavelengths
Number of Pixels in Spectrum: 3648
>>>>>Begin Spectral Data<<<<<
345.248	-172.26
345.464	-172.26
345.681	-172.26
345.898	-192.99
346.114	-157.15
346.331	-28.3
346.548	22.07
346.764	7.35
346.981	0.37
347.197	-12.22
347.414	14.71
347.631	-36.63
347.847	55.98
348.064	-17.65
348.28	34.28
348.497	-39.35
348.713	-0.6
348.93	18.97
349.146	20.71
349.363	-11.83
349.579	12.58
349.796	-2.53
350.012	-19
350.229	10.25
350.445	7.54
350.661	-23.46
350.878	13.93
351.094	26.33
351.311	32.73
351.527	0.76
351.743	-21.52
351.96	18.58
352.176	37.38
352.392	12.77
352.609	22.26
352.825	1.53
353.041	12.96
353.257	-11.83
353.474	17.23
353.69	0.76
353.906	9.48
354.122	-30.82
354.339	31.37
354.555	5.6
354.771	-9.7
354.987	47.06
355.203	45.51
355.42	-28.3
355.636	-22.88
355.852	-29.47
356.068	28.08
356.284	-36.25
356.5	65.08
356.716	26.72
356.932	-18.23
357.148	38.73
357.364	10.83
357.58	25.56
357.796	69.35
358.012	43.19
358.228	27.88
358.444	-55.82
358.66	62.56
358.876	9.86
359.092	1.34
359.308	8.7
359.524	10.06
359.74	-12.42
359.956	-13
360.172	-0.21
360.388	20.52
360.604	-3.12
360.819	86.4
361.035	13.93
361.251	25.36
361.467	-21.33
361.683	55.4
361.898	7.54
362.114	7.15
362.33	15.29
362.546	43.19
362.762	1.92
362.977	13.35
363.193	-30.05
363.409	55.59
363.624	-17.07
363.84	-48.45
364.056	-15.71
364.271	38.73
364.487	10.06
364.703	-13.38
364.918	-44.97
365.134	-10.28
365.35	0.76
365.565	98.02
365.781	23.04
365.996	28.66
366.212	68.76
366.427	9.48
366.643	-2.92
366.858	-11.64
367.074	-33.34
367.289	35.44
367.505	111.58
367.72	-31.6
367.936	-13.38
368.151	22.85
368.367	27.11
368.582	24.78
368.798	-23.85
369.013	61.4
369.228	-6.41
369.444	7.15
369.659	69.54
369.874	22.85
370.09	48.03
370.305	-48.26
370.52	-8.73
370.736	61.01
370.951	6.96
371.166	49.78
371.381	70.12
371.597	53.46
371.812	-19.78
372.027	-11.83
372.242	-0.21
372.458	96.47
372.673	2.5
372.888	19.55
373.103	45.32
373.318	114.68
373.533	45.32
373.749	39.51
373.964	-31.02
374.179	61.79
374.394	6.77
374.609	71.67
374.824	-41.87
375.039	54.81
375.254	-18.62
375.469	72.83
375.684	3.47
375.899	45.51
376.114	-17.45
376.329	18.78
376.544	39.12
376.759	33.7
376.974	-5.83
377.189	36.6
377.404	-18.42
377.619	47.06
377.834	-41.28
378.049	-24.43
378.264	-9.32
378.478	2.5
378.693	-13.77
378.908	33.7
379.123	-20.55
379.338	67.99
379.553	10.45
379.767	5.6
379.982	49
380.197	41.64
380.412	15.1
380.626	6.18
380.841	109.45
381.056	20.91
381.271	74
381.485	-42.45
381.7	-29.85
381.915	13.55
382.129	-6.22
382.344	37.18
382.559	-1.37
382.773	25.95
382.988	-52.72
383.202	35.44
383.417	-32.18
383.632	107.13
383.846	30.21
384.061	24.2
384.275	9.09
384.49	29.82
384.704	36.99
384.919	3.08
385.133	9.67
385.348	36.41
385.562	-21.52
385.777	33.11
385.991	12.58
386.206	0.57
386.42	-13
386.634	51.33
386.849	25.95
387.063	42.8
387.277	-34.12
387.492	-26.17
387.706	-29.66
387.92	-17.65
388.135	52.1
388.349	10.06
388.563	23.62
388.778	28.27
388.992	34.66
389.206	54.04
389.42	76.51
389.635	2.7
389.849	52.88
390.063	51.52
390.277	15.1
390.491	68.18
390.706	34.47
390.92	49
391.134	20.71
391.348	46.29
391.562	-35.28
391.776	8.31
391.99	1.92
392.205	28.66
392.419	11.41
392.633	1.92
392.847	62.18
393.061	-13.97
393.275	88.72
393.489	5.02
393.703	25.56
393.917	63.15
394.131	-4.67
394.345	31.76
394.559	45.9
394.773	-6.99
394.986	52.88
395.2	1.53
395.414	49.39
395.628	-5.83
395.842	34.08
396.056	8.12
396.27	-23.27
396.484	35.44
396.697	42.22
396.911	56.75
397.125	33.11
397.339	66.44
397.553	21.68
397.766	81.75
397.98	55.59
398.194	59.27
398.408	18.78
398.621	59.85
398.835	54.43
399.049	22.26
399.262	65.08
399.476	67.21
399.69	52.3
399.903	91.82
400.117	17.03
400.331	41.83
400.544	-5.25
400.758	125.92
400.971	44.74
401.185	65.86
401.398	-14.16
401.612	74
401.826	63.34
402.039	61.21
402.253	22.85
402.466	55.01
402.68	30.79
402.893	30.79
403.106	48.81
403.32	15.68
403.533	43.38
403.747	26.91
403.96	60.43
404.174	53.26
404.387	2.31
404.6	43.19
404.814	71.67
405.027	28.08
405.24	44.93
405.454	17.23
405.667	72.45
405.88	-29.08
406.094	46.1
406.307	72.83
406.52	44.93
406.733	-5.05
406.947	-25.78
407.16	106.54
407.373	50.75
407.586	17.81
407.799	14.51
408.012	74.19
408.226	50.36
408.439	73.61
408.652	-27.53
408.865	40.28
409.078	88.72
409.291	42.61
409.504	-5.44
409.717	56.95
409.93	20.52
410.143	33.31
410.357	-5.83
410.57	-7.57
410.783	30.98
410.996	55.98
411.209	30.4
411.421	69.93
411.634	59.66
411.847	-12.61
412.06	25.75
412.273	35.25
412.486	51.13
412.699	117.78
412.912	26.91
413.125	58.5
413.338	49.58
413.55	55.98
413.763	43.58
413.976	40.86
414.189	0.18
414.402	32.73
414.615	112.55
414.827	19.94
415.04	54.81
415.253	52.3
415.466	60.63
415.678	119.33
415.891	17.61
416.104	33.31
416.316	4.25
416.529	14.9
416.742	50.55
416.954	77.68
417.167	41.06
417.38	30.6
417.592	76.71
417.805	7.93
418.017	-13
418.23	79.61
418.442	55.78
418.655	12
418.868	57.91
419.08	75.35
419.293	116.04
419.505	54.43
419.718	56.36
419.93	117.39
420.142	44.35
420.355	110.03
420.567	114.29
420.78	58.11
420.992	24.98
421.205	93.56
421.417	28.27
421.629	25.56
421.842	30.98
422.054	-13.97
422.266	71.67
422.479	69.73
422.691	26.72
422.903	67.41
423.115	23.62
423.328	63.92
423.54	71.09
423.752	53.46
423.964	23.23
424.177	35.44
424.389	26.53
424.601	157.69
424.813	54.81
425.025	90.27
425.238	81.16
425.45	33.31
425.662	64.31
425.874	356.09
426.086	56.75
426.298	88.72
426.51	79.81
426.722	33.89
426.934	61.4
427.146	85.81
427.358	28.85
427.57	102.86
427.782	60.63
427.994	63.73
428.206	60.05
428.418	19.16
428.63	71.86
428.842	83.49
429.054	69.35
429.266	91.24
429.478	51.71
429.69	78.65
429.902	1.92
430.114	71.67
430.325	114.49
430.537	66.25
430.749	66.63
430.961	17.61
431.173	86.59
431.384	72.64
431.596	8.12
431.808	57.33
432.02	70.7
432.231	87.75
432.443	102.09
432.655	52.49
432.867	43.77
433.078	86.2
433.29	143.55
433.502	121.66
433.713	123.59
433.925	86.98
434.136	98.21
434.348	28.46
434.56	22.07
434.771	185.98
434.983	37.96
435.194	63.34
435.406	60.63
435.617	107.9
435.829	129.02
436.04	88.72
436.252	105.38
436.463	139.87
436.675	104.03
436.886	112.36
437.098	86.01
437.309	145.49
437.521	84.46
437.732	124.18
437.943	102.09
438.155	111.39
438.366	42.61
438.578	160.99
438.789	106.93
439	127.86
439.211	66.25
439.423	119.72
439.634	122.04
439.845	149.56
440.057	126.31
440.268	135.99
440.479	89.11
440.69	107.32
440.902	72.45
441.113	97.83
441.324	104.61
441.535	129.99
441.746	150.53
441.957	83.1
442.168	105.19
442.38	113.13
442.591	152.46
442.802	92.98
443.013	71.28
443.224	145.49
443.435	123.98
443.646	107.13
443.857	113.52
444.068	121.08
444.279	87.36
444.49	165.64
444.701	102.48
444.912	222.99
445.123	159.05
445.334	159.44
445.545	143.16
445.756	151.49
445.967	98.21
446.178	145.68
446.388	155.95
446.599	177.84
446.81	151.3
447.021	121.27
447.232	169.51
447.443	172.81
447.653	122.24
447.864	156.34
448.075	158.28
448.286	161.96
448.496	162.73
448.707	176.68
448.918	155.18
449.129	265.03
449.339	122.63
449.55	188.11
449.761	136.19
449.971	207.49
450.182	144.33
450.393	169.71
450.603	126.5
450.814	186.76
451.024	162.34
451.235	168.93
451.446	205.36
451.656	217.37
451.867	140.64
452.077	196.83
452.288	223.57
452.498	212.91
452.709	157.69
452.919	182.49
453.13	134.44
453.34	209.62
453.55	119.33
453.761	186.17
453.971	188.69
454.182	186.17
454.392	204.97
454.602	236.94
454.813	178.43
455.023	220.08
455.233	127.66
455.444	178.23
455.654	132.7
455.864	171.26
456.075	153.63
456.285	167.96
456.495	155.18
456.705	186.56
456.916	231.51
457.126	237.52
457.336	191.21
457.546	119.53
457.756	167.77
457.967	205.55
458.177	175.71
458.387	177.07
458.597	169.51
458.807	187.14
459.017	158.08
459.227	165.83
459.437	182.69
459.647	228.41
459.857	207.49
460.068	172.81
460.278	231.32
460.488	184.04
460.698	256.51
460.908	195.86
461.117	148.78
461.327	172.23
461.537	192.76
461.747	208.84
461.957	200.51
462.167	307.85
462.377	228.8
462.587	213.69
462.797	229.96
463.007	209.42
463.216	237.32
463.426	229.77
463.636	243.91
463.846	162.34
464.056	202.26
464.265	236.36
464.475	196.06
464.685	209.62
464.895	234.81
465.104	213.88
465.314	250.89
465.524	191.41
465.733	205.55
465.943	263.48
466.153	312.89
466.362	252.44
466.572	240.81
466.782	214.46
466.991	231.32
467.201	256.31
467.41	176.49
467.62	235
467.829	203.22
468.039	215.04
468.249	217.95
468.458	231.71
468.668	267.16
468.877	258.06
469.086	296.22
469.296	288.47
469.505	205.94
469.715	291.57
469.924	266.58
470.134	278.01
470.343	303.78
470.552	249.92
470.762	243.33
470.971	218.72
471.18	253.41
471.39	235
471.599	234.42
471.808	265.61
472.018	235.39
472.227	300.68
472.436	306.69
472.645	241.39
472.855	225.7
473.064	309.2
473.273	270.45
473.482	294.87
473.691	311.53
473.901	275.3
474.11	270.07
474.319	362.1
474.528	286.34
474.737	314.05
474.946	316.57
475.155	298.16
475.364	342.92
475.573	302.23
475.783	280.72
475.992	331.29
476.201	373.53
476.41	305.33
476.619	257.86
476.828	306.69
477.037	276.46
477.245	301.07
477.454	317.34
477.663	297.19
477.872	277.24
478.081	324.32
478.29	277.24
478.499	397.55
478.708	316.37
478.917	347.95
479.125	317.73
479.334	342.14
479.543	306.1
479.752	347.95
479.961	349.12
480.169	362.87
480.378	286.54
480.587	419.83
480.796	350.09
481.004	365.78
481.213	394.07
481.422	347.18
481.63	346.02
481.839	367.33
482.048	418.48
482.256	348.73
482.465	361.9
482.674	382.63
482.882	398.72
483.091	423.52
483.299	397.17
483.508	410.34
483.716	363.26
483.925	389.03
484.134	353.96
484.342	340.01
484.551	402.4
484.759	411.89
484.967	418.48
485.176	416.93
485.384	391.93
485.593	419.25
485.801	398.72
486.01	396.78
486.218	360.93
486.426	326.06
486.635	370.23
486.843	343.5
487.051	370.62
487.26	374.3
487.468	403.95
487.676	427.2
487.885	363.45
488.093	433.01
488.301	429.33
488.509	424.87
488.717	428.17
488.926	412.08
489.134	399.49
489.342	421.97
489.55	362.29
489.758	418.48
489.967	391.35
490.175	530.27
490.383	421.77
490.591	475.44
490.799	399.88
491.007	482.41
491.215	453.35
491.423	445.41
491.631	438.82
491.839	447.93
492.047	480.67
492.255	409.37
492.463	373.72
492.671	411.7
492.879	485.9
493.087	432.82
493.295	498.3
493.503	477.38
493.711	509.93
493.919	495.01
494.127	509.15
494.334	518.26
494.542	421.38
494.75	473.11
494.958	477.76
495.166	508.57
495.374	476.99
495.581	494.43
495.789	492.68
495.997	521.55
496.205	475.05
496.412	470.6
496.62	470.6
496.828	503.15
497.035	453.74
497.243	508.18
497.451	504.5
497.658	528.91
497.866	510.7
498.074	558.17
498.281	486.1
498.489	587.43
498.696	510.9
498.904	492.1
499.112	492.3
499.319	570.96
499.527	486.29
499.734	558.94
499.942	456.26
500.149	502.37
500.357	535.31
500.564	486.1
500.771	543.06
500.979	476.8
501.186	457.61
501.394	479.7
501.601	531.63
501.808	544.61
502.016	538.99
502.223	528.33
502.43	526.59
502.638	530.46
502.845	502.56
503.052	593.43
503.26	512.45
503.467	629.66
503.674	537.83
503.881	559.33
504.089	625.21
504.296	609.71
504.503	513.61
504.71	552.94
504.917	511.67
505.125	562.82
505.332	550.03
505.539	547.71
505.746	624.24
505.953	610.68
506.16	609.9
506.367	644.77
506.574	606.99
506.781	633.92
506.988	563.4
507.195	608.54
507.402	564.56
507.609	626.56
507.816	572.31
508.023	575.22
508.23	566.11
508.437	573.28
508.644	626.95
508.851	664.92
509.058	623.66
509.265	639.35
509.472	638.77
509.679	701.54
509.885	597.11
510.092	606.22
510.299	620.75
510.506	619.59
510.713	626.56
510.92	622.11
511.126	645.16
511.333	676.74
511.54	648.84
511.746	674.03
511.953	674.03
512.16	688.76
512.367	645.16
512.573	628.5
512.78	640.32
512.987	639.74
513.193	638.96
513.4	590.72
513.606	648.46
513.813	663.18
514.02	644.77
514.226	731.38
514.433	699.61
514.639	615.91
514.846	657.95
515.052	639.54
515.259	656.01
515.465	666.86
515.672	656.21
515.878	748.24
516.085	648.84
516.291	705.61
516.497	655.04
516.704	646.13
516.91	659.5
517.117	600.99
517.323	575.22
517.529	617.07
517.736	628.31
517.942	658.53
518.148	632.37
518.354	678.87
518.561	648.65
518.767	675.58
518.973	676.36
519.179	696.7
519.386	628.5
519.592	686.04
519.798	657.56
520.004	727.5
520.21	695.34
520.417	748.04
520.623	783.89
520.829	763.74
521.035	762.19
521.241	736.42
521.447	758.5
521.653	828.45
521.859	742.23
522.065	763.74
522.271	864.87
522.477	785.24
522.683	840.07
522.889	809.46
523.095	793.19
523.301	768.39
523.507	761.41
523.713	771.29
523.919	745.91
524.125	831.74
524.331	786.79
524.537	879.6
524.742	835.23
524.948	848.6
525.154	872.23
525.36	919.51
525.566	856.35
525.772	913.7
525.977	809.46
526.183	879.02
526.389	889.86
526.595	846.66
526.8	841.82
527.006	766.25
527.212	807.72
527.417	756.18
527.623	745.14
527.829	825.15
528.034	833.68
528.24	844.72
528.446	816.24
528.651	867.58
528.857	865.07
529.062	943.34
529.268	856.93
529.473	909.43
529.679	862.74
529.884	960.97
530.09	913.11
530.295	944.5
530.501	951.48
530.706	889.28
530.912	887.73
531.117	911.95
531.323	890.25
531.528	955.35
531.733	955.55
531.939	934.43
532.144	944.31
532.35	916.99
532.555	960
532.76	963.88
532.966	935.2
533.171	943.92
533.376	950.9
533.581	897.23
533.787	927.65
533.992	941.21
534.197	954.19
534.402	927.65
534.607	942.76
534.813	1013.48
535.018	920.67
535.223	932.68
535.428	957.87
535.633	1010.76
535.838	981.12
536.043	997.78
536.249	1030.72
536.454	972.01
536.659	1039.63
536.864	979.57
537.069	975.89
537.274	984.61
537.479	1002.24
537.684	1030.72
537.889	927.26
538.094	1028.98
538.299	978.99
538.504	1008.05
538.708	1015.03
538.913	1054.16
539.118	1002.24
539.323	986.35
539.528	991.78
539.733	981.7
539.938	1040.41
540.142	1030.33
540.347	972.4
540.552	950.7
540.757	978.79
540.962	997.01
541.166	955.35
541.371	957.68
541.576	970.85
541.781	873.2
541.985	1019.48
542.19	1010.18
542.395	1028.98
542.599	1048.74
542.804	1023.36
543.008	1051.26
543.213	997.59
543.418	984.03
543.622	1045.25
543.827	951.86
544.031	1049.9
544.236	1070.44
544.44	1041.96
544.645	1088.07
544.849	1028.59
545.054	1058.62
545.258	1116.55
545.463	1096.21
545.667	1020.45
545.872	1043.89
546.076	1040.41
546.281	1058.04
546.485	1043.12
546.689	1071.79
546.894	1088.26
547.098	1058.62
547.302	973.18
547.507	1048.54
547.711	1075.86
547.915	1109.77
548.119	1019.09
548.324	1066.17
548.528	1127.01
548.732	1066.56
548.936	1094.27
549.141	1102.02
549.345	1027.81
549.549	1037.11
549.753	1095.82
549.957	1161.69
550.161	1142.32
550.366	1087.68
550.57	1033.24
550.774	1090.97
550.978	1040.6
551.182	1099.11
551.386	1060.36
551.59	1046.03
551.794	1049.71
551.998	1100.47
552.202	1075.28
552.406	1043.89
552.61	1084
552.814	1081.29
553.018	1130.69
553.222	1075.67
553.426	1057.46
553.63	1136.51
553.833	1081.29
554.037	1013.67
554.241	1130.11
554.445	1089.23
554.649	1093.88
554.853	1052.61
555.056	1131.08
555.26	1115.19
555.464	1098.92
555.668	1084.77
555.871	1118.49
556.075	1100.27
556.279	1068.69
556.483	1050.09
556.686	1051.64
556.89	1054.55
557.094	1083.81
557.297	1028.01
557.501	1120.81
557.704	1019.87
557.908	1116.74
558.112	1038.28
558.315	1120.23
558.519	1056.1
558.722	1060.56
558.926	1047.77
559.129	1011.93
559.333	990.61
559.536	1000.3
559.74	997.2
559.943	972.98
560.147	969.11
560.35	1019.09
560.553	968.33
560.757	948.18
560.96	1065.59
561.164	976.08
561.367	1064.04
561.57	1043.7
561.774	1038.66
561.977	1024.33
562.18	984.8
562.384	1087.87
562.587	1029.36
562.79	1001.85
562.993	1016.38
563.197	1064.04
563.4	1058.42
563.603	1111.12
563.806	1124.49
564.009	1013.28
564.212	1044.09
564.416	1003.59
564.619	1057.46
564.822	997.39
565.025	1049.51
565.228	1001.85
565.431	1022.39
565.634	914.66
565.837	978.6
566.04	975.31
566.243	988.48
566.446	898.58
566.649	1031.69
566.852	918.93
567.055	958.06
567.258	1002.24
567.461	1056.29
567.664	1032.66
567.867	931.33
568.07	991.58
568.273	984.03
568.475	1021.42
568.678	953.03
568.881	959.23
569.084	957.29
569.287	878.82
569.489	896.65
569.692	982.67
569.895	968.33
570.098	876.3
570.3	899.16
570.503	834.26
570.706	865.65
570.909	905.95
571.111	847.05
571.314	854.02
571.516	877.66
571.719	909.24
571.922	908.27
572.124	883.08
572.327	892.58
572.529	830.19
572.732	861.38
572.935	925.32
573.137	972.59
573.34	875.53
573.542	942.37
573.745	892.77
573.947	914.47
574.15	883.08
574.352	829.03
574.554	930.75
574.757	847.82
574.959	873.98
575.162	874.95
575.364	815.66
575.566	973.56
575.769	842.59
575.971	878.63
576.173	755.6
576.376	849.95
576.578	888.7
576.78	923.58
576.982	790.09
577.185	859.25
577.387	807.52
577.589	816.82
577.791	836.58
577.993	903.04
578.196	824.38
578.398	872.62
578.6	889.48
578.802	785.44
579.004	823.99
579.206	794.15
579.408	855.77
579.61	792.99
579.812	842.98
580.014	803.45
580.216	804.03
580.418	830
580.62	799.38
580.822	741.84
581.024	812.37
581.226	877.66
581.428	838.52
581.63	924.74
581.832	819.15
582.034	875.14
582.236	811.4
582.438	828.06
582.64	862.93
582.841	877.08
583.043	945.66
583.245	854.8
583.447	858.67
583.649	866.23
583.85	856.73
584.052	887.15
584.254	836.78
584.456	871.65
584.657	781.95
584.859	821.86
585.061	843.95
585.262	803.65
585.464	777.69
585.666	831.74
585.867	803.65
586.069	847.63
586.27	840.27
586.472	850.53
586.674	825.73
586.875	805.78
587.077	828.45
587.278	829.61
587.48	803.65
587.681	923.19
587.883	820.7
588.084	774.39
588.285	798.03
588.487	798.22
588.688	796.09
588.89	744.36
589.091	721.11
589.292	759.09
589.494	741.26
589.695	737.97
589.896	639.93
590.098	661.82
590.299	729.44
590.5	674.61
590.702	703.87
590.903	747.27
591.104	780.4
591.305	745.72
591.507	831.35
591.708	785.24
591.909	716.07
592.11	827.28
592.311	773.62
592.512	736.61
592.714	721.69
592.915	716.65
593.116	754.63
593.317	753.27
593.518	737.58
593.719	775.36
593.92	777.49
594.121	811.4
594.322	744.75
594.523	748.43
594.724	702.32
594.925	742.81
595.126	771.1
595.327	758.5
595.528	734.48
595.729	749.2
595.929	754.63
596.13	747.46
596.331	772.65
596.532	766.84
596.733	799.19
596.934	770.13
597.135	750.95
597.335	764.7
597.536	707.16
597.737	754.44
597.938	743.39
598.138	765.29
598.339	723.82
598.54	757.92
598.74	730.22
598.941	729.05
599.142	794.73
599.342	793.77
599.543	721.11
599.744	744.94
599.944	733.12
600.145	739.71
600.345	764.7
600.546	834.65
600.746	817.98
600.947	847.05
601.147	788.92
601.348	786.21
601.548	733.7
601.749	763.93
601.949	700.19
602.15	725.57
602.35	731.77
602.551	802.29
602.751	710.84
602.951	726.54
603.152	703.67
603.352	769.55
603.552	746.1
603.753	792.22
603.953	742.81
604.153	745.52
604.354	750.95
604.554	784.08
604.754	740.29
604.954	724.79
605.155	761.22
605.355	748.62
605.555	791.05
605.755	807.72
605.955	754.44
606.155	745.91
606.356	765.87
606.556	784.47
606.756	770.9
606.956	716.85
607.156	810.04
607.356	721.5
607.556	761.02
607.756	767.22
607.956	794.35
608.156	746.3
608.356	762.77
608.556	774.59
608.756	757.15
608.956	700.57
609.156	764.12
609.356	709.49
609.556	706.19
609.755	760.25
609.955	697.28
610.155	712.78
610.355	748.43
610.555	730.02
610.755	731.38
610.954	650.97
611.154	712.59
611.354	795.12
611.554	716.27
611.753	709.1
611.953	666.28
612.153	754.82
612.352	715.1
612.552	700.38
612.752	640.51
612.951	689.92
613.151	708.52
613.351	700.96
613.55	684.88
613.75	720.53
613.949	683.91
614.149	731.38
614.348	712.59
614.548	663.96
614.747	656.4
614.947	683.52
615.146	634.51
615.346	728.47
615.545	701.93
615.745	698.25
615.944	731.96
616.144	680.62
616.343	719.95
616.542	690.5
616.742	692.44
616.941	699.61
617.14	611.64
617.34	656.21
617.539	657.37
617.738	627.14
617.938	715.1
618.137	676.74
618.336	641.09
618.535	682.94
618.734	672.29
618.934	697.09
619.133	703.67
619.332	686.82
619.531	638.77
619.73	672.48
619.929	724.21
620.128	706
620.328	731.38
620.527	646.13
620.726	682.56
620.925	724.02
621.124	669.96
621.323	680.42
621.522	635.09
621.721	638.19
621.92	645.74
622.119	697.67
622.318	622.88
622.517	647.68
622.715	653.49
622.914	587.23
623.113	649.04
623.312	583.55
623.511	676.94
623.71	625.4
623.909	634.7
624.107	710.26
624.306	617.65
624.505	640.12
624.704	637.61
624.902	621.14
625.101	706.39
