Data from pine_FLMT105791__24__17-19-58-070.txt Node

Date: Mon Mar 20 17:19:58 GMT 2023
User: antho
Spectrometer: FLMT10579
Trigger mode: 0
Integration Time (sec): 1.000000E-1
Scans to average: 10
Electric dark correction enabled: true
Nonlinearity correction enabled: false
Boxcar width: 0
XAxis mode: Wavelengths
Number of Pixels in Spectrum: 3648
>>>>>Begin Spectral Data<<<<<
345.248	-167.58
345.464	-167.58
345.681	-167.58
345.898	-178.04
346.114	-156.34
346.331	-46.48
346.548	42.64
346.764	-16.84
346.981	-20.52
347.197	-17.61
347.414	34.31
347.631	-35.25
347.847	74.61
348.064	-13.35
348.28	35.47
348.497	-19.55
348.713	-17.42
348.93	51.17
349.146	21.33
349.363	31.21
349.579	14.16
349.796	26.56
350.012	-15.29
350.229	30.24
350.445	0.6
350.661	-12.96
350.878	25.2
351.094	18.81
351.311	4.47
351.527	43.8
351.743	-11.22
351.96	31.6
352.176	36.83
352.392	24.43
352.609	42.64
352.825	-25.56
353.041	-7.54
353.257	8.15
353.474	18.03
353.69	18.03
353.906	21.52
354.122	6.02
354.339	56.01
354.555	18.81
354.771	-7.73
354.987	67.63
355.203	82.94
355.42	-29.05
355.636	1.18
355.852	-15.87
356.068	26.37
356.284	-52.68
356.5	57.17
356.716	27.53
356.932	9.32
357.148	48.45
357.364	18.81
357.58	25.2
357.796	36.25
358.012	24.82
358.228	35.86
358.444	-60.05
358.66	67.25
358.876	25.59
359.092	9.7
359.308	10.48
359.524	37.8
359.74	20.94
359.956	-6.77
360.172	-0.37
360.388	43.22
360.604	5.05
360.819	112.39
361.035	28.69
361.251	44
361.467	-19.75
361.683	50.39
361.898	42.06
362.114	44
362.33	22.49
362.546	62.98
362.762	7.96
362.977	16.1
363.193	-34.28
363.409	57.56
363.624	-23.43
363.84	-18.2
364.056	7.96
364.271	33.15
364.487	48.07
364.703	-11.41
364.918	6.41
365.134	-1.34
365.35	4.47
365.565	109.68
365.781	33.53
365.996	42.06
366.212	75.19
366.427	45.35
366.643	-13.16
366.858	27.33
367.074	-1.92
367.289	67.83
367.505	96.11
367.72	-32.34
367.936	23.65
368.151	94.56
368.367	64.73
368.582	44
368.798	10.09
369.013	65.12
369.228	42.64
369.444	20.94
369.659	68.99
369.874	47.87
370.09	60.47
370.305	-38.15
370.52	12.42
370.736	52.33
370.951	9.32
371.166	47.1
371.381	85.85
371.597	55.23
371.812	-8.9
372.027	-3.47
372.242	-4.05
372.458	78.87
372.673	14.35
372.888	18.23
373.103	43.22
373.318	113.36
373.533	29.08
373.749	34.5
373.964	-15.29
374.179	70.15
374.394	6.6
374.609	87.01
374.824	-30.21
375.039	38.18
375.254	9.51
375.469	61.24
375.684	19.2
375.899	55.62
376.114	16.87
376.329	54.46
376.544	70.73
376.759	59.5
376.974	7.77
377.189	26.95
377.404	2.34
377.619	70.73
377.834	-10.45
378.049	-45.13
378.264	-20.13
378.478	35.08
378.693	7.77
378.908	44.97
379.123	1.57
379.338	59.3
379.553	45.35
379.767	45.93
379.982	53.1
380.197	39.54
380.412	36.44
380.626	24.82
380.841	103.28
381.056	16.68
381.271	86.04
381.485	27.92
381.7	15.71
381.915	61.24
382.129	3.7
382.344	16.87
382.559	25.78
382.773	54.85
382.988	-33.89
383.202	37.8
383.417	10.67
383.632	114.33
383.846	52.91
384.061	39.15
384.275	16.68
384.49	47.87
384.704	52.72
384.919	27.53
385.133	36.25
385.348	39.15
385.562	-11.03
385.777	60.47
385.991	16.68
386.206	35.47
386.42	22.68
386.634	51.94
386.849	51.36
387.063	31.4
387.277	-11.8
387.492	12.03
387.706	-3.47
387.92	6.99
388.135	47.68
388.349	37.41
388.563	36.44
388.778	54.85
388.992	68.99
389.206	80.23
389.42	91.08
389.635	31.02
389.849	38.77
390.063	67.83
390.277	68.41
390.491	102.51
390.706	51.55
390.92	93.79
391.134	34.7
391.348	76.74
391.562	-32.53
391.776	56.01
391.99	12.22
392.205	49.42
392.419	-5.02
392.633	15.32
392.847	69.38
393.061	31.6
393.275	104.25
393.489	38.96
393.703	62.98
393.917	55.43
394.131	16.87
394.345	64.34
394.559	86.04
394.773	19.39
394.986	64.92
395.2	35.47
395.414	72.87
395.628	6.8
395.842	19
396.056	27.14
396.27	-12
396.484	55.04
396.697	26.56
396.911	99.8
397.125	47.1
397.339	63.18
397.553	87.4
397.766	111.03
397.98	43.22
398.194	116.07
398.408	24.82
398.621	51.17
398.835	70.54
399.049	76.93
399.262	98.44
399.476	95.53
399.69	83.52
399.903	145.91
400.117	43.42
400.331	86.04
400.544	20.36
400.758	153.46
400.971	107.16
401.185	96.5
401.398	28.5
401.612	106.77
401.826	70.35
402.039	68.8
402.253	47.68
402.466	65.5
402.68	71.9
402.893	99.99
403.106	55.62
403.32	52.52
403.533	73.06
403.747	65.7
403.96	96.5
404.174	90.5
404.387	34.12
404.6	57.17
404.814	119.17
405.027	62.98
405.24	67.83
405.454	56.59
405.667	108.71
405.88	10.28
406.094	71.12
406.307	90.69
406.52	97.47
406.733	55.04
406.947	5.63
407.16	131.57
407.373	97.66
407.586	49.62
407.799	35.47
408.012	111.61
408.226	66.47
408.439	112.39
408.652	21.91
408.865	89.53
409.078	102.9
409.291	132.73
409.504	37.99
409.717	116.07
409.93	104.45
410.143	73.83
410.357	13.58
410.57	39.35
410.783	55.62
410.996	80.03
411.209	54.65
411.421	134.67
411.634	70.73
411.847	61.24
412.06	69.77
412.273	61.82
412.486	55.43
412.699	161.99
412.912	64.92
413.125	128.08
413.338	95.53
413.55	101.73
413.763	75
413.976	108.51
414.189	29.85
414.402	56.59
414.615	143
414.827	53.68
415.04	92.43
415.253	89.14
415.466	109.68
415.678	128.47
415.891	75.77
416.104	69.38
416.316	58.14
416.529	75.58
416.742	86.62
416.954	118.59
417.167	88.36
417.38	72.48
417.592	124.01
417.805	47.1
418.017	27.72
418.23	104.25
418.442	50.39
418.655	66.08
418.868	131.57
419.08	124.21
419.293	121.3
419.505	94.76
419.718	98.25
419.93	129.44
420.142	78.48
420.355	130.99
420.567	124.6
420.78	120.91
420.992	100.96
421.205	149.4
421.417	70.35
421.629	91.08
421.842	91.46
422.054	43.61
422.266	127.89
422.479	130.02
422.691	75
422.903	138.74
423.115	105.61
423.328	75.19
423.54	124.6
423.752	97.08
423.964	71.9
424.177	131.38
424.389	99.21
424.601	213.14
424.813	98.05
425.025	148.62
425.238	150.95
425.45	92.43
425.662	88.56
425.874	399.91
426.086	121.88
426.298	151.33
426.51	126.92
426.722	117.04
426.934	112.78
427.146	153.27
427.358	93.01
427.57	141.06
427.782	103.86
427.994	114.52
428.206	114.52
428.418	81.39
428.63	137.77
428.842	160.25
429.054	125.37
429.266	145.91
429.478	106.19
429.69	129.25
429.902	88.95
430.114	157.15
430.325	133.7
430.537	91.27
430.749	138.35
430.961	71.32
431.173	92.05
431.384	124.6
431.596	42.45
431.808	108.51
432.02	140.68
432.231	184.46
432.443	176.13
432.655	162.18
432.867	98.25
433.078	137.96
433.29	235.61
433.502	181.36
433.713	173.42
433.925	158.89
434.136	192.41
434.348	119.75
434.56	94.95
434.771	238.52
434.983	110.65
435.194	143.39
435.406	137.38
435.617	205.78
435.829	219.34
436.04	181.17
436.252	209.84
436.463	231.93
436.675	182.72
436.886	169.54
437.098	199.38
437.309	202.87
437.521	160.63
437.732	201.32
437.943	203.64
438.155	164.12
438.366	118.01
438.578	233.29
438.789	183.88
439	200.93
439.211	160.44
439.423	206.16
439.634	213.33
439.845	210.04
440.057	192.99
440.268	238.13
440.479	177.1
440.69	195.31
440.902	184.66
441.113	200.93
441.324	198.41
441.535	206.16
441.746	256.92
441.957	182.53
442.168	187.95
442.38	225.93
442.591	253.44
442.802	184.85
443.013	184.85
443.224	228.06
443.435	190.66
443.646	193.38
443.857	206.16
444.068	194.73
444.279	201.13
444.49	288.7
444.701	227.09
444.912	317.37
445.123	277.85
445.334	225.15
445.545	285.6
445.756	249.37
445.967	199.96
446.178	243.94
446.388	267.97
446.599	242.59
446.81	279.79
447.021	217.01
447.232	280.56
447.443	296.84
447.653	228.64
447.864	285.02
448.075	261.96
448.286	274.36
448.496	254.02
448.707	279.59
448.918	244.14
449.129	331.32
449.339	238.13
449.55	251.89
449.761	272.42
449.971	315.82
450.182	249.95
450.393	270.29
450.603	243.36
450.814	324.16
451.024	282.89
451.235	282.89
451.446	347.4
451.656	337.33
451.867	264.29
452.077	284.82
452.288	303.04
452.498	340.82
452.709	278.62
452.919	296.84
453.13	267.39
453.34	316.79
453.55	237.94
453.761	318.73
453.971	306.14
454.182	319.31
454.392	313.89
454.602	360.19
454.813	308.46
455.023	333.07
455.233	253.05
455.444	294.71
455.654	235.42
455.864	300.71
456.075	279.79
456.285	287.73
456.495	300.32
456.705	311.37
456.916	375.69
457.126	359.42
457.336	305.75
457.546	236.39
457.756	290.83
457.967	346.24
458.177	299.94
458.387	316.02
458.597	278.04
458.807	296.06
459.017	291.61
459.227	302.07
459.437	286.76
459.647	336.94
459.857	321.06
460.068	299.74
460.278	353.8
460.488	320.09
460.698	372.98
460.908	309.24
461.117	275.14
461.327	287.34
461.537	348.37
461.747	329.97
461.957	331.13
462.167	443.5
462.377	377.44
462.587	318.73
462.797	361.94
463.007	362.71
463.216	361.55
463.426	360
463.636	353.8
463.846	293.35
464.056	353.8
464.265	380.15
464.475	309.62
464.685	345.85
464.895	374.53
465.104	333.46
465.314	371.62
465.524	332.49
465.733	336.75
465.943	437.11
466.153	368.91
466.362	402.82
466.572	356.9
466.782	341.59
466.991	346.24
467.201	402.62
467.41	286.96
467.62	366.97
467.829	371.82
468.039	357.67
468.249	348.37
468.458	390.61
468.668	414.25
468.877	416.57
469.086	421.22
469.296	402.82
469.505	372.59
469.715	441.95
469.924	390.03
470.134	435.37
470.343	426.07
470.552	405.34
470.762	393.71
470.971	352.44
471.18	387.51
471.39	390.03
471.599	368.91
471.808	432.07
472.018	377.44
472.227	448.15
472.436	450.87
472.645	402.43
472.855	397.59
473.064	442.73
473.273	417.74
473.482	462.3
473.691	445.25
473.901	438.85
474.11	418.32
474.319	494.27
474.528	440.21
474.737	504.15
474.946	486.32
475.155	439.24
475.364	489.23
475.573	482.06
475.783	463.07
475.992	484.97
476.201	515.58
476.41	465.01
476.619	448.15
476.828	476.83
477.037	464.43
477.245	481.48
477.454	467.14
477.663	485.93
477.872	464.82
478.081	554.91
478.29	464.04
478.499	529.91
478.708	502.02
478.917	573.31
479.125	498.92
479.334	527.59
479.543	521.78
479.752	537.66
479.961	535.73
480.169	571.18
480.378	496.98
480.587	637.83
480.796	579.9
481.004	549.48
481.213	571.57
481.422	529.33
481.63	558.59
481.839	587.07
482.048	613.42
482.256	589.2
482.465	596.76
482.674	596.95
482.882	619.04
483.091	652.17
483.299	590.36
483.508	614.19
483.716	586.68
483.925	630.86
484.134	584.36
484.342	591.33
484.551	623.88
484.759	606.25
484.967	671.93
485.176	668.25
485.384	630.66
485.593	634.15
485.801	638.22
486.01	592.69
486.218	545.8
486.426	523.52
486.635	541.73
486.843	532.82
487.051	550.26
487.26	562.08
487.468	595.21
487.676	669.99
487.885	585.91
488.093	624.08
488.301	626.21
488.509	657.01
488.717	702.16
488.926	663.02
489.134	632.02
489.342	655.08
489.55	632.41
489.758	667.86
489.967	642.09
490.175	770.94
490.383	674.84
490.591	743.62
490.799	636.67
491.007	731.99
491.215	714.36
491.423	676.39
491.631	701.38
491.839	731.41
492.047	713.01
492.255	649.46
492.463	639.96
492.671	701.19
492.879	738.58
493.087	692.66
493.295	731.02
493.503	737.03
493.711	760.86
493.919	770.55
494.127	780.43
494.334	790.7
494.542	720.56
494.75	715.91
494.958	731.99
495.166	763.38
495.374	756.6
495.581	772.1
495.789	729.47
495.997	794.19
496.205	746.33
496.412	730.44
496.62	775.97
496.828	749.43
497.035	750.21
497.243	808.52
497.451	771.13
497.658	771.52
497.866	769.97
498.074	826.93
498.281	762.99
498.489	849.79
498.696	787.4
498.904	784.3
499.112	772.68
499.319	851.54
499.527	791.09
499.734	846.11
499.942	727.34
500.149	775.59
500.357	813.17
500.564	763.38
500.771	827.12
500.979	750.79
501.186	749.82
501.394	788.57
501.601	792.05
501.808	802.13
502.016	782.37
502.223	780.82
502.43	824.02
502.638	790.12
502.845	760.67
503.052	858.32
503.26	807.94
503.467	897.84
503.674	820.73
503.881	851.92
504.089	897.26
504.296	858.51
504.503	775.59
504.71	837
504.917	772.68
505.125	823.83
505.332	838.94
505.539	857.54
505.746	926.13
505.953	875.56
506.16	863.55
506.367	925.35
506.574	948.6
506.781	918.77
506.988	865.1
507.195	876.53
507.402	892.42
507.609	932.52
507.816	858.32
508.023	901.72
508.23	831.58
508.437	839.14
508.644	917.8
508.851	946.47
509.058	926.9
509.265	887.57
509.472	922.83
509.679	1015.83
509.885	928.84
510.092	918.77
510.299	930
510.506	936.78
510.713	983.67
510.92	924.58
511.126	957.71
511.333	1004.21
511.54	973.6
511.746	1020.68
511.953	1019.13
512.16	987.74
512.367	948.6
512.573	979.6
512.78	956.16
512.987	991.81
513.193	977.47
513.4	905.78
513.606	956.16
513.813	979.99
514.02	980.76
514.226	1045.67
514.433	1022.81
514.639	945.31
514.846	968.95
515.052	960.03
515.259	984.06
515.465	988.9
515.672	998.98
515.878	1080.35
516.085	971.66
516.291	1042.96
516.497	976.31
516.704	989.48
516.91	948.99
517.117	916.05
517.323	870.91
517.529	939.5
517.736	904.62
517.942	931.94
518.148	928.07
518.354	963.91
518.561	967.4
518.767	1013.7
518.973	1008.08
519.179	1009.63
519.386	990.84
519.592	969.14
519.798	1005.95
520.004	1078.22
520.21	1041.41
520.417	1079.77
520.623	1106.89
520.829	1131.31
521.035	1102.63
521.241	1110.96
521.447	1149.91
521.653	1217.33
521.859	1074.93
522.065	1120.84
522.271	1248.72
522.477	1128.59
522.683	1191.76
522.889	1142.74
523.095	1146.03
523.301	1122.2
523.507	1134.21
523.713	1143.9
523.919	1111.35
524.125	1185.56
524.331	1160.76
524.537	1241.74
524.742	1266.54
524.948	1217.72
525.154	1260.92
525.36	1321.37
525.566	1201.25
525.772	1256.08
525.977	1188.85
526.183	1231.86
526.389	1250.07
526.595	1180.32
526.8	1184.97
527.006	1158.04
527.212	1093.91
527.417	1106.12
527.623	1121.81
527.829	1200.28
528.034	1174.9
528.24	1222.37
528.446	1190.4
528.651	1266.93
528.857	1253.37
529.062	1298.7
529.268	1273.71
529.473	1290.76
529.679	1247.94
529.884	1352.95
530.09	1313.43
530.295	1371.55
530.501	1360.12
530.706	1348.11
530.912	1263.83
531.117	1337.26
531.323	1334.55
531.528	1365.35
531.733	1370.2
531.939	1302.97
532.144	1352.95
532.35	1315.37
532.555	1347.92
532.76	1340.94
532.966	1367.29
533.171	1327.77
533.376	1303.93
533.581	1293.67
533.787	1328.15
533.992	1345.98
534.197	1394.61
534.402	1340.94
534.607	1308.39
534.813	1439.56
535.018	1349.85
535.223	1345.59
535.428	1355.08
535.633	1420.57
535.838	1431.42
536.043	1415.15
536.249	1491.09
536.454	1361.48
536.659	1420.57
536.864	1374.65
537.069	1369.03
537.274	1418.25
537.479	1427.16
537.684	1432.2
537.889	1360.7
538.094	1501.94
538.299	1412.05
538.504	1449.05
538.708	1449.05
538.913	1452.73
539.118	1398.87
539.323	1454.67
539.528	1419.41
539.733	1408.56
539.938	1399.26
540.142	1416.5
540.347	1396.74
540.552	1387.63
540.757	1390.73
540.962	1357.22
541.166	1343.46
541.371	1371.55
541.576	1378.53
541.781	1319.82
541.985	1402.16
542.19	1433.75
542.395	1484.7
542.599	1463.58
542.804	1451.18
543.008	1493.81
543.213	1418.05
543.418	1393.06
543.622	1456.03
543.827	1400.61
544.031	1450.8
544.236	1463.2
544.44	1476.37
544.645	1538.95
544.849	1452.15
545.054	1489.16
545.258	1566.46
545.463	1541.86
545.667	1448.86
545.872	1475.79
546.076	1464.36
546.281	1503.11
546.485	1440.72
546.689	1504.08
546.894	1509.89
547.098	1478.89
547.302	1437.62
547.507	1498.65
547.711	1528.1
547.915	1560.07
548.119	1487.8
548.324	1475.6
548.528	1553.87
548.732	1519.96
548.936	1510.66
549.141	1552.51
549.345	1508.34
549.549	1519.77
549.753	1517.06
549.957	1586.61
550.161	1574.79
550.366	1522.87
550.57	1511.63
550.774	1500.78
550.978	1513.38
551.182	1543.21
551.386	1511.44
551.59	1514.15
551.794	1502.53
551.998	1519.38
552.202	1509.69
552.406	1489.93
552.61	1529.84
552.814	1526.55
553.018	1567.43
553.222	1513.57
553.426	1507.95
553.63	1621.1
553.833	1525.19
554.037	1432.39
554.241	1525
554.445	1530.62
554.649	1508.14
554.853	1487.99
555.056	1519.19
555.26	1552.71
555.464	1535.85
555.668	1545.15
555.871	1540.11
556.075	1578.67
556.279	1493.03
556.483	1481.21
556.686	1482.76
556.89	1501.36
557.094	1524.42
557.297	1456.8
557.501	1562.78
557.704	1429.87
557.908	1524.42
558.112	1473.85
558.315	1539.53
558.519	1498.84
558.722	1473.27
558.926	1477.92
559.129	1426.96
559.333	1398.68
559.536	1416.11
559.74	1387.63
559.943	1453.31
560.147	1401.2
560.35	1415.73
560.553	1442.85
560.757	1397.9
560.96	1505.04
561.164	1450.6
561.367	1494.78
561.57	1453.31
561.774	1475.21
561.977	1422.7
562.18	1370.58
562.384	1492.45
562.587	1430.06
562.79	1412.05
562.993	1413.6
563.197	1456.8
563.4	1533.33
563.603	1455.64
563.806	1516.48
564.009	1406.04
564.212	1445.18
564.416	1379.88
564.619	1445.56
564.822	1364.19
565.025	1458.16
565.228	1389.38
565.431	1449.05
565.634	1310.52
565.837	1369.03
566.04	1352.18
566.243	1361.48
566.446	1293.09
566.649	1407.59
566.852	1335.13
567.055	1343.07
567.258	1368.65
567.461	1451.38
567.664	1393.45
567.867	1341.91
568.07	1362.25
568.273	1383.37
568.475	1406.81
568.678	1358.96
568.881	1343.27
569.084	1373.3
569.287	1243.49
569.489	1294.64
569.692	1351.6
569.895	1373.68
570.098	1274.87
570.3	1254.14
570.503	1221.79
570.706	1242.52
570.909	1243.49
571.111	1253.95
571.314	1241.55
571.516	1280.69
571.719	1280.49
571.922	1232.64
572.124	1241.94
572.327	1240.77
572.529	1208.22
572.732	1234.19
572.935	1307.62
573.137	1313.43
573.34	1252.59
573.542	1295.99
573.745	1290.37
573.947	1260.34
574.15	1244.65
574.352	1221.4
574.554	1307.03
574.757	1197.18
574.959	1199.31
575.162	1222.75
575.364	1196.02
575.566	1327.96
575.769	1215.39
575.971	1255.11
576.173	1134.02
576.376	1219.07
576.578	1272.94
576.78	1277
576.982	1140.8
577.185	1228.76
577.387	1163.08
577.589	1130.53
577.791	1229.73
577.993	1207.84
578.196	1186.72
578.398	1195.82
578.6	1228.18
578.802	1116.39
579.004	1159.21
579.206	1154.17
579.408	1210.16
579.61	1122.01
579.812	1206.67
580.014	1144.29
580.216	1129.56
580.418	1173.16
580.62	1151.84
580.822	1134.41
581.024	1171.41
581.226	1214.04
581.428	1186.14
581.63	1236.51
581.832	1131.89
582.034	1216.55
582.236	1165.41
582.438	1201.44
582.64	1229.92
582.841	1256.85
583.043	1292.12
583.245	1191.76
583.447	1215.78
583.649	1207.45
583.85	1237.67
584.052	1252.79
584.254	1176.26
584.456	1227.21
584.657	1162.31
584.859	1174.32
585.061	1191.76
585.262	1169.28
585.464	1147.58
585.666	1181.29
585.867	1134.79
586.069	1216.36
586.27	1167.15
586.472	1180.91
586.674	1159.98
586.875	1172.77
587.077	1160.37
587.278	1195.05
587.48	1134.21
587.681	1285.14
587.883	1196.21
588.084	1108.44
588.285	1138.67
588.487	1120.07
588.688	1136.34
588.89	1052.84
589.091	1068.92
589.292	1063.69
589.494	1048.38
589.695	1014.48
589.896	963.71
590.098	959.45
590.299	1042.38
590.5	971.27
590.702	994.91
590.903	1028.43
591.104	1087.91
591.305	1078.99
591.507	1124.91
591.708	1098.37
591.909	1062.33
592.11	1132.66
592.311	1128.79
592.512	1035.21
592.714	1030.75
592.915	1025.91
593.116	1031.53
593.317	1054.19
593.518	1085
593.719	1064.27
593.92	1107.67
594.121	1117.74
594.322	1074.54
594.523	1061.56
594.724	1000.53
594.925	1068.14
595.126	1081.71
595.327	1091.59
595.528	1076.48
595.729	1082.29
595.929	1063.3
596.13	1065.63
596.331	1043.93
596.532	1117.55
596.733	1154.56
596.934	1104.38
597.135	1077.25
597.335	1097.98
597.536	1015.45
597.737	1060.39
597.938	1029.4
598.138	1075.12
598.339	1070.28
598.54	1070.86
598.74	1063.88
598.941	1074.54
599.142	1146.03
599.342	1077.06
599.543	1037.34
599.744	1068.34
599.944	1053.03
600.145	1033.66
600.345	1062.14
600.546	1132.66
600.746	1124.91
600.947	1165.21
601.147	1077.06
601.348	1093.53
601.548	1074.54
601.749	1081.9
601.949	1038.7
602.15	1035.21
602.35	1053.23
602.551	1085
602.751	1023.58
602.951	1043.15
603.152	995.88
603.352	1081.9
603.552	1076.09
603.753	1094.69
603.953	1069.5
604.153	1056.91
604.354	1082.68
604.554	1087.91
604.754	1073.76
604.954	982.12
605.155	1085.58
605.355	1030.75
605.555	1084.81
605.755	1134.6
605.955	1063.69
606.155	1109.99
606.356	1074.73
606.556	1140.99
606.756	1064.08
606.956	1018.16
607.156	1097.4
607.356	1025.33
607.556	1069.5
607.756	1079.38
607.956	1079.58
608.156	1095.85
608.356	1018.35
608.556	1071.63
608.756	1046.64
608.956	969.33
609.156	1035.21
609.356	1000.72
609.556	990.45
609.755	1036.56
609.955	976.89
610.155	1037.15
610.355	1036.18
610.555	985.8
610.755	1030.17
610.954	948.8
611.154	996.07
611.354	1049.35
611.554	1002.27
611.753	1012.54
611.953	939.5
612.153	1056.91
612.352	1048.58
612.552	957.9
612.752	923.61
612.951	963.91
613.151	999.75
613.351	974.37
613.55	949.77
613.75	983.28
613.949	959.65
614.149	1001.88
614.348	948.8
614.548	952.67
614.747	915.28
614.947	957.51
615.146	922.64
615.346	1008.08
615.545	1008.08
615.745	993.75
615.944	1021.45
616.144	960.42
616.343	1007.7
616.542	952.87
616.742	983.09
616.941	968.56
617.14	887.38
617.34	953.06
617.539	924.19
617.738	902.1
617.938	989.48
618.137	940.27
618.336	900.94
618.535	968.17
618.734	948.99
618.934	950.54
619.133	948.41
619.332	967.78
619.531	906.17
619.73	958.1
