Data from pine_FLMT105791__183__17-23-37-073.txt Node

Date: Mon Mar 20 17:23:37 GMT 2023
User: antho
Spectrometer: FLMT10579
Trigger mode: 0
Integration Time (sec): 1.000000E-1
Scans to average: 10
Electric dark correction enabled: true
Nonlinearity correction enabled: false
Boxcar width: 0
XAxis mode: Wavelengths
Number of Pixels in Spectrum: 3648
>>>>>Begin Spectral Data<<<<<
345.248	-166.65
345.464	-166.65
345.681	-166.65
345.898	-171.89
346.114	-168.2
346.331	-53.7
346.548	45.89
346.764	-6.43
346.981	-14.76
347.197	-7.98
347.414	19.92
347.631	-14.76
347.847	73.4
348.064	2.49
348.28	11.21
348.497	-44.01
348.713	-11.27
348.93	12.95
349.146	27.48
349.363	-21.93
349.579	21.09
349.796	-5.84
350.012	-12.43
350.229	26.7
350.445	20.12
350.661	-31.03
350.878	-24.64
351.094	24.38
351.311	33.87
351.527	-13.59
351.743	-1.97
351.96	21.09
352.176	23.8
352.392	2.49
352.609	21.09
352.825	-6.04
353.041	-0.23
353.257	-15.34
353.474	13.53
353.69	1.91
353.906	20.12
354.122	-18.63
354.339	44.34
354.555	12.56
354.771	-15.14
354.987	48.4
355.203	40.46
355.42	0.55
355.636	-5.84
355.852	10.24
356.068	5.01
356.284	-31.81
356.5	53.25
356.716	16.05
356.932	-1.58
357.148	30.58
357.364	12.56
357.58	60.61
357.796	43.95
358.012	21.47
358.228	15.85
358.444	-25.22
358.66	37.17
358.876	29.22
359.092	-34.13
359.308	11.98
359.524	30.39
359.74	-23.67
359.956	-24.64
360.172	-5.84
360.388	33.87
360.604	-2.16
360.819	69.33
361.035	-0.61
361.251	22.25
361.467	-15.53
361.683	23.41
361.898	17.02
362.114	36.2
362.33	8.11
362.546	34.07
362.762	19.15
362.977	-4.68
363.193	-56.22
363.409	34.45
363.624	-10.11
363.84	-0.61
364.056	-18.05
364.271	40.46
364.487	21.47
364.703	7.72
364.918	-38.01
365.134	-27.93
365.35	-25.8
365.565	92.77
365.781	-10.69
365.996	11.79
366.212	74.95
366.427	13.34
366.643	-11.66
366.858	-4.29
367.074	-44.98
367.289	70.69
367.505	115.25
367.72	-38.2
367.936	-18.05
368.151	32.52
368.367	32.71
368.582	5.78
368.798	4.62
369.013	43.37
369.228	-16.5
369.444	5.01
369.659	55.77
369.874	-5.84
370.09	40.27
370.305	-47.31
370.52	-26.38
370.736	52.47
370.951	-0.23
371.166	66.81
371.381	77.85
371.597	14.31
371.812	-19.02
372.027	-31.81
372.242	11.21
372.458	67.78
372.673	-5.26
372.888	-0.81
373.103	20.7
373.318	79.79
373.533	19.54
373.749	33.29
373.964	-56.61
374.179	59.06
374.394	-62.23
374.609	50.73
374.824	-27.74
375.039	62.55
375.254	-15.34
375.469	70.1
375.684	-10.49
375.899	36
376.114	-38.39
376.329	20.89
376.544	46.85
376.759	18.37
376.974	-18.05
377.189	-16.11
377.404	-13.98
377.619	35.04
377.834	-34.91
378.049	-25.61
378.264	-21.73
378.478	13.14
378.693	-18.05
378.908	13.72
379.123	8.11
379.338	52.86
379.553	26.12
379.767	41.24
379.982	11.59
380.197	36
380.412	2.68
380.626	26.7
380.841	78.44
381.056	17.21
381.271	53.64
381.485	-10.11
381.7	-37.62
381.915	17.79
382.129	27.09
382.344	14.89
382.559	25.15
382.773	51.31
382.988	-30.26
383.202	9.07
383.417	-18.24
383.632	96.84
383.846	26.51
384.061	24.19
384.275	4.42
384.49	25.15
384.704	41.82
384.919	15.08
385.133	0.74
385.348	52.09
385.562	-27.54
385.777	72.04
385.991	16.24
386.206	-5.07
386.42	-1.97
386.634	52.67
386.849	16.44
387.063	12.76
387.277	-19.21
387.492	-24.44
387.706	-13.59
387.92	-26.77
388.135	22.83
388.349	17.21
388.563	10.62
388.778	-0.42
388.992	20.89
389.206	41.43
389.42	66.62
389.635	3.46
389.849	22.25
390.063	42.2
390.277	20.31
390.491	88.12
390.706	23.99
390.92	48.21
391.134	40.85
391.348	50.92
391.562	-67.46
391.776	23.02
391.99	-32.19
392.205	27.48
392.419	-37.81
392.633	-18.63
392.847	51.7
393.061	-8.94
393.275	51.12
393.489	21.47
393.703	15.08
393.917	53.05
394.131	-14.56
394.345	46.66
394.559	39.49
394.773	0.94
394.986	24.38
395.2	13.72
395.414	33.87
395.628	-29.29
395.842	9.46
396.056	6.17
396.27	-34.91
396.484	17.99
396.697	32.52
396.911	53.64
397.125	37.36
397.339	60.61
397.553	37.94
397.766	81.34
397.98	52.09
398.194	45.5
398.408	-2.94
398.621	21.86
398.835	52.09
399.049	30.58
399.262	59.06
399.476	23.41
399.69	32.9
399.903	89.09
400.117	-17.66
400.331	20.89
400.544	-26.58
400.758	129.39
400.971	22.05
401.185	17.99
401.398	-21.93
401.612	64.68
401.826	34.26
402.039	37.55
402.253	-7.78
402.466	32.13
402.68	8.3
402.893	28.64
403.106	12.37
403.32	30.39
403.533	45.11
403.747	34.84
403.96	44.72
404.174	53.25
404.387	-25.03
404.6	6.94
404.814	61.77
405.027	13.34
405.24	13.92
405.454	11.21
405.667	55.57
405.88	-33.94
406.094	53.05
406.307	20.7
406.52	46.66
406.733	-17.08
406.947	-32.78
407.16	75.92
407.373	58.09
407.586	-7.2
407.799	13.72
408.012	54.02
408.226	2.68
408.439	77.66
408.652	-27.74
408.865	46.66
409.078	62.74
409.291	53.83
409.504	-33.94
409.717	23.8
409.93	52.09
410.143	19.34
410.357	-19.6
410.57	-12.43
410.783	31.55
410.996	16.82
411.209	19.92
411.421	71.85
411.634	5.2
411.847	-25.99
412.06	15.27
412.273	7.52
412.486	17.02
412.699	113.12
412.912	-0.03
413.125	71.07
413.338	14.5
413.55	23.22
413.763	-2.74
413.976	28.64
414.189	-18.83
414.402	-0.42
414.615	49.18
414.827	-8.17
415.04	14.5
415.253	29.42
415.466	29.42
415.678	82.7
415.891	15.47
416.104	34.65
416.316	9.85
416.529	-12.04
416.742	29.61
416.954	50.92
417.167	7.91
417.38	3.07
417.592	48.4
417.805	-28.32
418.017	-57.38
418.23	35.04
418.442	4.23
418.655	4.62
418.868	22.83
419.08	64.49
419.293	57.12
419.505	20.5
419.718	58.09
419.93	44.34
420.142	-2.94
420.355	44.72
420.567	66.81
420.78	35.62
420.992	33.49
421.205	60.61
421.417	-41.69
421.629	12.95
421.842	-36.46
422.054	-36.07
422.266	50.34
422.479	53.05
422.691	4.81
422.903	54.6
423.115	-9.91
423.328	12.17
423.54	46.85
423.752	11.21
423.964	19.34
424.177	48.6
424.389	6.17
424.601	109.82
424.813	0.36
425.025	44.53
425.238	57.9
425.45	11.98
425.662	9.46
425.874	298.53
426.086	32.13
426.298	29.61
426.51	14.69
426.722	17.4
426.934	-10.49
427.146	52.86
427.358	-10.88
427.57	60.22
427.782	25.15
427.994	38.91
428.206	18.76
428.418	-12.43
428.63	58.87
428.842	59.25
429.054	39.69
429.266	45.69
429.478	-2.74
429.69	23.8
429.902	-3.33
430.114	70.69
430.325	47.24
430.537	22.25
430.749	24.57
430.961	-12.24
431.173	20.89
431.384	37.75
431.596	-35.68
431.808	-4.29
432.02	4.04
432.231	47.24
432.443	65.84
432.655	2.68
432.867	-27.35
433.078	8.3
433.29	94.9
433.502	61.97
433.713	60.8
433.925	12.95
434.136	67.97
434.348	-23.48
434.56	-51.18
434.771	123.97
434.983	-11.66
435.194	-3.71
435.406	-11.08
435.617	80.18
435.829	72.04
436.04	79.6
436.252	45.3
436.463	67.2
436.675	40.07
436.886	27.29
437.098	12.56
437.309	53.05
437.521	18.95
437.732	17.79
437.943	31.94
438.155	24.38
438.366	-23.28
438.578	71.65
438.789	34.07
439	58.09
439.211	35.62
439.423	71.27
439.634	48.4
439.845	58.48
440.057	32.13
440.268	16.82
440.479	32.13
440.69	45.11
440.902	4.81
441.113	46.85
441.324	20.31
441.535	49.57
441.746	64.1
441.957	-7.78
442.168	5.01
442.38	58.48
442.591	42.59
442.802	-17.28
443.013	9.85
443.224	31.74
443.435	28.84
443.646	18.37
443.857	42.79
444.068	9.85
444.279	-11.08
444.49	85.8
444.701	-2.94
444.912	128.23
445.123	58.29
445.334	45.69
445.545	16.05
445.756	38.91
445.967	-23.86
446.178	49.18
446.388	76.3
446.599	66.23
446.81	67.2
447.021	21.28
447.232	64.1
447.443	76.3
447.653	-8.56
447.864	82.31
448.075	37.75
448.286	48.6
448.496	48.79
448.707	46.27
448.918	22.64
449.129	123
449.339	3.65
449.55	34.84
449.761	31.16
449.971	86.38
450.182	26.7
450.393	64.1
450.603	18.95
450.814	83.28
451.024	47.24
451.235	54.99
451.446	89.48
451.656	84.25
451.867	21.28
452.077	49.95
452.288	86.57
452.498	84.64
452.709	41.04
452.919	68.94
453.13	28.64
453.34	88.51
453.55	21.86
453.761	63.9
453.971	69.52
454.182	98.39
454.392	73.4
454.602	108.08
454.813	48.21
455.023	107.5
455.233	21.09
455.444	83.09
455.654	-8.56
455.864	47.44
456.075	52.86
456.285	16.63
456.495	53.25
456.705	75.72
456.916	84.64
457.126	126.29
457.336	50.54
457.546	1.13
457.756	27.09
457.967	94.9
458.177	34.84
458.387	74.56
458.597	37.36
458.807	27.09
459.017	18.95
459.227	49.57
459.437	46.08
459.647	81.15
459.857	60.42
460.068	9.46
460.278	79.02
460.488	63.32
460.698	152.06
460.908	56.74
461.117	17.6
461.327	28.06
461.537	44.92
461.747	25.54
461.957	79.99
462.167	153.8
462.377	83.09
462.587	68.94
462.797	92.39
463.007	39.49
463.216	80.18
463.426	105.56
463.636	91.8
463.846	15.08
464.056	34.26
464.265	88.7
464.475	21.09
464.685	38.72
464.895	85.6
465.104	76.3
465.314	89.67
465.524	44.92
465.733	18.37
465.943	120.28
466.153	141.4
466.362	90.25
466.572	66.81
466.782	42.4
466.991	67.39
467.201	100.72
467.41	42.98
467.62	80.18
467.829	45.5
468.039	78.05
468.249	64.87
468.458	65.65
468.668	65.65
468.877	100.14
469.086	95.68
469.296	86.77
469.505	28.84
469.715	113.12
469.924	80.18
470.134	110.6
470.343	127.45
470.552	48.21
470.762	64.87
470.971	56.54
471.18	76.5
471.39	57.32
471.599	49.76
471.808	84.44
472.018	18.18
472.227	112.53
472.436	94.52
472.645	39.88
472.855	23.6
473.064	86.19
473.273	90.84
473.482	102.46
473.691	113.12
473.901	80.18
474.11	78.44
474.319	165.23
474.528	88.12
474.737	92.77
474.946	78.44
475.155	67.78
475.364	107.5
475.573	70.69
475.783	89.29
475.992	106.14
476.201	113.12
476.41	56.93
476.619	45.5
476.828	101.69
477.037	69.52
477.245	66.42
477.454	82.89
477.663	63.13
477.872	59.25
478.081	134.43
478.29	87.15
478.499	144.12
478.708	81.92
478.917	134.82
479.125	103.43
479.334	107.11
479.543	77.66
479.752	87.54
479.961	74.95
480.169	98.97
480.378	38.33
480.587	174.73
480.796	107.3
481.004	88.7
481.213	108.08
481.422	79.79
481.63	72.43
481.839	85.02
482.048	160
482.256	92.97
482.465	81.34
482.674	110.6
482.882	118.35
483.091	144.31
483.299	103.82
483.508	126.87
483.716	71.07
483.925	102.07
484.134	67.78
484.342	93.16
484.551	128.42
484.759	104.78
484.967	123
485.176	117.77
485.384	127.84
485.593	133.85
485.801	101.69
486.01	121.45
486.218	126.1
486.426	76.3
486.635	104.4
486.843	92.39
487.051	120.48
487.26	94.52
487.468	130.94
487.676	157.68
487.885	85.6
488.093	87.74
488.301	101.69
488.509	109.24
488.717	132.1
488.926	97.81
489.134	76.89
489.342	95.68
489.55	81.92
489.758	109.24
489.967	65.45
490.175	160.2
490.383	102.65
490.591	152.64
490.799	58.29
491.007	153.42
491.215	110.98
491.423	114.08
491.631	122.22
491.839	114.28
492.047	163.49
492.255	96.65
492.463	65.26
492.671	103.82
492.879	166.2
493.087	96.65
493.295	134.43
493.503	130.75
493.711	115.44
493.919	159.42
494.127	155.93
494.334	170.47
494.542	108.27
494.75	109.82
494.958	98.97
495.166	133.85
495.374	111.37
495.581	105.95
495.789	141.02
495.997	175.7
496.205	120.87
496.412	118.93
496.62	120.48
496.828	124.16
497.035	106.53
497.243	145.47
497.451	113.12
497.658	102.85
497.866	122.61
498.074	172.02
498.281	109.24
498.489	228.59
498.696	130.36
498.904	124.16
499.112	138.5
499.319	209.8
499.527	111.57
499.734	169.5
499.942	79.6
500.149	107.11
500.357	145.67
500.564	92.39
500.771	128.62
500.979	127.26
501.186	96.45
501.394	137.53
501.601	131.13
501.808	161.55
502.016	127.45
502.223	141.02
502.43	159.03
502.638	131.52
502.845	117.38
503.052	230.53
503.26	124.74
503.467	211.93
503.674	103.04
503.881	147.02
504.089	209.99
504.296	190.42
504.503	111.76
504.71	164.65
504.917	127.84
505.125	137.33
505.332	130.55
505.539	164.27
505.746	203.4
505.953	171.82
506.16	150.9
506.367	206.31
506.574	166.01
506.781	197.98
506.988	112.73
507.195	153.42
507.402	159.42
507.609	180.93
507.816	99.94
508.023	138.5
508.23	136.95
508.437	115.83
508.644	199.33
508.851	208.05
509.058	185.77
509.265	162.13
509.472	172.02
509.679	250.1
509.885	172.6
510.092	154.38
510.299	147.99
510.506	184.8
510.713	181.7
510.92	174.34
511.126	200.88
511.333	213.48
511.54	185.19
511.746	264.63
511.953	229.36
512.16	181.12
512.367	142.76
512.573	154.77
512.78	186.74
512.987	150.51
513.193	191.97
513.4	102.27
513.606	147.99
513.813	188.87
514.02	180.73
514.226	238.86
514.433	209.8
514.639	154.19
514.846	166.98
515.052	151.87
515.259	187.13
515.465	162.91
515.672	156.9
515.878	264.82
516.085	173.37
516.291	185.19
516.497	148.57
516.704	163.49
516.91	108.08
517.117	143.34
517.323	123.19
517.529	194.3
517.736	149.73
517.942	186.16
518.148	169.3
518.354	202.43
518.561	171.63
518.767	191.78
518.973	220.65
519.179	205.34
519.386	155.74
519.592	140.63
519.798	176.47
520.004	195.65
520.21	152.83
520.417	188.68
520.623	198.56
520.829	210.57
521.035	211.35
521.241	217.74
521.447	210.18
521.653	309.58
521.859	185.38
522.065	216.19
522.271	271.6
522.477	248.35
522.683	232.85
522.889	232.66
523.095	246.8
523.301	197.4
523.507	197.78
523.713	216
523.919	155.55
524.125	224.33
524.331	194.88
524.537	256.68
524.742	211.15
524.948	246.03
525.154	244.86
525.36	308.61
525.566	225.88
525.772	302.21
525.977	190.03
526.183	235.95
526.389	256.88
526.595	229.36
526.8	243.51
527.006	216.19
527.212	204.37
527.417	240.99
527.623	219.1
527.829	238.28
528.034	262.11
528.24	228.2
528.446	179.96
528.651	255.33
528.857	235.18
529.062	283.42
529.268	220.65
529.473	243.12
529.679	225.88
529.884	280.51
530.09	250.48
530.295	296.59
530.501	245.45
530.706	245.83
530.912	195.46
531.117	237.89
531.323	233.24
531.528	264.05
531.733	278.58
531.939	211.54
532.144	249.9
532.35	225.88
532.555	281.68
532.76	264.63
532.966	300.66
533.171	280.9
533.376	268.31
533.581	226.07
533.787	262.69
533.992	261.53
534.197	313.06
534.402	275.86
534.607	251.65
534.813	377
535.018	228.98
535.223	260.95
535.428	264.43
535.633	282.84
535.838	272.76
536.043	242.35
536.249	319.84
536.454	271.02
536.659	267.34
536.864	262.11
537.069	265.6
537.274	290.78
537.479	280.32
537.684	310.54
537.889	242.15
538.094	364.99
538.299	277.99
538.504	301.05
538.708	288.26
538.913	258.62
539.118	253
539.323	274.12
539.528	255.13
539.733	238.08
539.938	322.75
540.142	330.31
540.347	296.01
540.552	271.02
540.757	309.58
540.962	265.01
541.166	241.76
541.371	240.02
541.576	279.16
541.781	161.55
541.985	283.42
542.19	303.96
542.395	316.16
542.599	321.59
542.804	304.73
543.008	341.54
543.213	243.12
543.418	260.95
543.622	344.26
543.827	267.73
544.031	304.34
544.236	336.31
544.44	276.25
544.645	345.03
544.849	254.55
545.054	315.78
545.258	367.7
545.463	334.96
545.667	273.93
545.872	295.24
546.076	299.11
546.281	308.61
546.485	267.15
546.689	308.22
546.894	328.76
547.098	296.79
547.302	238.47
547.507	291.75
547.711	292.53
547.915	339.99
548.119	269.08
548.324	287.49
548.528	355.11
548.732	298.34
548.936	312.09
549.141	348.91
549.345	304.34
549.549	319.07
549.753	290.59
549.957	401.41
550.161	342.71
550.366	304.73
550.57	268.5
550.774	285.55
550.978	290.98
551.182	321.2
551.386	263.66
551.59	280.9
551.794	284.97
551.998	313.06
552.202	290.01
552.406	242.35
552.61	290.2
552.814	301.24
553.018	389.98
553.222	294.08
553.426	284.78
553.63	346.58
553.833	311.13
554.037	269.86
554.241	334.76
554.445	293.69
554.649	308.61
554.853	258.43
555.056	326.43
555.26	332.44
555.464	304.93
555.668	290.39
555.871	335.54
556.075	352.39
556.279	306.48
556.483	273.15
556.686	291.75
556.89	313.26
557.094	338.83
557.297	277.61
557.501	348.52
557.704	276.45
557.908	366.54
558.112	264.05
558.315	404.32
558.519	289.04
558.722	320.43
558.926	288.46
559.129	262.5
559.333	264.82
559.536	273.93
559.74	240.6
559.943	290.01
560.147	244.28
560.35	296.98
560.553	291.36
560.757	210.38
560.96	335.34
561.164	286.33
561.367	331.66
561.57	276.25
561.774	312.29
561.977	299.69
562.18	274.51
562.384	360.34
562.587	292.33
562.79	269.47
562.993	297.37
563.197	325.46
563.4	360.92
563.603	339.8
563.806	400.64
564.009	275.09
564.212	325.08
564.416	265.6
564.619	315.78
564.822	263.85
565.025	325.08
565.228	261.91
565.431	293.11
565.634	230.33
565.837	275.67
566.04	258.04
566.243	280.32
566.446	231.69
566.649	323.14
566.852	217.93
567.055	261.72
567.258	330.31
567.461	353.75
567.664	347.16
567.867	225.68
568.07	300.66
568.273	283.03
568.475	315
568.678	302.02
568.881	278.19
569.084	325.27
569.287	222.2
569.489	248.74
569.692	307.06
569.895	298.34
570.098	266.56
570.3	241.76
570.503	184.8
570.706	238.08
570.909	263.85
571.111	209.8
571.314	241.18
571.516	273.15
571.719	268.5
571.922	239.83
572.124	231.69
572.327	274.51
572.529	222.97
572.732	207.66
572.935	256.88
573.137	289.43
573.34	234.79
573.542	282.06
573.745	269.08
573.947	277.61
574.15	253.58
574.352	199.91
574.554	318.68
574.757	215.8
574.959	255.91
575.162	234.4
575.364	216.77
575.566	316.55
575.769	229.95
575.971	257.07
576.173	178.22
576.376	211.54
576.578	256.3
576.78	329.73
576.982	200.3
577.185	231.11
577.387	206.5
577.589	187.52
577.791	248.55
577.993	252.42
578.196	209.99
578.398	280.9
578.6	284
578.802	209.6
579.004	232.66
579.206	218.51
579.408	244.48
579.61	214.25
579.812	247.58
580.014	208.05
580.216	203.4
580.418	229.95
580.62	204.37
580.822	168.53
581.024	221.81
581.226	253.58
581.428	213.67
581.63	281.87
581.832	204.37
582.034	276.83
582.236	222.58
582.438	263.85
582.64	265.21
582.841	285.55
583.043	313.45
583.245	257.46
583.447	241.38
583.649	231.11
583.85	236.92
584.052	293.3
584.254	221.42
584.456	283.03
584.657	202.43
584.859	225.88
585.061	226.65
585.262	201.27
585.464	186.55
585.666	229.56
585.867	225.1
586.069	291.17
586.27	246.22
586.472	245.06
586.674	202.82
586.875	229.36
587.077	242.35
587.278	224.33
587.48	229.56
587.681	314.42
587.883	239.25
588.084	182.09
588.285	211.73
588.487	241.18
588.688	231.88
588.89	183.83
589.091	185.97
589.292	225.88
589.494	230.53
589.695	244.67
589.896	172.79
590.098	176.67
590.299	247.58
590.5	150.9
590.702	199.33
590.903	208.44
591.104	264.05
591.305	208.83
591.507	282.64
591.708	247.96
591.909	206.5
592.11	290.39
592.311	215.8
592.512	220.84
592.714	148.57
592.915	185
593.116	178.22
593.317	201.66
593.518	203.01
593.719	218.51
593.92	239.83
594.121	236.73
594.322	213.28
594.523	190.03
594.724	193.33
594.925	198.75
595.126	235.56
595.327	223.75
595.528	219.87
595.729	223.94
595.929	222
596.13	208.83
596.331	222.97
596.532	230.72
596.733	262.88
596.934	237.7
597.135	238.08
597.335	226.65
597.536	181.51
597.737	229.95
597.938	206.5
598.138	215.22
598.339	219.68
598.54	219.1
598.74	204.95
598.941	221.23
599.142	248.16
599.342	235.95
599.543	191.78
599.744	214.25
599.944	200.3
600.145	166.01
600.345	204.95
600.546	267.34
600.746	265.4
600.947	263.85
601.147	232.85
601.348	228.01
601.548	172.21
601.749	203.4
601.949	198.56
602.15	197.78
602.35	210.57
602.551	279.93
602.751	184.42
602.951	227.43
603.152	148.38
603.352	240.8
603.552	222.58
603.753	243.51
603.953	243.12
604.153	226.26
604.354	209.8
604.554	210.38
604.754	214.45
604.954	154.38
605.155	220.06
605.355	166.4
605.555	251.65
605.755	247.96
605.955	219.29
606.155	240.8
606.356	217.55
606.556	256.3
606.756	239.83
606.956	183.45
607.156	269.28
607.356	177.44
607.556	226.26
607.756	232.85
607.956	270.83
608.156	225.49
608.356	195.85
608.556	253.39
608.756	250.87
608.956	185.19
609.156	252.23
609.356	165.23
609.556	179.57
609.755	235.37
609.955	197.78
610.155	232.66
610.355	239.44
610.555	202.82
610.755	233.24
610.954	170.08
611.154	221.23
611.354	238.47
611.554	186.74
611.753	198.56
611.953	161.94
612.153	249.71
612.352	226.07
612.552	177.63
612.752	125.9
612.951	221.81
613.151	203.01
613.351	155.35
613.55	188.87
613.75	215.61
613.949	199.53
614.149	218.9
614.348	220.26
614.548	205.92
614.747	171.63
614.947	205.53
615.146	144.5
615.346	217.93
615.545	189.45
615.745	227.43
615.944	229.95
616.144	196.04
616.343	226.26
616.542	183.64
616.742	209.41
616.941	201.46
617.14	173.57
617.34	212.12
617.539	164.65
617.738	186.93
617.938	235.76
618.137	226.26
618.336	146.25
618.535	186.35
618.734	164.07
618.934	217.74
619.133	195.46
619.332	246.22
619.531	183.64
619.73	206.5
619.929	261.14
620.128	217.16
620.328	233.43
620.527	173.37
620.726	197.01
620.925	180.54
621.124	176.67
621.323	217.55
621.522	149.73
621.721	194.68
621.92	163.68
622.119	212.31
622.318	178.8
622.517	211.35
622.715	197.4
622.914	115.83
623.113	181.32
623.312	123.97
623.511	191
623.71	181.12
623.909	185.77
624.107	220.84
624.306	134.04
624.505	173.95
624.704	140.24
624.902	186.35
625.101	217.55
625.3	205.34
625.499	150.32
625.697	165.23
625.896	157.68
626.095	205.34
626.293	140.43
626.492	141.4
626.69	173.37
626.889	135.4
627.088	197.98
627.286	154.97
627.485	154.58
627.683	126.29
627.882	201.27
628.08	119.32
628.279	166.59
628.477	249.71
628.676	142.18
628.874	193.33
629.073	178.8
629.271	159.42
629.469	192.16
