Data from pine_FLMT105791__148__17-22-47-074.txt Node

Date: Mon Mar 20 17:22:47 GMT 2023
User: antho
Spectrometer: FLMT10579
Trigger mode: 0
Integration Time (sec): 1.000000E-1
Scans to average: 10
Electric dark correction enabled: true
Nonlinearity correction enabled: false
Boxcar width: 0
XAxis mode: Wavelengths
Number of Pixels in Spectrum: 3648
>>>>>Begin Spectral Data<<<<<
345.248	-149.57
345.464	-149.57
345.681	-149.57
345.898	-157.13
346.114	-149.57
346.331	-27.9
346.548	34.1
346.764	-3.29
346.981	-19.96
347.197	-10.46
347.414	25.77
347.631	-38.56
347.847	58.32
348.064	5.81
348.28	27.32
348.497	-50.57
348.713	-0.58
348.93	31.97
349.146	17.05
349.363	-0.58
349.579	14.53
349.796	16.86
350.012	-6.01
350.229	65.49
350.445	0.77
350.661	-1.55
350.878	9.11
351.094	32.36
351.311	29.45
351.527	5.04
351.743	2.71
351.96	27.32
352.176	26.93
352.392	46.69
352.609	44.17
352.825	-5.42
353.041	5.62
353.257	9.88
353.474	22.09
353.69	24.61
353.906	47.27
354.122	-5.23
354.339	74.59
354.555	18.99
354.771	-8.33
354.987	93
355.203	73.62
355.42	-21.31
355.636	8.52
355.852	-15.89
356.068	23.06
356.284	-30.61
356.5	70.91
356.716	31
356.932	29.45
357.148	32.94
357.364	8.52
357.58	45.34
357.796	89.32
358.012	43.79
358.228	26.54
358.444	-57.54
358.66	55.02
358.876	13.95
359.092	-13.37
359.308	29.64
359.524	26.93
359.74	-3.49
359.956	11.04
360.172	30.61
360.388	49.02
360.604	-2.13
360.819	72.85
361.035	4.84
361.251	59.09
361.467	3.87
361.683	42.82
361.898	19.57
362.114	50.18
362.33	18.02
362.546	43.01
362.762	-5.23
362.977	-6.59
363.193	-8.72
363.409	20.73
363.624	-14.72
363.84	14.14
364.056	-1.16
364.271	11.24
364.487	45.34
364.703	-14.92
364.918	-13.56
365.134	9.3
365.35	22.28
365.565	111.79
365.781	16.86
365.996	31.97
366.212	63.74
366.427	20.34
366.643	14.92
366.858	-18.6
367.074	6.39
367.289	65.1
367.505	104.43
367.72	12.01
367.936	22.86
368.151	45.14
368.367	42.82
368.582	9.11
368.798	22.86
369.013	63.74
369.228	51.54
369.444	46.11
369.659	42.04
369.874	-2.13
370.09	55.22
370.305	-39.91
370.52	12.4
370.736	78.86
370.951	16.47
371.166	69.17
371.381	78.47
371.597	59.67
371.812	1.36
372.027	-5.42
372.242	10.46
372.458	72.85
372.673	-2.91
372.888	30.42
373.103	42.24
373.318	97.26
373.533	12.79
373.749	50.18
373.964	-11.62
374.179	60.26
374.394	18.41
374.609	52.31
374.824	-16.66
375.039	61.61
375.254	-8.14
375.469	67.62
375.684	34.49
375.899	73.24
376.114	26.16
376.329	27.9
376.544	46.69
376.759	59.29
376.974	1.36
377.189	29.06
377.404	6.59
377.619	67.42
377.834	-21.51
378.049	-25.19
378.264	-26.35
378.478	37.59
378.693	7.56
378.908	55.02
379.123	13.37
379.338	54.44
379.553	12.4
379.767	39.14
379.982	28.87
380.197	62.77
380.412	9.49
380.626	45.53
380.841	114.5
381.056	47.47
381.271	76.34
381.485	12.79
381.7	14.34
381.915	36.42
382.129	11.04
382.344	37.59
382.559	24.02
382.773	61.42
382.988	-33.91
383.202	3.87
383.417	9.3
383.632	121.09
383.846	13.95
384.061	21.89
384.275	28.09
384.49	64.71
384.704	30.03
384.919	27.32
385.133	-1.55
385.348	28.87
385.562	6.2
385.777	69.56
385.991	25.57
386.206	29.45
386.42	7.75
386.634	62.97
386.849	55.02
387.063	9.88
387.277	-12.98
387.492	13.76
387.706	-15.5
387.92	-12.21
388.135	78.66
388.349	18.41
388.563	43.59
388.778	37.2
388.992	32.36
389.206	70.33
389.42	94.74
389.635	47.08
389.849	28.87
390.063	70.33
390.277	7.36
390.491	82.54
390.706	52.7
390.92	57.93
391.134	28.29
391.348	37.2
391.562	-44.76
391.776	31.77
391.99	-0.97
392.205	67.04
392.419	-37.97
392.633	34.68
392.847	79.44
393.061	-22.09
393.275	78.86
393.489	31.19
393.703	36.23
393.917	58.71
394.131	6.59
394.345	58.32
394.559	73.82
394.773	29.26
394.986	42.62
395.2	31.77
395.414	61.22
395.628	-2.71
395.842	39.72
396.056	27.32
396.27	-24.99
396.484	36.23
396.697	32.94
396.911	75.95
397.125	45.14
397.339	52.51
397.553	51.34
397.766	89.32
397.98	62.19
398.194	69.75
398.408	6.2
398.621	71.88
398.835	92.22
399.049	33.91
399.262	77.31
399.476	62
399.69	87.19
399.903	105.01
400.117	21.7
400.331	49.02
400.544	16.27
400.758	157.32
400.971	56.96
401.185	88.54
401.398	18.21
401.612	79.44
401.826	93.19
402.039	62
402.253	19.76
402.466	53.67
402.68	30.42
402.893	52.7
403.106	54.64
403.32	39.72
403.533	59.09
403.747	28.29
403.96	62.97
404.174	53.28
404.387	15.11
404.6	56.19
404.814	66.84
405.027	53.09
405.24	65.68
405.454	26.16
405.667	93.39
405.88	-29.45
406.094	74.59
406.307	74.21
406.52	73.43
406.733	10.66
406.947	-21.51
407.16	117.99
407.373	82.54
407.586	17.24
407.799	8.52
408.012	69.17
408.226	38.36
408.439	85.83
408.652	-8.72
408.865	43.21
409.078	102.1
409.291	74.79
409.504	-4.46
409.717	61.81
409.93	81.76
410.143	50.18
410.357	-13.37
410.57	25.19
410.783	13.37
410.996	51.92
411.209	41.46
411.421	83.51
411.634	47.47
411.847	18.02
412.06	49.21
412.273	46.69
412.486	33.32
412.699	131.75
412.912	37.59
413.125	60.84
413.338	51.34
413.55	76.72
413.763	81.57
413.976	51.15
414.189	33.91
414.402	40.88
414.615	100.17
414.827	14.53
415.04	88.15
415.253	54.83
415.466	84.67
415.678	92.22
415.891	31.19
416.104	78.47
416.316	66.65
416.529	17.05
416.742	70.14
416.954	88.54
417.167	23.64
417.38	27.32
417.592	107.34
417.805	33.13
418.017	18.21
418.23	76.92
418.442	17.05
418.655	54.25
418.868	51.92
419.08	107.53
419.293	97.65
419.505	82.73
419.718	84.67
419.93	99
420.142	40.11
420.355	110.82
420.567	124.58
420.78	70.33
420.992	52.12
421.205	119.74
421.417	22.86
421.629	27.12
421.842	23.83
422.054	10.85
422.266	117.8
422.479	65.87
422.691	24.41
422.903	105.79
423.115	62.39
423.328	50.18
423.54	80.21
423.752	56.57
423.964	49.41
424.177	74.79
424.389	64.13
424.601	137.17
424.813	63.36
425.025	80.6
425.238	86.22
425.45	65.68
425.662	60.45
425.874	335.57
426.086	76.72
426.298	91.84
426.51	69.36
426.722	78.08
426.934	46.69
427.146	77.11
427.358	30.42
427.57	104.43
427.782	77.69
427.994	80.21
428.206	39.72
428.418	12.21
428.63	78.47
428.842	101.33
429.054	43.4
429.266	128.26
429.478	50.37
429.69	72.46
429.902	33.71
430.114	74.21
430.325	59.48
430.537	55.41
430.749	64.71
430.961	19.57
431.173	74.21
431.384	105.4
431.596	19.76
431.808	49.79
432.02	89.32
432.231	73.82
432.443	99.2
432.655	74.79
432.867	54.83
433.078	74.98
433.29	120.12
433.502	94.35
433.713	102.69
433.925	59.29
434.136	122.84
434.348	44.76
434.56	0.58
434.771	167.4
434.983	30.22
435.194	74.21
435.406	72.46
435.617	102.49
435.829	144.54
436.04	102.1
436.252	106.17
436.463	148.99
436.675	121.29
436.886	84.09
437.098	114.31
437.309	117.41
437.521	86.61
437.732	113.15
437.943	95.13
438.155	89.7
438.366	18.6
438.578	142.79
438.789	106.56
439	132.52
439.211	103.46
439.423	113.34
439.634	116.64
439.845	123.42
440.057	126.9
440.268	118.96
440.479	41.07
440.69	89.9
440.902	105.79
441.113	87.96
441.324	92.61
441.535	111.4
441.746	163.14
441.957	59.87
442.168	96.87
442.38	127.29
442.591	148.8
442.802	66.46
443.013	89.32
443.224	119.15
443.435	76.72
443.646	97.84
443.857	86.41
444.068	58.9
444.279	79.24
444.49	158.87
444.701	107.53
444.912	211.77
445.123	130.97
445.334	133.69
445.545	136.59
445.756	118.38
445.967	99
446.178	113.54
446.388	155.58
446.599	148.41
446.81	155.77
447.021	107.34
447.232	160.42
447.443	156.94
447.653	104.82
447.864	145.7
448.075	103.07
448.286	142.4
448.496	143.76
448.707	173.4
448.918	115.28
449.129	192
449.339	108.89
449.55	143.18
449.761	105.98
449.971	187.16
450.182	125.35
450.393	173.21
450.603	99.97
450.814	153.45
451.024	134.27
451.235	158.49
451.446	169.53
451.656	197.23
451.867	119.93
452.077	142.4
452.288	186
452.498	176.12
452.709	136.98
452.919	155.58
453.13	113.73
453.34	171.27
453.55	97.45
453.761	148.8
453.971	150.74
454.182	183.48
454.392	171.47
454.602	219.9
454.813	167.59
455.023	189.48
455.233	112.18
455.444	142.99
455.654	92.22
455.864	148.6
456.075	126.71
456.285	137.56
456.495	161.59
456.705	152.87
456.916	200.92
457.126	217.19
457.336	171.08
457.546	81.76
457.756	144.73
457.967	201.88
458.177	109.47
458.387	135.62
458.597	135.82
458.807	148.22
459.017	160.42
459.227	158.1
459.437	164.49
459.647	206.92
459.857	178.05
460.068	170.89
460.278	179.22
460.488	164.49
460.698	222.62
460.908	161.39
461.117	117.41
461.327	144.54
461.537	134.07
461.747	168.17
461.957	167.98
462.167	254.2
462.377	197.43
462.587	176.7
462.797	182.51
463.007	167.01
463.216	214.67
463.426	188.13
463.636	181.93
463.846	127.87
464.056	164.1
464.265	223
464.475	134.46
464.685	172.44
464.895	191.03
465.104	181.54
465.314	206.53
465.524	169.14
465.733	159.65
465.943	266.21
466.153	228.62
466.362	218.35
466.572	173.21
466.782	159.45
466.991	184.45
467.201	271.25
467.41	133.49
467.62	208.08
467.829	154.42
468.039	189.87
468.249	177.86
468.458	166.82
468.668	200.92
468.877	204.4
469.086	221.45
469.296	223.97
469.505	171.66
469.715	255.75
469.924	194.33
470.134	220.1
470.343	235.98
470.552	180.77
470.762	199.56
470.971	192.58
471.18	198.2
471.39	190.26
471.599	153.84
471.808	234.24
472.018	159.45
472.227	214.09
472.436	237.15
472.645	188.71
472.855	175.73
473.064	242.77
473.273	205.76
473.482	227.46
473.691	235.02
473.901	256.91
474.11	222.03
474.319	314.65
474.528	253.81
474.737	267.56
474.946	239.28
475.155	231.92
475.364	267.95
475.573	235.79
475.783	222.62
475.992	248.19
476.201	236.57
476.41	191.23
476.619	169.34
476.828	244.9
477.037	218.93
477.245	225.13
477.454	252.84
477.663	199.17
477.872	206.73
478.081	288.3
478.29	176.12
478.499	318.71
478.708	235.79
478.917	292.17
479.125	240.05
479.334	254.97
479.543	248
479.752	248.38
479.961	236.18
480.169	290.04
480.378	234.24
480.587	360.56
480.796	302.83
481.004	260.59
481.213	287.52
481.422	274.35
481.63	261.17
481.839	294.69
482.048	332.08
482.256	293.53
482.465	277.83
482.674	295.27
482.882	306.51
483.091	343.51
483.299	308.83
483.508	310.77
483.716	295.85
483.925	311.16
484.134	270.28
484.342	267.76
484.551	298.37
484.759	316.58
484.967	291.78
485.176	321.43
485.384	325.69
485.593	332.28
485.801	310.77
486.01	292.17
486.218	296.05
486.426	235.98
486.635	280.35
486.843	298.37
487.051	307.28
487.26	283.06
487.468	315.81
487.676	327.43
487.885	271.44
488.093	323.36
488.301	319.49
488.509	326.08
488.717	339.83
488.926	311.93
489.134	309.8
489.342	334.02
489.55	307.86
489.758	332.86
489.967	277.06
490.175	411.13
490.383	313.87
490.591	363.08
490.799	277.45
491.007	351.26
491.215	366.96
491.423	335.38
491.631	342.74
491.839	315.61
492.047	357.08
492.255	324.53
492.463	270.28
492.671	330.92
492.879	379.36
493.087	318.71
493.295	373.16
493.503	368.12
493.711	396.6
493.919	399.7
494.127	380.52
494.334	406.09
494.542	337.31
494.75	371.22
494.958	335.38
495.166	419.85
495.374	371.41
495.581	402.22
495.789	401.64
495.997	437.09
496.205	350.88
496.412	371.61
496.62	394.66
496.828	367.54
497.035	392.34
497.243	408.42
497.451	363.08
497.658	395.83
497.866	360.18
498.074	458.99
498.281	383.04
498.489	442.52
498.696	421.79
498.904	364.24
499.112	390.01
499.319	436.9
499.527	379.36
499.734	415.2
499.942	337.51
500.149	375.87
500.357	413.26
500.564	349.13
500.771	396.79
500.979	349.91
501.186	378.97
501.394	419.85
501.601	403.38
501.808	424.31
502.016	385.94
502.223	407.45
502.43	401.44
502.638	424.69
502.845	382.26
503.052	470.03
503.26	411.71
503.467	493.28
503.674	403.38
503.881	434.19
504.089	476.81
504.296	455.5
504.503	383.62
504.71	434.19
504.917	359.01
505.125	449.69
505.332	396.21
505.539	440.58
505.746	486.89
505.953	478.56
506.16	450.46
506.367	491.92
506.574	495.61
506.781	499.48
506.988	409.78
507.195	465.19
507.402	433.8
507.609	452.01
507.816	430.89
508.023	463.06
508.23	446.59
508.437	415.98
508.644	488.24
508.851	518.08
509.058	478.56
509.265	468.29
509.472	500.06
509.679	530.87
509.885	445.04
510.092	464.61
510.299	445.81
510.506	492.12
510.713	473.52
510.92	485.72
511.126	526.41
511.333	523.51
511.54	507.42
511.746	531.25
511.953	549.47
512.16	563.61
512.367	466.93
512.573	464.99
512.78	521.76
512.987	520.02
513.193	499.29
513.4	429.34
513.606	494.44
513.813	515.76
514.02	509.56
514.226	559.74
514.433	529.9
514.639	483.59
514.846	561.48
515.052	492.89
515.259	515.17
515.465	517.11
515.672	509.17
515.878	614.37
516.085	510.14
516.291	543.65
516.497	514.4
516.704	534.16
516.91	476.04
517.117	491.15
517.323	415.98
517.529	467.12
517.736	493.28
517.942	491.73
518.148	493.47
518.354	486.31
518.561	509.36
518.767	518.08
518.973	547.53
519.179	552.76
519.386	511.88
519.592	506.84
519.798	502.58
520.004	590.15
520.21	531.84
520.417	567.1
520.623	611.66
520.829	606.24
521.035	596.16
521.241	592.29
521.447	606.43
521.653	691.1
521.859	589.19
522.065	588.02
522.271	677.73
522.477	644.4
522.683	656.61
522.889	648.47
523.095	655.25
523.301	605.65
523.507	595
523.713	658.16
523.919	593.84
524.125	657
524.331	628.52
524.537	696.91
524.742	647.89
524.948	664.55
525.154	672.69
525.36	757.75
525.566	664.36
525.772	725.97
525.977	618.83
526.183	712.8
526.389	716.28
526.595	678.5
526.8	675.02
527.006	626.97
527.212	604.69
527.417	597.9
527.623	607.4
527.829	660.68
528.034	686.83
528.24	646.34
528.446	642.47
528.651	740.7
528.857	673.08
529.062	760.85
529.268	687.03
529.473	683.73
529.679	677.34
529.884	790.88
530.09	693.23
530.295	749.8
530.501	764.14
530.706	743.8
530.912	681.8
531.117	752.71
531.323	714.54
531.528	748.64
531.733	750.19
531.939	712.8
532.144	772.28
532.35	753.68
532.555	774.99
532.76	768.4
532.966	789.52
533.171	725.2
533.376	719.77
533.581	700.2
533.787	732.75
533.992	743.99
534.197	786.23
534.402	740.31
534.607	726.16
534.813	867.02
535.018	752.32
535.223	739.34
535.428	771.5
535.633	836.99
535.838	789.71
536.043	759.49
536.249	841.25
536.454	746.31
536.659	805.79
536.864	753.48
537.069	779.25
537.274	805.02
537.479	811.03
537.684	811.41
537.889	744.38
538.094	867.6
538.299	778.48
538.504	806.38
538.708	791.07
538.913	832.34
539.118	792.23
539.323	860.24
539.528	774.8
539.733	789.52
539.938	804.83
540.142	848.23
540.347	806.96
540.552	799.59
540.757	813.93
540.962	779.45
541.166	743.21
541.371	754.45
541.576	777.9
541.781	719.38
541.985	819.16
542.19	799.59
542.395	853.26
542.599	869.73
542.804	841.44
543.008	861.98
543.213	819.55
543.418	783.32
543.622	840.86
543.827	805.99
544.031	866.83
544.236	856.56
544.44	850.74
544.645	917.59
544.849	803.08
545.054	848.23
545.258	906.35
545.463	915.84
545.667	829.63
545.872	860.63
546.076	836.41
546.281	841.64
546.485	805.02
546.689	875.16
546.894	907.51
547.098	854.43
547.302	811.61
547.507	844.35
547.711	853.65
547.915	916.62
548.119	822.65
548.324	829.43
548.528	870.7
548.732	864.89
548.936	886.97
549.141	898.41
549.345	794.94
549.549	883.49
549.753	848.42
549.957	927.86
550.161	931.73
550.366	866.24
550.57	822.46
550.774	856.17
550.978	825.36
551.182	871.28
551.386	844.54
551.59	837.76
551.794	833.69
551.998	901.51
552.202	832.53
552.406	802.69
552.61	821.68
552.814	856.36
553.018	935.02
553.222	857.33
553.426	883.49
553.63	921.07
553.833	827.69
554.037	829.82
554.241	858.49
554.445	865.08
554.649	839.31
554.853	829.04
555.056	877.48
555.26	874.77
555.464	857.14
555.668	875.93
555.871	896.08
556.075	903.44
556.279	834.08
556.483	825.94
556.686	840.09
556.89	862.37
557.094	858.11
557.297	833.5
557.501	914.1
557.704	822.07
557.908	911.97
558.112	826.33
558.315	881.94
558.519	864.89
558.722	860.24
558.926	854.43
559.129	769.18
559.333	792.23
559.536	812.38
559.74	807.93
559.943	793.2
560.147	782.16
560.35	798.04
560.553	795.91
560.757	756.2
560.96	879.42
561.164	783.13
561.367	883.29
561.57	806.96
561.774	827.88
561.977	814.51
562.18	787.97
562.384	886.2
562.587	805.99
562.79	775.38
562.993	830.01
563.197	834.66
563.4	897.63
563.603	847.26
563.806	928.05
564.009	768.4
564.212	855.39
564.416	731.59
564.619	838.34
564.822	756
565.025	864.69
565.228	773.63
565.431	804.24
565.634	713.96
565.837	764.72
566.04	784.87
566.243	773.44
566.446	695.55
566.649	806.57
566.852	724.61
567.055	787.19
567.258	821.88
567.461	866.63
567.664	813.93
567.867	711.44
568.07	782.74
568.273	815.09
568.475	828.08
568.678	779.06
568.881	762.78
569.084	789.71
569.287	690.9
569.489	734.69
569.692	785.26
569.895	785.45
570.098	719.77
570.3	725.97
570.503	647.31
570.706	675.79
570.909	691.29
571.111	679.47
571.314	680.25
571.516	693.62
571.719	717.25
571.922	690.52
572.124	680.63
572.327	704.27
572.529	666.1
572.732	649.63
572.935	717.83
573.137	763.75
573.34	692.65
573.542	750.77
573.745	731.2
573.947	723.45
574.15	697.1
574.352	697.3
574.554	749.41
574.757	660.48
574.959	681.22
575.162	653.7
575.364	657.58
575.566	776.73
575.769	639.37
575.971	677.15
576.173	584.34
576.376	646.34
576.578	691.68
576.78	730.81
576.982	593.06
577.185	653.51
577.387	643.82
577.589	610.11
577.791	668.62
577.993	686.45
578.196	650.8
578.398	699.43
578.6	707.56
578.802	613.79
579.004	608.56
579.206	616.12
579.408	664.17
579.61	651.18
579.812	687.8
580.014	638.98
580.216	641.11
580.418	624.64
580.62	616.5
580.822	606.62
581.024	655.64
581.226	698.46
581.428	624.64
581.63	742.44
581.832	619.6
582.034	700.4
582.236	666.3
582.438	684.51
582.64	686.06
582.841	700.98
583.043	744.38
583.245	667.27
583.447	684.7
583.649	663.2
583.85	665.91
584.052	705.05
584.254	628.32
584.456	700.4
584.657	601.2
584.859	666.68
585.061	648.86
585.262	625.61
585.464	627.55
585.666	705.24
585.867	629.68
586.069	704.66
586.27	670.37
586.472	675.02
586.674	609.92
586.875	623.48
587.077	617.47
587.278	665.33
587.48	638.59
587.681	726.94
587.883	641.11
588.084	582.02
588.285	617.67
588.487	616.12
588.688	652.35
588.89	602.36
589.091	587.64
589.292	603.14
589.494	565.94
589.695	590.74
589.896	521.76
590.098	497.93
590.299	589.77
590.5	545.79
590.702	586.09
590.903	548.5
591.104	630.84
591.305	576.4
591.507	625.42
591.708	586.09
591.909	599.65
592.11	649.83
592.311	625.03
592.512	600.81
592.714	551.21
592.915	576.2
593.116	587.05
593.317	577.37
593.518	566.52
593.719	572.52
593.92	624.83
594.121	642.27
594.322	605.46
594.523	609.53
594.724	532.42
594.925	550.44
595.126	606.04
595.327	628.9
595.528	578.14
595.729	600.04
595.929	592.09
596.13	575.82
596.331	585.31
596.532	613.21
596.733	642.08
596.934	611.27
597.135	603.33
597.335	619.8
597.536	583.18
597.737	598.68
597.938	566.32
598.138	595.97
598.339	599.84
598.54	598.68
598.74	597.71
598.941	588.6
599.142	645.95
599.342	626.77
599.543	538.42
599.744	573.69
599.944	568.45
600.145	571.55
600.345	576.79
600.546	660.48
600.746	644.6
600.947	638.98
601.147	609.72
601.348	632.58
601.548	563.42
601.749	604.49
601.949	547.92
602.15	569.04
602.35	585.31
602.551	631.42
602.751	570.97
602.951	569.62
603.152	522.34
603.352	600.04
603.552	577.56
603.753	629.1
603.953	608.75
604.153	578.14
604.354	592.87
604.554	579.3
604.754	577.56
604.954	554.5
605.155	586.67
605.355	598.29
605.555	651.96
605.755	641.88
605.955	608.17
606.155	615.73
606.356	573.49
606.556	659.9
606.756	602.55
606.956	526.99
607.156	618.25
607.356	526.22
607.556	582.79
607.756	596.94
607.956	632.39
608.156	590.54
608.356	538.62
608.556	600.62
608.756	563.03
608.956	576.79
609.156	559.93
609.356	560.9
609.556	546.56
609.755	576.2
609.955	526.22
610.155	589.77
610.355	597.52
610.555	545.59
610.755	559.15
610.954	511.11
611.154	550.82
611.354	610.89
611.554	544.82
611.753	532.61
611.953	510.91
612.153	586.47
612.352	547.34
612.552	517.89
612.752	471.97
612.951	550.44
613.151	565.94
613.351	517.31
613.55	532.22
613.75	547.92
613.949	526.41
614.149	558.96
614.348	535.13
614.548	512.27
614.747	495.02
614.947	515.17
615.146	461.7
615.346	558.57
615.545	566.52
615.745	532.42
615.944	559.74
616.144	541.91
616.343	534.94
616.542	516.53
616.742	521.37
616.941	527.96
617.14	458.79
617.34	524.09
617.539	524.47
617.738	491.15
617.938	569.42
618.137	509.94
618.336	491.34
618.535	507.42
618.734	518.66
618.934	528.93
619.133	504.71
619.332	564.58
619.531	459.57
619.73	519.82
619.929	553.73
620.128	513.04
620.328	573.69
620.527	504.52
620.726	518.86
620.925	520.02
621.124	488.44
621.323	521.37
621.522	466.74
621.721	478.36
621.92	434.96
622.119	530.48
622.318	483.79
622.517	486.69
622.715	488.63
622.914	483.79
623.113	470.03
623.312	454.34
623.511	502.77
623.71	470.03
623.909	444.65
624.107	520.6
624.306	447.75
624.505	480.3
624.704	475.26
624.902	458.99
625.101	523.7
625.3	496.77
625.499	458.02
625.697	462.28
625.896	470.03
626.095	513.62
626.293	425.66
626.492	440.19
626.69	515.17
626.889	419.27
