Data from pine_FLMT105791__49__17-20-23-079.txt Node

Date: Mon Mar 20 17:20:23 GMT 2023
User: antho
Spectrometer: FLMT10579
Trigger mode: 0
Integration Time (sec): 1.000000E-1
Scans to average: 10
Electric dark correction enabled: true
Nonlinearity correction enabled: false
Boxcar width: 0
XAxis mode: Wavelengths
Number of Pixels in Spectrum: 3648
>>>>>Begin Spectral Data<<<<<
345.248	-144.62
345.464	-144.62
345.681	-144.62
345.898	-164.18
346.114	-162.25
346.331	-53.55
346.548	22.01
346.764	-2.99
346.981	-8.41
347.197	15.42
347.414	12.71
347.631	-12.29
347.847	63.86
348.064	-16.16
348.28	16.97
348.497	-45.42
348.713	7.86
348.93	44.67
349.146	1.66
349.363	-1.24
349.579	39.25
349.796	-25.66
350.012	4.18
350.229	18.33
350.445	20.84
350.661	-12.29
350.878	11.93
351.094	21.43
351.311	34.02
351.527	26.85
351.743	3.79
351.96	50.1
352.176	51.46
352.392	37.31
352.609	43.51
352.825	21.62
353.041	21.62
353.257	13.29
353.474	4.76
353.69	34.41
353.906	21.62
354.122	-7.06
354.339	55.14
354.555	14.26
354.771	-2.99
354.987	52.42
355.203	52.81
355.42	18.13
355.636	-12.09
355.852	4.96
356.068	0.31
356.284	-33.79
356.5	59.98
356.716	35.18
356.932	13.48
357.148	56.11
357.364	0.89
357.58	60.56
357.796	59.21
358.012	60.56
358.228	35.18
358.444	-63.44
358.66	59.59
358.876	40.99
359.092	-2.79
359.308	13.29
359.524	28.98
359.74	21.81
359.956	-2.79
360.172	25.11
360.388	29.37
360.604	-10.16
360.819	82.65
361.035	38.47
361.251	51.65
361.467	-14.22
361.683	55.91
361.898	43.51
362.114	39.44
362.33	9.99
362.546	65.21
362.762	22.98
362.977	17.74
363.193	-25.66
363.409	30.92
363.624	-18.49
363.84	-0.08
364.056	10.38
364.271	13.68
364.487	60.76
364.703	-2.02
364.918	-40.96
365.134	-12.09
365.35	8.25
365.565	93.31
365.781	29.37
365.996	2.24
366.212	90.01
366.427	12.9
366.643	-7.64
366.858	0.31
367.074	-3.96
367.289	39.25
367.505	105.32
367.72	-35.54
367.936	1.86
368.151	59.98
368.367	29.37
368.582	17.16
368.798	2.05
369.013	67.54
369.228	26.85
369.444	2.05
369.659	49.71
369.874	-7.64
370.09	59.59
370.305	-49.68
370.52	10.19
370.736	65.41
370.951	17.74
371.166	51.84
371.381	85.94
371.597	17.36
371.812	-27.98
372.027	-5.7
372.242	21.81
372.458	73.93
372.673	15.03
372.888	14.06
373.103	20.46
373.318	93.69
373.533	43.32
373.749	14.64
373.964	-9.96
374.179	49.32
374.394	-24.69
374.609	87.3
374.824	-12.87
375.039	68.12
375.254	10.58
375.469	76.84
375.684	29.18
375.899	78.19
376.114	5.15
376.329	48.55
376.544	65.6
376.759	64.24
376.974	-20.62
377.189	0.5
377.404	1.47
377.619	65.6
377.834	-21.97
378.049	-11.51
378.264	-16.36
378.478	46.61
378.693	14.26
378.908	42.16
379.123	-11.71
379.338	79.55
379.553	38.28
379.767	28.21
379.982	38.09
380.197	43.32
380.412	16.58
380.626	24.33
380.841	107.06
381.056	9.8
381.271	94.47
381.485	-16.36
381.7	-9.38
381.915	47
382.129	0.5
382.344	55.33
382.559	31.5
382.773	54.94
382.988	-10.93
383.202	44.29
383.417	9.22
383.632	111.32
383.846	41.77
384.061	45.64
384.275	10.58
384.49	48.16
384.704	51.65
384.919	-2.21
385.133	17.94
385.348	49.91
385.562	-7.44
385.777	71.22
385.991	18.33
386.206	-7.06
386.42	13.87
386.634	71.99
386.849	42.54
387.063	43.51
387.277	-7.25
387.492	11.54
387.706	-4.54
387.92	0.11
388.135	49.32
388.349	45.64
388.563	34.02
388.778	15.23
388.992	43.12
389.206	82.46
389.42	120.43
389.635	2.83
389.849	37.31
390.063	52.23
390.277	20.07
390.491	100.67
390.706	46.03
390.92	41.96
391.134	18.71
391.348	42.54
391.562	-30.5
391.776	25.88
391.99	4.96
392.205	54.75
392.419	-3.76
392.633	10.58
392.847	94.47
393.061	10.38
393.275	80.52
393.489	40.02
393.703	27.82
393.917	77.61
394.131	-4.34
394.345	69.47
394.559	68.51
394.773	16.78
394.986	10.77
395.2	13.09
395.414	47
395.628	-7.06
395.842	52.23
396.056	29.95
396.27	-28.56
396.484	16.97
396.697	36.15
396.911	85.36
397.125	26.66
397.339	81.29
397.553	51.46
397.766	101.44
397.98	87.11
398.194	79.36
398.408	2.44
398.621	28.21
398.835	75.87
399.049	61.92
399.262	82.07
399.476	80.91
399.69	50.68
399.903	94.27
400.117	35.76
400.331	38.47
400.544	17.94
400.758	153.95
400.971	54.94
401.185	84.2
401.398	13.68
401.612	90.01
401.826	75.29
402.039	72.38
402.253	42.16
402.466	79.94
402.68	28.4
402.893	46.22
403.106	41.77
403.32	33.05
403.533	67.54
403.747	39.83
403.96	35.38
404.174	90.4
404.387	21.43
404.6	41.77
404.814	87.11
405.027	32.08
405.24	41.19
405.454	33.83
405.667	81.68
405.88	-19.26
406.094	60.95
406.307	89.82
406.52	40.02
406.733	30.14
406.947	22.39
407.16	102.41
407.373	99.51
407.586	10.38
407.799	22.39
408.012	85.75
408.226	61.72
408.439	88.85
408.652	10.58
408.865	73.74
409.078	74.32
409.291	65.79
409.504	8.06
409.717	37.89
409.93	80.52
410.143	55.33
410.357	2.83
410.57	12.9
410.783	55.91
410.996	74.51
411.209	53.59
411.421	82.46
411.634	38.09
411.847	2.44
412.06	56.3
412.273	64.44
412.486	62.69
412.699	148.33
412.912	60.76
413.125	81.68
413.338	47.39
413.55	55.52
413.763	75.48
413.976	78.97
414.189	50.29
414.402	31.89
414.615	91.56
414.827	23.75
415.04	83.23
415.253	68.51
415.466	68.89
415.678	102.41
415.891	57.07
416.104	64.24
416.316	46.61
416.529	26.46
416.742	51.07
416.954	83.42
417.167	75.09
417.38	58.43
417.592	83.62
417.805	41.57
418.017	15.03
418.23	78.97
418.442	39.64
418.655	39.44
418.868	73.16
419.08	115.78
419.293	99.51
419.505	90.98
419.718	83.23
419.93	84.01
420.142	46.81
420.355	94.47
420.567	97.18
420.78	94.27
420.992	59.79
421.205	117.52
421.417	24.14
421.629	70.64
421.842	18.91
422.054	23.36
422.266	94.47
422.479	125.47
422.691	52.42
422.903	98.92
423.115	45.06
423.328	79.55
423.54	71.8
423.752	69.67
423.964	59.01
424.177	78.39
424.389	93.89
424.601	184.56
424.813	90.4
425.025	112.49
425.238	111.32
425.45	60.37
425.662	71.99
425.874	389.74
426.086	76.06
426.298	103.57
426.51	106.48
426.722	83.04
426.934	65.02
427.146	102.41
427.358	39.64
427.57	116.94
427.782	85.17
427.994	71.8
428.206	71.8
428.418	32.86
428.63	100.47
428.842	128.37
429.054	96.02
429.266	140.39
429.478	52.81
429.69	80.71
429.902	70.25
430.114	113.46
430.325	108.42
430.537	48.36
430.749	70.44
430.961	57.66
431.173	81.49
431.384	107.45
431.596	17.36
431.808	70.06
432.02	103.96
432.231	99.7
432.443	126.24
432.655	96.21
432.867	56.11
433.078	122.17
433.29	149.3
433.502	146.59
433.713	129.92
433.925	112.1
434.136	132.64
434.348	96.02
434.56	70.25
434.771	187.47
434.983	61.53
435.194	68.12
435.406	78
435.617	153.95
435.829	166.15
436.04	137.48
436.252	130.7
436.463	177.78
436.675	120.62
436.886	111.91
437.098	128.76
437.309	163.64
437.521	117.33
437.732	115.01
437.943	127.21
438.155	141.35
438.366	62.89
438.578	169.45
438.789	121.79
439	133.99
439.211	115.59
439.423	123.14
439.634	156.66
439.845	143.68
440.057	154.53
440.268	159.95
440.479	117.91
440.69	127.79
440.902	121.4
441.113	112.49
441.324	118.11
441.535	130.12
441.746	192.5
441.957	90.79
442.168	126.82
442.38	173.52
442.591	168.29
442.802	112.49
443.013	122.37
443.224	149.3
443.435	98.34
443.646	134.38
443.857	147.75
444.068	113.84
444.279	106.09
444.49	223.5
444.701	155.11
444.912	224.67
445.123	192.89
445.334	187.66
445.545	148.33
445.756	155.89
445.967	139.61
446.178	180.88
446.388	211.49
446.599	202.19
446.81	207.23
447.021	174.49
447.232	197.35
447.443	207.42
447.653	155.5
447.864	188.82
448.075	159.18
448.286	211.3
448.496	187.27
448.707	201.61
448.918	154.34
449.129	252.95
449.339	151.43
449.55	188.44
449.761	160.92
449.971	233.38
450.182	167.51
450.393	178.17
450.603	172.94
450.814	233
451.024	201.42
451.235	204.9
451.446	245.4
451.656	230.48
451.867	178.17
452.077	217.69
452.288	244.62
452.498	245.78
452.709	170.42
452.919	217.5
453.13	151.24
453.34	232.8
453.55	157.82
453.761	221.57
453.971	234.35
454.182	230.67
454.392	220.02
454.602	269.23
454.813	233
455.023	264.58
455.233	159.37
455.444	205.87
455.654	157.44
455.864	192.5
456.075	192.7
456.285	189.21
456.495	204.32
456.705	233.58
456.916	254.89
457.126	274.27
457.336	207.04
457.546	151.62
457.756	168.67
457.967	253.53
458.177	185.34
458.387	214.98
458.597	210.91
458.807	221.76
459.017	209.75
459.227	216.33
459.437	178.75
459.647	245.01
459.857	244.43
460.068	198.51
460.278	260.7
460.488	234.74
460.698	296.93
460.908	200.45
461.117	165.77
461.327	163.05
461.537	206.07
461.747	211.49
461.957	222.73
462.167	301.78
462.377	247.53
462.587	237.26
462.797	270.2
463.007	222.34
463.216	250.05
463.426	274.46
463.636	266.13
463.846	207.81
464.056	199.67
464.265	253.15
464.475	210.33
464.685	240.36
464.895	261.87
465.104	243.07
465.314	273.68
465.524	197.15
465.733	223.31
465.943	287.44
466.153	294.03
466.362	276.4
466.572	255.47
466.782	243.46
466.991	241.91
467.201	296.35
467.41	216.14
467.62	268.65
467.829	233.38
468.039	280.27
468.249	247.72
468.458	265.55
468.668	305.07
468.877	277.37
469.086	333.16
469.296	321.73
469.505	228.93
469.715	324.25
469.924	326.77
470.134	344.21
470.343	318.25
470.552	266.52
470.762	268.65
470.971	242.68
471.18	238.23
471.39	284.73
471.599	218.66
471.808	309.53
472.018	249.08
472.227	307.01
472.436	328.51
472.645	268.07
472.855	253.53
473.064	319.8
473.273	301.2
473.482	333.55
473.691	338.98
473.901	333.75
474.11	289.96
474.319	370.56
474.528	322.12
474.737	378.11
474.946	318.05
475.155	312.63
475.364	356.61
475.573	314.76
475.783	327.16
475.992	330.45
476.201	369.01
476.41	324.83
476.619	303.13
476.828	300.03
477.037	286.08
477.245	324.06
477.454	350.8
477.663	337.04
477.872	315.34
478.081	365.33
478.29	306.04
478.499	418.61
478.708	330.06
478.917	414.93
479.125	382.18
479.334	370.75
479.543	329.68
479.752	372.3
479.961	369.59
480.169	383.15
480.378	358.74
480.587	481.19
480.796	401.56
481.004	362.81
481.213	425.78
481.422	376.37
481.63	344.6
481.839	414.34
482.048	442.63
482.256	384.31
482.465	410.28
482.674	426.94
482.882	416.28
483.091	470.34
483.299	463.17
483.508	394.97
483.716	417.44
483.925	429.84
484.134	397.68
484.342	398.65
484.551	456.58
484.759	438.37
484.967	432.17
485.176	463.94
485.384	433.14
485.593	472.66
485.801	447.28
486.01	448.44
486.218	432.56
486.426	371.14
486.635	418.22
486.843	421.13
487.051	388.58
487.26	387.8
487.468	413.38
487.676	447.28
487.885	392.06
488.093	418.61
488.301	435.46
488.509	441.47
488.717	459.29
488.926	407.18
489.134	425.19
489.342	451.16
489.55	423.06
489.758	443.41
489.967	410.28
490.175	564.5
490.383	439.53
490.591	540.86
490.799	442.05
491.007	528.46
491.215	439.53
491.423	468.79
491.631	479.06
491.839	483.9
492.047	508.12
492.255	450.19
492.463	403.11
492.671	467.63
492.879	486.22
493.087	479.25
493.295	496.49
493.503	493.39
493.711	493.01
493.919	535.63
494.127	509.67
494.334	569.73
494.542	470.34
494.75	529.82
494.958	514.32
495.166	577.09
495.374	524.01
495.581	536.21
495.789	526.14
495.997	576.32
496.205	523.81
496.412	526.14
496.62	516.06
496.828	545.9
497.035	505.99
497.243	554.81
497.451	560.04
497.658	551.32
497.866	540.86
498.074	583.1
498.281	545.12
498.489	603.44
498.696	567.79
498.904	513.16
499.112	526.52
499.319	606.54
499.527	560.04
499.734	611.39
499.942	500.76
500.149	505.6
500.357	547.45
500.564	520.91
500.771	578.64
500.979	524.01
501.186	541.64
501.394	567.02
501.601	549.58
501.808	582.13
502.016	544.74
502.223	534.47
502.43	584.45
502.638	549.39
502.845	535.24
503.052	628.44
503.26	564.5
503.467	662.53
503.674	575.35
503.881	592.59
504.089	658.08
504.296	614.68
504.503	561.2
504.71	621.07
504.917	584.84
505.125	604.99
505.332	594.72
505.539	607.51
505.746	661.37
505.953	632.12
506.16	607.7
506.367	671.45
506.574	679.97
506.781	657.3
506.988	600.73
507.195	630.57
507.402	611.97
507.609	663.7
507.816	599.95
508.023	602.86
508.23	614.29
508.437	578.06
508.644	656.72
508.851	695.08
509.058	696.44
509.265	633.47
509.472	665.05
509.679	732.48
509.885	647.62
510.092	654.78
510.299	638.9
510.506	635.02
510.713	666.8
510.92	646.84
511.126	704.38
511.333	689.85
511.54	726.08
511.746	750.88
511.953	725.12
512.16	746.62
512.367	685.98
512.573	686.17
512.78	700.12
512.987	711.75
513.193	716.98
513.4	659.82
513.606	658.66
513.813	725.89
514.02	714.46
514.226	769.29
514.433	728.02
514.639	665.63
514.846	708.65
515.052	701.28
515.259	701.48
515.465	722.98
515.672	732.87
515.878	810.56
516.085	731.9
516.291	796.03
516.497	732.09
516.704	719.3
516.91	664.47
517.117	677.26
517.323	623.59
517.529	681.13
517.736	714.85
517.942	690.63
518.148	689.08
518.354	715.82
518.561	701.09
518.767	737.32
518.973	734.61
519.179	761.15
519.386	717.56
519.592	735.96
519.798	743.13
520.004	825.48
520.21	742.36
520.417	823.34
520.623	809.2
520.829	824.31
521.035	826.06
521.241	802.81
521.447	833.42
521.653	895.81
521.859	847.95
522.065	833.61
522.271	938.62
522.477	859.19
522.683	889.61
522.889	864.81
523.095	915.76
523.301	826.06
523.507	838.84
523.713	866.94
523.919	834.39
524.125	916.34
524.331	871.01
524.537	974.86
524.742	924.09
524.948	932.04
525.154	922.74
525.36	1025.62
525.566	949.09
525.772	997.72
525.977	889.61
526.183	961.1
526.389	967.11
526.595	904.33
526.8	913.24
527.006	869.65
527.212	829.16
527.417	836.13
527.623	857.64
527.829	947.92
528.034	922.35
528.24	934.75
528.446	921.77
528.651	961.49
528.857	966.33
529.062	1022.52
529.268	952.19
529.473	982.99
529.679	980.28
529.884	1052.16
530.09	1031.24
530.295	1040.73
530.501	1033.95
530.706	1011.86
530.912	978.15
531.117	1001.01
531.323	1024.84
531.528	1052.35
531.733	1064.56
531.939	1001.79
532.144	1040.92
532.35	1022.52
532.555	1049.25
532.76	1053.32
532.966	1044.99
533.171	1047.9
533.376	1003.14
533.581	986.29
533.787	1008.76
533.992	1032.4
534.197	1063.4
534.402	999.46
534.607	1053.9
534.813	1142.06
535.018	1023.87
535.223	1031.24
535.428	1076.38
535.633	1078.9
535.838	1070.18
536.043	1082.19
536.249	1160.66
536.454	1073.28
536.659	1072.12
536.864	1059.33
537.069	1071.73
537.274	1104.47
537.479	1130.05
537.684	1127.53
537.889	1054.29
538.094	1174.03
538.299	1098.66
538.504	1133.73
538.708	1152.52
538.913	1124.23
539.118	1095.75
539.323	1139.73
539.528	1101.76
539.733	1101.95
539.938	1151.94
540.142	1142.45
540.347	1102.34
540.552	1058.36
540.757	1086.65
540.962	1082
541.166	1054.49
541.371	1069.79
541.576	1092.07
541.781	985.32
541.985	1105.83
542.19	1114.16
542.395	1155.82
542.599	1195.73
542.804	1161.63
543.008	1186.62
543.213	1112.03
543.418	1094.4
543.622	1140.9
543.827	1085.48
544.031	1195.92
544.236	1171.12
544.44	1147.29
544.645	1243.2
544.849	1133.15
545.054	1188.75
545.258	1243.97
545.463	1162.79
545.667	1162.6
545.872	1176.35
546.076	1180.42
546.281	1177.9
546.485	1171.12
546.689	1181.2
546.894	1230.41
547.098	1170.73
547.302	1124.82
547.507	1152.72
547.711	1186.62
547.915	1204.64
548.119	1147.87
548.324	1181
548.528	1247.85
548.732	1187.4
548.936	1213.94
549.141	1230.02
549.345	1165.31
549.549	1209.48
549.753	1224.98
549.957	1279.81
550.161	1261.6
550.366	1199.6
550.57	1154.27
550.774	1198.44
550.978	1165.12
551.182	1211.81
551.386	1191.46
551.59	1183.13
551.794	1192.63
551.998	1219.75
552.202	1171.12
552.406	1116.48
552.61	1192.24
552.814	1190.3
553.018	1255.79
553.222	1189.72
553.426	1195.53
553.63	1275.74
553.833	1202.12
554.037	1143.03
554.241	1216.07
554.445	1229.44
554.649	1216.65
554.853	1162.4
555.056	1259.47
555.26	1234.67
555.464	1239.32
555.668	1231.38
555.871	1274.19
556.075	1243.78
556.279	1196.11
556.483	1162.6
556.686	1189.33
556.89	1207.35
557.094	1243.2
557.297	1146.9
557.501	1209.68
557.704	1128.69
557.908	1215.88
558.112	1177.51
558.315	1255.21
558.519	1168.6
558.722	1171.9
558.926	1130.63
559.129	1097.11
559.333	1105.83
559.536	1141.87
559.74	1110.09
559.943	1128.69
560.147	1094.2
560.35	1130.43
560.553	1125.98
560.757	1075.8
560.96	1207.93
561.164	1141.48
561.367	1171.12
561.57	1148.26
561.774	1185.26
561.977	1156.01
562.18	1122.88
562.384	1190.5
562.587	1128.11
562.79	1142.25
562.993	1120.36
563.197	1137.99
563.4	1203.86
563.603	1199.21
563.806	1216.26
564.009	1082.77
564.212	1134.89
564.416	1060.3
564.619	1163.76
564.822	1082.19
565.025	1149.81
565.228	1130.63
565.431	1137.02
565.634	1032.4
565.837	1089.75
566.04	1065.34
566.243	1071.92
566.446	978.54
566.649	1119.78
566.852	1043.44
567.055	1056.81
567.258	1095.17
567.461	1154.07
567.664	1119
567.867	1028.14
568.07	1101.95
568.273	1086.26
568.475	1110.87
568.678	1042.47
568.881	1057.39
569.084	1084.32
569.287	979.31
569.489	976.6
569.692	1069.79
569.895	1056.23
570.098	997.91
570.3	996.94
570.503	958.77
570.706	983.57
570.909	972.72
571.111	953.93
571.314	957.42
571.516	953.35
571.719	1007.79
571.922	955.87
572.124	973.31
572.327	995.2
572.529	945.41
572.732	957.42
572.935	980.67
573.137	1048.87
573.34	955.48
573.542	1023.68
573.745	994.04
573.947	1017.09
574.15	973.69
574.352	943.47
574.554	1017.29
574.757	942.89
574.959	954.32
575.162	938.24
575.364	938.04
575.566	1025.23
575.769	910.53
575.971	942.5
576.173	861.13
576.376	924.67
576.578	960.91
576.78	1003.53
576.982	835.55
577.185	914.21
577.387	902.78
577.589	923.51
577.791	951.02
577.993	938.24
578.196	905.88
578.398	958.77
578.6	961.49
578.802	883.02
579.004	878.76
579.206	871.39
579.408	925.84
579.61	910.34
579.812	945.41
580.014	904.14
580.216	893.09
580.418	895.81
580.62	870.62
580.822	843.88
581.024	927.97
581.226	933.39
581.428	899.49
581.63	995.01
581.832	903.75
582.034	939.01
582.236	886.7
582.438	962.84
582.64	962.84
582.841	988.61
583.043	1020.39
583.245	948.31
583.447	971.37
583.649	922.93
583.85	924.48
584.052	977.57
584.254	891.35
584.456	943.66
584.657	855.12
584.859	906.08
585.061	924.87
585.262	879.73
585.464	846.79
585.666	941.72
585.867	877.98
586.069	973.11
586.27	891.16
586.472	922.74
586.674	865.19
586.875	883.79
587.077	892.32
587.278	919.64
587.48	864.81
587.681	1016.32
587.883	922.93
588.084	824.12
588.285	855.89
588.487	827.8
588.688	863.64
588.89	808.62
589.091	805.33
589.292	822.76
589.494	786.92
589.695	790.02
589.896	731.7
590.098	735.77
590.299	823.34
590.5	762.7
590.702	731.9
590.903	785.76
591.104	853.57
591.305	788.28
591.507	844.27
591.708	846.21
591.909	793.7
592.11	860.35
592.311	856.28
592.512	806.1
592.714	796.03
592.915	808.62
593.116	811.91
593.317	823.54
593.518	821.21
593.719	807.07
593.92	852.21
594.121	875.27
594.322	844.85
594.523	821.99
594.724	784.01
594.925	801.45
595.126	838.26
595.327	849.11
595.528	828.38
595.729	797
595.929	819.28
596.13	817.34
596.331	811.14
596.532	841.94
596.733	868.1
596.934	827.41
597.135	873.14
597.335	823.93
597.536	806.1
597.737	825.09
597.938	821.02
598.138	846.59
598.339	828.19
598.54	812.11
598.74	803.97
598.941	812.69
599.142	850.86
599.342	820.44
599.543	796.8
599.744	779.36
599.944	819.47
600.145	800.1
600.345	829.35
600.546	889.22
600.746	875.66
600.947	917.89
601.147	810.75
601.348	890.19
601.548	772.58
601.749	806.49
601.949	763.09
602.15	800.29
602.35	809.01
602.551	876.43
602.751	749.53
602.951	777.04
603.152	745.65
603.352	829.74
603.552	823.93
603.753	850.86
603.953	831.29
604.153	797.38
604.354	799.32
604.554	841.94
604.754	823.15
604.954	784.01
605.155	832.84
605.355	812.88
605.555	866.74
605.755	871.78
605.955	796.03
606.155	872.75
606.356	782.85
606.556	813.66
606.756	809.4
606.956	745.07
607.156	839.81
607.356	759.02
607.556	843.11
607.756	811.91
607.956	830.13
608.156	824.51
608.356	756.5
608.556	845.04
608.756	808.04
608.956	802.42
609.156	800.87
609.356	741.2
609.556	754.76
609.755	781.88
609.955	731.12
610.155	786.15
610.355	769.1
610.555	746.23
610.755	791.57
610.954	723.76
611.154	751.66
611.354	819.86
611.554	752.43
611.753	747.98
611.953	719.3
612.153	798.74
612.352	822.18
612.552	701.09
612.752	711.17
612.951	761.35
613.151	759.02
613.351	688.88
613.55	742.55
613.75	771.42
613.949	727.44
614.149	728.6
614.348	759.99
614.548	735.58
614.747	681.33
614.947	727.44
615.146	650.33
615.346	737.9
615.545	723.95
615.745	719.69
615.944	758.83
616.144	754.37
616.343	734.22
616.542	677.65
616.742	698.96
616.941	706.52
617.14	682.1
617.34	734.8
617.539	720.27
617.738	704.77
617.938	771.42
618.137	725.5
618.336	666.41
618.535	735.19
618.734	705.16
618.934	742.55
619.133	712.33
619.332	742.16
619.531	678.23
619.73	704.58
619.929	728.6
620.128	708.84
620.328	789.44
620.527	687.33
620.726	683.07
620.925	733.83
621.124	689.47
621.323	690.05
621.522	642
621.721	668.35
621.92	635.8
622.119	737.71
622.318	680.36
622.517	667.57
622.715	665.44
622.914	636.96
623.113	662.53
623.312	598.6
623.511	714.27
623.71	651.3
