Data from pine_FLMT105791__6__17-19-40-080.txt Node

Date: Mon Mar 20 17:19:40 GMT 2023
User: antho
Spectrometer: FLMT10579
Trigger mode: 0
Integration Time (sec): 1.000000E-1
Scans to average: 10
Electric dark correction enabled: true
Nonlinearity correction enabled: false
Boxcar width: 0
XAxis mode: Wavelengths
Number of Pixels in Spectrum: 3648
>>>>>Begin Spectral Data<<<<<
345.248	-186.5
345.464	-186.5
345.681	-186.5
345.898	-175.45
346.114	-169.84
346.331	-34.41
346.548	27.59
346.764	-22.59
346.981	8.61
347.197	-23.17
347.414	33.02
347.631	-23.36
347.847	57.62
348.064	11.9
348.28	10.35
348.497	-26.08
348.713	-19.49
348.93	35.73
349.146	39.02
349.363	3.76
349.579	2.79
349.796	-5.34
350.012	-17.16
350.229	21.01
350.445	18.49
350.661	-7.67
350.878	14.61
351.094	9.57
351.311	5.51
351.527	41.16
351.743	-18.91
351.96	24.88
352.176	38.25
352.392	30.89
352.609	26.24
352.825	-21.43
353.041	-8.06
353.257	0.47
353.474	14.81
353.69	-0.11
353.906	22.94
354.122	-26.66
354.339	51.23
354.555	-3.6
354.771	10.93
354.987	29.53
355.203	63.05
355.42	-27.24
355.636	-22.59
355.852	-2.63
356.068	13.26
356.284	-36.15
356.5	54.14
356.716	7.44
356.932	-16.78
357.148	8.8
357.364	13.84
357.58	51.62
357.796	54.14
358.012	29.72
358.228	38.25
358.444	-70.25
358.66	68.28
358.876	21.01
359.092	-39.25
359.308	20.04
359.524	58.98
359.74	-8.44
359.956	-7.67
360.172	-12.51
360.388	42.12
360.604	-2.05
360.819	58.01
361.035	19.46
361.251	42.12
361.467	3.18
361.683	43.48
361.898	22.94
362.114	35.92
362.33	9.19
362.546	38.83
362.762	-13.48
362.977	10.74
363.193	-45.26
363.409	52.97
363.624	-30.34
363.84	-13.48
364.056	1.05
364.271	34.57
364.487	3.76
364.703	-17.94
364.918	-27.63
365.134	-18.33
365.35	-1.28
365.565	94.63
365.781	24.69
365.996	45.42
366.212	82.81
366.427	3.57
366.643	-30.34
366.858	6.47
367.074	-40.41
367.289	46.19
367.505	94.82
367.72	-53.39
367.936	-0.31
368.151	14.61
368.367	17.13
368.582	20.23
368.798	-13.87
369.013	58.01
369.228	34.37
369.444	0.08
369.659	95.21
369.874	33.41
370.09	48.13
370.305	-84.59
370.52	-13.48
370.736	52.2
370.951	23.91
371.166	32.05
371.381	70.8
371.597	45.42
371.812	-46.61
372.027	-35.38
372.242	10.54
372.458	59.56
372.673	1.24
372.888	-5.73
373.103	26.43
373.318	95.79
373.533	40.96
373.749	42.12
373.964	-35.38
374.179	52.78
374.394	-35.18
374.609	58.01
374.824	-22.39
375.039	24.49
375.254	0.86
375.469	64.21
375.684	21.78
375.899	38.64
376.114	10.16
376.329	38.64
376.544	41.54
376.759	40.38
376.974	-17.74
377.189	-14.64
377.404	-5.93
377.619	45.03
377.834	-20.65
378.049	-28.98
378.264	-29.56
378.478	20.04
378.693	-25.69
378.908	12.67
379.123	-0.11
379.338	57.43
379.553	17.91
379.767	11.71
379.982	41.74
380.197	35.92
380.412	15.19
380.626	27.79
380.841	87.46
381.056	33.99
381.271	73.51
381.485	9.38
381.7	-11.35
381.915	22.94
382.129	20.81
382.344	34.96
382.559	11.9
382.773	52.2
382.988	-22.59
383.202	8.22
383.417	5.31
383.632	96.57
383.846	14.42
384.061	24.69
384.275	7.64
384.49	22.75
384.704	28.95
384.919	5.31
385.133	23.72
385.348	16.36
385.562	-30.14
385.777	38.25
385.991	14.03
386.206	-2.44
386.42	7.06
386.634	61.89
386.849	25.07
387.063	10.35
387.277	10.35
387.492	5.51
387.706	-7.09
387.92	-18.71
388.135	46.97
388.349	11.12
388.563	26.43
388.778	31.08
388.992	35.92
389.206	56.85
389.42	92.3
389.635	11.71
389.849	25.07
390.063	49.49
390.277	39.02
390.491	89.79
390.706	33.79
390.92	34.37
391.134	27.01
391.348	31.27
391.562	-30.92
391.776	1.82
391.99	7.06
392.205	49.49
392.419	-6.51
392.633	44.26
392.847	82.62
393.061	6.28
393.275	80.87
393.489	10.93
393.703	32.24
393.917	59.95
394.131	8.61
394.345	18.49
394.559	50.46
394.773	7.64
394.986	39.02
395.2	26.04
395.414	47.94
395.628	-35.57
395.842	27.59
396.056	18.49
396.27	-33.44
396.484	20.23
396.697	28.17
396.911	57.62
397.125	44.84
397.339	59.37
397.553	43.67
397.766	91.92
397.98	59.95
398.194	83.78
398.408	-10.77
398.621	-0.69
398.835	54.33
399.049	40.57
399.262	68.09
399.476	60.34
399.69	51.62
399.903	69.44
400.117	32.63
400.331	73.9
400.544	25.27
400.758	119.04
400.971	40.96
401.185	79.13
401.398	-2.24
401.612	83
401.826	45.22
402.039	69.64
402.253	-2.63
402.466	50.65
402.68	30.5
402.893	46.77
403.106	38.83
403.32	24.3
403.533	72.15
403.747	31.66
403.96	36.31
404.174	53.75
404.387	-3.6
404.6	39.02
404.814	60.72
405.027	42.9
405.24	42.32
405.454	-11.16
405.667	74.87
405.88	-28.98
406.094	66.34
406.307	59.17
406.52	59.56
406.733	15.39
406.947	-7.67
407.16	107.42
407.373	94.24
407.586	12.29
407.799	-0.5
408.012	69.44
408.226	49.87
408.439	78.16
408.652	-11.16
408.865	59.95
409.078	66.73
409.291	62.85
409.504	19.07
409.717	62.47
409.93	75.06
410.143	58.79
410.357	-16
410.57	-0.31
410.783	32.63
410.996	54.14
411.209	57.24
411.421	91.72
411.634	27.01
411.847	4.92
412.06	42.9
412.273	4.54
412.486	54.91
412.699	120.59
412.912	39.61
413.125	59.37
413.338	27.59
413.55	84.94
413.763	46
413.976	84.94
414.189	23.14
414.402	35.34
414.615	92.11
414.827	28.17
415.04	58.01
415.253	52.2
415.466	73.9
415.678	122.53
415.891	59.95
416.104	55.69
416.316	76.03
416.529	31.86
416.742	69.83
416.954	83.78
417.167	46.19
417.38	6.86
417.592	93.27
417.805	21.2
418.017	-10.38
418.23	76.42
418.442	39.02
418.655	42.71
418.868	63.82
419.08	90.56
419.293	106.45
419.505	76.8
419.718	80.87
419.93	96.18
420.142	64.02
420.355	99.86
420.567	106.25
420.78	104.32
420.992	56.65
421.205	144.81
421.417	8.41
421.629	24.11
421.842	17.52
422.054	3.76
422.266	94.82
422.479	63.82
422.691	51.42
422.903	91.34
423.115	39.99
423.328	58.2
423.54	42.9
423.752	59.37
423.964	45.22
424.177	73.12
424.389	57.04
424.601	160.31
424.813	70.6
425.025	93.08
425.238	60.92
425.45	56.27
425.662	67.31
425.874	360.64
426.086	61.89
426.298	84.55
426.51	89.79
426.722	79.13
426.934	45.61
427.146	85.14
427.358	36.12
427.57	101.22
427.782	64.99
427.994	45.61
428.206	62.85
428.418	45.81
428.63	66.54
428.842	115.17
429.054	67.5
429.266	102.77
429.478	45.22
429.69	69.05
429.902	26.24
430.114	95.02
430.325	86.3
430.537	59.17
430.749	68.47
430.961	39.8
431.173	67.12
431.384	97.54
431.596	-1.66
431.808	54.72
432.02	77.97
432.231	94.82
432.443	119.04
432.655	72.74
432.867	51.23
433.078	114.59
433.29	140.74
433.502	108.19
433.713	122.92
433.925	95.99
434.136	141.71
434.348	70.22
434.56	44.84
434.771	181.23
434.983	53.75
435.194	54.72
435.406	73.51
435.617	142.68
435.829	162.25
436.04	110.52
436.252	135.7
436.463	141.13
436.675	145.58
436.886	96.18
437.098	131.83
437.309	145.97
437.521	100.64
437.732	131.25
437.943	115.36
438.155	115.55
438.366	73.9
438.578	182.01
438.789	119.62
439	113.62
439.211	108.19
439.423	138.42
439.634	146.36
439.845	126.21
440.057	128.34
440.268	171.55
440.479	85.14
440.69	125.05
440.902	115.94
441.113	102.96
441.324	128.92
441.535	147.72
441.746	176
441.957	103.54
442.168	104.12
442.38	118.07
442.591	149.65
442.802	112.65
443.013	110.52
443.224	149.65
443.435	124.66
443.646	106.06
443.857	116.91
444.068	114.2
444.279	120.79
444.49	196.73
444.701	140.35
444.912	218.24
445.123	153.92
445.334	168.45
445.545	170.38
445.756	151.59
445.967	104.32
446.178	150.43
446.388	199.45
446.599	184.72
446.81	182.78
447.021	162.63
447.232	165.93
447.443	211.65
447.653	156.05
447.864	206.23
448.075	153.92
448.286	188.6
448.496	178.13
448.707	202.74
448.918	154.69
449.129	266.68
449.339	167.28
449.55	188.6
449.761	156.82
449.971	193.63
450.182	161.86
450.393	210.49
450.603	166.12
450.814	212.62
451.024	216.5
451.235	219.21
451.446	267.65
451.656	239.55
451.867	156.05
452.077	200.61
452.288	246.91
452.498	215.92
452.709	178.72
452.919	196.93
453.13	173.1
453.34	227.93
453.55	148.3
453.761	223.47
453.971	176.97
454.182	229.28
454.392	230.45
454.602	278.3
454.813	221.34
455.023	236.65
455.233	183.37
455.444	219.79
455.654	149.85
455.864	201.19
456.075	161.67
456.285	181.62
456.495	190.73
456.705	205.84
456.916	246.91
457.126	258.73
457.336	226.57
457.546	157.79
457.756	208.36
457.967	262.41
458.177	201.77
458.387	233.35
458.597	188.98
458.807	202.35
459.017	197.7
459.227	221.15
459.437	199.06
459.647	226.76
459.857	240.33
460.068	172.52
460.278	255.83
460.488	226.38
460.698	297.29
460.908	197.7
461.117	177.94
461.327	181.04
461.537	246.72
461.747	209.13
461.957	234.71
462.167	341.85
462.377	274.81
462.587	214.56
462.797	230.83
463.007	229.28
463.216	252.92
463.426	256.02
463.636	256.6
463.846	190.34
464.056	209.13
464.265	289.15
464.475	179.68
464.685	231.22
464.895	238.78
465.104	230.64
465.314	240.33
465.524	222.5
465.733	189.18
465.943	320.54
466.153	292.06
466.362	264.55
466.572	256.02
466.782	235.87
466.991	250.6
467.201	304.65
467.41	178.52
467.62	285.86
467.829	225.22
468.039	239.94
468.249	253.7
468.458	259.51
468.668	281.4
468.877	265.13
469.086	303.3
469.296	283.73
469.505	243.43
469.715	335.46
469.924	302.91
470.134	331
470.343	318.21
470.552	270.55
470.762	249.82
470.971	245.56
471.18	262.22
471.39	267.84
471.599	238
471.808	281.6
472.018	236.84
472.227	333.71
472.436	305.81
472.645	252.53
472.855	235.29
473.064	324.61
473.273	303.88
473.482	284.7
473.691	328.29
473.901	353.86
474.11	328.29
474.319	388.35
474.528	314.92
474.737	352.7
474.946	325.77
475.155	313.37
475.364	387.38
475.573	332.36
475.783	330.03
475.992	363.36
476.201	359.48
476.41	317.44
476.619	287.21
476.828	308.91
477.037	314.14
477.245	326.16
477.454	329.45
477.663	316.08
477.872	343.98
478.081	376.14
478.29	322.28
478.499	411.99
478.708	349.41
478.917	416.64
479.125	368.39
479.334	361.23
479.543	330.81
479.752	368.98
479.961	378.86
480.169	409.27
480.378	335.26
480.587	499.56
480.796	422.84
481.004	385.83
481.213	416.44
481.422	398.23
481.63	383.89
481.839	433.49
482.048	453.06
482.256	410.05
482.465	398.04
482.674	432.33
482.882	413.15
483.091	471.08
483.299	409.66
483.508	417.99
483.716	390.48
483.925	414.89
484.134	400.94
484.342	423.81
484.551	439.69
484.759	459.84
484.967	456.55
485.176	512.15
485.384	447.64
485.593	468.37
485.801	452.48
486.01	417.99
486.218	422.06
486.426	381.76
486.635	397.84
486.843	388.93
487.051	432.72
487.26	397.07
487.468	431.75
487.676	450.16
487.885	411.79
488.093	458.68
488.301	431.36
488.509	455.97
488.717	500.34
488.926	451.9
489.134	427.49
489.342	479.02
489.55	426.91
489.758	474.76
489.967	426.91
490.175	564.85
490.383	464.69
490.591	541.22
490.799	439.69
491.007	540.83
491.215	489.49
491.423	477.28
491.631	487.74
491.839	504.99
492.047	498.59
492.255	447.64
492.463	415.09
492.671	459.84
492.879	557.1
493.087	480.96
493.295	488.13
493.503	525.52
493.711	519.13
493.919	552.26
494.127	548.58
494.334	537.15
494.542	484.26
494.75	519.32
494.958	502.66
495.166	565.82
495.374	547.61
495.581	530.75
495.789	533.85
495.997	603.41
496.205	556.14
496.412	544.12
496.62	534.44
496.828	572.99
497.035	532.11
497.243	579.77
497.451	571.83
497.658	560.01
497.866	556.52
498.074	604.77
498.281	515.64
498.489	607.09
498.696	565.63
498.904	536.95
499.112	543.15
499.319	644.68
499.527	570.86
499.734	602.05
499.942	523.59
500.149	505.18
500.357	567.57
500.564	532.89
500.771	583.07
500.979	559.43
501.186	545.29
501.394	573.77
501.601	567.37
501.808	616.2
502.016	567.37
502.223	582.48
502.43	573.19
502.638	561.56
502.845	541.99
503.052	613.29
503.26	568.15
503.467	639.83
503.674	599.92
503.881	594.88
504.089	663.66
504.296	616.2
504.503	562.92
504.71	603.6
504.917	553.81
505.125	608.45
505.332	631.31
505.539	624.72
505.746	701.83
505.953	630.92
506.16	619.49
506.367	691.76
506.574	691.56
506.781	685.17
506.988	615.81
507.195	630.53
507.402	651.65
507.609	683.04
507.816	615.81
508.023	626.08
508.23	619.49
508.437	609.22
508.644	654.37
508.851	708.81
509.058	671.03
509.265	664.63
509.472	680.91
509.679	750.85
509.885	676.84
510.092	688.27
510.299	636.73
510.506	677.81
510.713	673.74
510.92	687.88
511.126	685.36
511.333	714.43
511.54	742.52
511.746	722.95
511.953	754.73
512.16	724.89
512.367	672.38
512.573	689.43
512.78	713.85
512.987	718.5
513.193	704.16
513.4	643.52
513.606	697.38
513.813	745.43
514.02	714.62
514.226	775.07
514.433	755.11
514.639	711.52
514.846	711.33
515.052	714.04
515.259	725.28
515.465	706.87
515.672	700.48
515.878	816.53
516.085	727.02
516.291	783.59
516.497	721.98
516.704	690.4
516.91	698.54
517.117	649.33
517.323	640.42
517.529	682.85
517.736	657.27
517.942	700.48
518.148	709
518.354	713.26
518.561	745.04
518.767	725.66
518.973	749.88
519.179	766.16
519.386	727.6
519.592	730.51
519.798	731.48
520.004	774.49
520.21	728.57
520.417	806.26
520.623	826.22
520.829	810.14
521.035	806.84
521.241	804.33
521.447	810.14
521.653	944.99
521.859	816.53
522.065	825.64
522.271	941.89
522.477	865.74
522.683	887.64
522.889	854.31
523.095	850.63
523.301	851.41
523.507	794.25
523.713	875.24
523.919	832.03
524.125	912.63
524.331	878.72
524.537	938.59
524.742	915.73
524.948	930.45
525.154	883.76
525.36	994.97
525.566	903.14
525.772	963.59
525.977	873.11
526.183	915.15
526.389	972.5
526.595	884.34
526.8	908.76
527.006	835.13
527.212	846.76
527.417	822.73
527.623	776.62
527.829	888.02
528.034	887.44
528.24	920.57
528.446	870.01
528.651	922.9
528.857	937.04
529.062	1025
529.268	944.02
529.473	990.71
529.679	920.57
529.884	1028.3
530.09	987.61
530.295	1022.29
530.501	1013.96
530.706	959.9
530.912	922.32
531.117	979.28
531.323	986.84
531.528	1019.77
531.733	1006.79
531.939	969.59
532.144	1035.85
532.35	1005.44
532.555	1039.73
532.76	1000.4
532.966	1021.32
533.171	1003.89
533.376	965.14
533.581	945.18
533.787	989.94
533.992	1041.08
534.197	1045.35
534.402	994.2
534.607	1004.85
534.813	1123.23
535.018	1007.95
535.223	1000.79
535.428	1035.47
535.633	1061.62
535.838	1062.01
536.043	1064.33
536.249	1140.86
536.454	1053.87
536.659	1092.23
536.864	1041.86
537.069	1058.33
537.274	1092.23
537.479	1063.37
537.684	1081.77
537.889	998.27
538.094	1147.65
538.299	1066.47
538.504	1107.93
538.708	1087.58
538.913	1107.93
539.118	1084.48
539.323	1144.35
539.528	1064.72
539.733	1068.6
539.938	1107.73
540.142	1081.38
540.347	1073.05
540.552	1034.5
540.757	1065.88
540.962	1062.98
541.166	1009.12
541.371	1055.81
541.576	1073.63
541.781	992.45
541.985	1070.15
542.19	1076.35
542.395	1167.41
542.599	1163.92
542.804	1109.67
543.008	1150.94
543.213	1056
543.418	1062.2
543.622	1139.12
543.827	1085.26
544.031	1165.86
544.236	1129.63
544.44	1118.97
544.645	1190.46
544.849	1100.37
545.054	1128.85
545.258	1231.15
545.463	1166.83
545.667	1116.26
545.872	1143.96
546.076	1138.73
546.281	1148.61
546.485	1100.56
546.689	1154.43
546.894	1192.98
547.098	1157.14
547.302	1090.88
547.507	1153.07
547.711	1141.83
547.915	1200.73
548.119	1098.43
548.324	1103.47
548.528	1206.16
548.732	1149.58
548.936	1186.98
549.141	1201.89
549.345	1151.52
549.549	1139.51
549.753	1166.05
549.957	1220.88
550.161	1237.16
550.366	1134.28
550.57	1158.11
550.774	1120.13
550.978	1104.44
551.182	1191.82
551.386	1139.51
551.59	1131.95
551.794	1131.18
551.998	1170.31
552.202	1151.91
552.406	1102.31
552.61	1175.35
552.814	1176.51
553.018	1233.09
553.222	1147.06
553.426	1128.66
553.63	1255.56
553.833	1154.43
554.037	1092.23
554.241	1220.88
554.445	1143.58
554.649	1113.35
554.853	1135.44
555.056	1213.71
555.26	1205.96
555.464	1181.55
555.668	1173.8
555.871	1192.79
556.075	1192.01
556.279	1148.42
556.483	1135.63
556.686	1151.91
556.89	1176.32
557.094	1190.08
557.297	1097.27
557.501	1191.04
557.704	1078.87
557.908	1206.54
558.112	1133.11
558.315	1224.56
558.519	1118.39
558.722	1177.87
558.926	1149.39
559.129	1086.03
559.333	1056.2
559.536	1090.49
559.74	1095.92
559.943	1067.24
560.147	1071.89
560.35	1123.04
560.553	1083.52
560.757	1079.45
560.96	1149.58
561.164	1089.13
561.367	1164.5
561.57	1055.03
561.774	1157.14
561.977	1101.73
562.18	1071.5
562.384	1159.46
562.587	1106.96
562.79	1074.22
562.993	1085.26
563.197	1158.5
563.4	1140.48
563.603	1155.4
563.806	1175.74
564.009	1084.68
564.212	1121.68
564.416	1036.05
564.619	1133.11
564.822	1023.45
565.025	1160.63
565.228	1074.8
565.431	1069.37
565.634	1003.5
565.837	1075.18
566.04	1066.47
566.243	1036.43
566.446	979.67
566.649	1069.76
566.852	992.07
567.055	1010.09
567.258	1074.6
567.461	1099.21
567.664	1133.5
567.867	986.25
568.07	1048.25
568.273	1071.31
568.475	1074.22
568.678	1036.24
568.881	1056.58
569.084	1048.64
569.287	956.22
569.489	954.29
569.692	1015.9
569.895	1037.98
570.098	991.49
570.3	986.25
570.503	941.5
570.706	964.55
570.909	943.82
571.111	953.51
571.314	912.82
571.516	953.51
571.719	982.57
571.922	927.16
572.124	927.55
572.327	989.35
572.529	934.91
572.732	924.84
572.935	949.83
573.137	1005.24
573.34	911.08
573.542	957.97
573.745	1000.4
573.947	975.79
574.15	972.89
574.352	909.14
574.554	1047.09
574.757	936.07
574.959	936.65
575.162	924.84
575.364	912.44
575.566	995.17
575.769	887.25
575.971	935.49
576.173	850.24
576.376	906.43
576.578	963.78
576.78	987.22
576.982	846.76
577.185	895.58
577.387	878.53
577.589	868.65
577.791	933.75
577.993	943.24
578.196	897.32
578.398	926.58
578.6	948.09
578.802	869.81
579.004	869.23
579.206	875.82
579.408	919.22
579.61	857.02
579.812	938.98
580.014	867.29
580.216	866.91
580.418	885.31
580.62	871.94
580.822	819.83
581.024	900.23
581.226	919.41
581.428	881.24
581.63	982.77
581.832	848.5
582.034	955.84
582.236	902.75
582.438	978.89
582.64	944.02
582.841	974.82
583.043	982.96
583.245	969.59
583.447	932
583.649	898.49
583.85	907.4
584.052	973.27
584.254	890.93
584.456	944.4
584.657	899.65
584.859	897.71
585.061	890.93
585.262	900.81
585.464	885.31
585.666	932.2
585.867	896.16
586.069	968.04
586.27	895.97
586.472	899.26
586.674	875.62
586.875	912.44
587.077	844.24
587.278	907.21
587.48	867.87
587.681	996.72
587.883	909.72
588.084	818.47
588.285	892.67
588.487	883.76
588.688	867.49
588.89	807.81
589.091	777.01
589.292	825.25
589.494	825.06
589.695	820.41
589.896	716.56
590.098	734.19
590.299	808.39
590.5	764.41
590.702	786.5
590.903	812.27
591.104	834.55
591.305	813.24
591.507	864.19
591.708	862.84
591.909	827.38
592.11	874.85
592.311	853.15
592.512	817.11
592.714	773.33
592.915	810.33
593.116	789.21
593.317	804.52
593.518	795.41
593.719	816.14
593.92	837.26
594.121	889.77
594.322	822.54
594.523	833.39
594.724	797.16
594.925	805.88
595.126	826.99
595.327	809.94
595.528	859.93
595.729	841.72
595.929	826.99
596.13	817.31
596.331	827.19
596.532	817.89
596.733	878.92
596.934	857.41
597.135	858.77
597.335	834.16
597.536	807.62
597.737	837.26
597.938	809.36
598.138	850.05
598.339	802
598.54	852.37
598.74	803.16
598.941	840.17
599.142	858.38
599.342	855.28
599.543	775.26
599.744	819.63
599.944	787.66
600.145	781.66
600.345	820.79
600.546	883.96
600.746	876.4
600.947	896.16
601.147	859.54
601.348	863.03
601.548	781.46
601.749	820.6
601.949	797.74
602.15	812.08
602.35	817.69
602.551	855.86
602.751	765.77
602.951	801.81
603.152	752.21
603.352	832.23
603.552	830.68
603.753	878.34
603.953	862.45
604.153	820.02
604.354	815.95
604.554	785.34
604.754	835.91
604.954	791.93
605.155	848.89
605.355	795.03
605.555	849.08
605.755	884.54
605.955	804.13
606.155	879.11
606.356	818.28
606.556	845.21
606.756	855.47
606.956	765.38
607.156	848.11
607.356	783.21
607.556	803.55
607.756	829.9
607.956	856.64
608.156	815.18
608.356	821.57
608.556	853.54
608.756	825.44
608.956	793.67
609.156	789.41
609.356	779.33
609.556	791.73
609.755	819.05
609.955	788.83
610.155	780.88
610.355	810.53
610.555	782.63
610.755	785.14
610.954	748.33
611.154	782.82
611.354	815.56
611.554	768.29
611.753	785.73
611.953	742.33
612.153	787.08
612.352	812.85
612.552	759.57
612.752	706.29
612.951	763.83
613.151	746.2
613.351	760.73
613.55	768.29
613.75	807.23
613.949	766.16
614.149	797.74
614.348	767.9
614.548	711.13
614.747	692.53
614.947	768.48
615.146	684.78
615.346	779.91
615.545	739.61
615.745	789.6
615.944	800.06
616.144	724.11
616.343	762.28
616.542	709
616.742	763.83
616.941	751.24
617.14	702.03
617.34	757.05
617.539	758.99
617.738	733.8
617.938	780.3
618.137	731.09
618.336	692.92
618.535	752.21
618.734	739.23
618.934	751.43
619.133	743.88
619.332	745.81
619.531	713.07
619.73	711.71
619.929	778.75
620.128	747.75
620.328	795.99
620.527	706.87
620.726	708.23
620.925	749.5
621.124	720.63
621.323	721.01
621.522	681.68
621.721	705.51
621.92	686.33
622.119	715.01
622.318	679.36
622.517	703.77
622.715	715.59
622.914	684.98
623.113	691.37
623.312	628.6
623.511	707.84
623.71	680.91
