Data from pine_FLMT105791__80__17-21-20-077.txt Node

Date: Mon Mar 20 17:21:20 GMT 2023
User: antho
Spectrometer: FLMT10579
Trigger mode: 0
Integration Time (sec): 1.000000E-1
Scans to average: 10
Electric dark correction enabled: true
Nonlinearity correction enabled: false
Boxcar width: 0
XAxis mode: Wavelengths
Number of Pixels in Spectrum: 3648
>>>>>Begin Spectral Data<<<<<
345.248	-166.67
345.464	-166.67
345.681	-166.67
345.898	-202.32
346.114	-157.37
346.331	-34.15
346.548	-2.95
346.764	-31.44
346.981	-9.93
347.197	-17.1
347.414	28.24
347.631	-2.76
347.847	73.19
348.064	7.9
348.28	28.43
348.497	-42.29
348.713	2.86
348.93	38.51
349.146	28.82
349.363	13.51
349.579	2.08
349.796	-7.41
350.012	-11.29
350.229	24.36
350.445	8.48
350.661	-39.77
350.878	0.92
351.094	5.76
351.311	10.22
351.527	32.89
351.743	-2.18
351.96	15.65
352.176	42.19
352.392	30.37
352.609	22.04
352.825	-6.83
353.041	10.61
353.257	-5.09
353.474	-5.47
353.69	18.16
353.906	9.06
354.122	-10.7
354.339	42.58
354.555	-15.35
354.771	-1.6
354.987	60.98
355.203	46.06
355.42	17.58
355.636	-19.62
355.852	-10.9
356.068	0.34
356.284	-27.37
356.5	52.07
356.716	-19.81
356.932	5.76
357.148	18.55
357.364	7.51
357.58	46.64
357.796	35.6
358.012	32.89
358.228	27.66
358.444	-72.32
358.66	45.09
358.876	17.97
359.092	10.41
359.308	4.6
359.524	20.3
359.74	7.9
359.956	-7.6
360.172	14.48
360.388	20.49
360.604	-22.52
360.819	44.71
361.035	18.55
361.251	14.1
361.467	-24.46
361.683	26.88
361.898	6.35
362.114	54.78
362.33	-0.24
362.546	42.19
362.762	0.53
362.977	15.84
363.193	0.53
363.409	69.89
363.624	-27.17
363.84	-18.45
364.056	-22.72
364.271	5.76
364.487	21.07
364.703	-7.6
364.918	-8.57
365.134	-24.27
365.35	6.35
365.565	108.06
365.781	-10.9
365.996	7.12
366.212	69.12
366.427	17.58
366.643	-17.49
366.858	3.25
367.074	-29.89
367.289	42.38
367.505	90.24
367.72	-44.8
367.936	-0.63
368.151	18.55
368.367	9.25
368.582	40.64
368.798	1.5
369.013	51.49
369.228	17
369.444	35.6
369.659	51.1
369.874	31.34
370.09	50.71
370.305	-36.86
370.52	-10.32
370.736	58.08
370.951	5.18
371.166	21.07
371.381	83.84
371.597	51.49
371.812	-16.13
372.027	-40.15
372.242	24.94
372.458	77.26
372.673	-6.64
372.888	-0.82
373.103	24.56
373.318	87.33
373.533	18.16
373.749	31.73
373.964	-31.82
374.179	44.51
374.394	-15.94
374.609	55.75
374.824	-17.49
375.039	64.66
375.254	7.51
375.469	36.76
375.684	10.22
375.899	75.13
376.114	-7.22
376.329	1.7
376.544	51.49
376.759	39.09
376.974	-5.28
377.189	11.19
377.404	6.35
377.619	30.76
377.834	-21.75
378.049	-22.72
378.264	-25.62
378.478	12.93
378.693	-28.92
378.908	24.75
379.123	8.86
379.338	57.69
379.553	20.49
379.767	35.6
379.982	35.79
380.197	49.16
380.412	10.22
380.626	48.58
380.841	119.88
381.056	30.18
381.271	64.28
381.485	-26.98
381.7	-45.77
381.915	11.58
382.129	18.75
382.344	19.33
382.559	0.34
382.773	51.88
382.988	-26.59
383.202	18.75
383.417	-8.96
383.632	117.36
383.846	8.28
384.061	17.58
384.275	9.64
384.49	32.5
384.704	40.06
384.919	19.71
385.133	12.93
385.348	20.88
385.562	-40.54
385.777	75.71
385.991	18.36
386.206	-0.05
386.42	13.51
386.634	30.95
386.849	27.46
387.063	22.04
387.277	-19.42
387.492	-12.64
387.706	-30.47
387.92	-11.09
388.135	38.31
388.349	26.49
388.563	21.26
388.778	35.41
388.992	41.03
389.206	48.58
389.42	108.45
389.635	16.61
389.849	64.08
390.063	58.66
390.277	35.02
390.491	65.05
390.706	18.36
390.92	54.39
391.134	34.63
391.348	53.62
391.562	-41.12
391.776	23.59
391.99	-18.26
392.205	59.43
392.419	0.15
392.633	38.51
392.847	52.84
393.061	-20.2
393.275	100.89
393.489	25.72
393.703	35.41
393.917	81.13
394.131	3.63
394.345	62.34
394.559	81.71
394.773	16.03
394.986	35.41
395.2	33.47
395.414	49.94
395.628	-33.37
395.842	34.24
396.056	5.76
396.27	-21.94
396.484	51.29
396.697	23.78
396.911	83.84
397.125	55.56
397.339	43.54
397.553	58.08
397.766	102.44
397.98	72.03
398.194	75.9
398.408	1.7
398.621	30.95
398.835	50.71
399.049	33.08
399.262	74.93
399.476	57.69
399.69	33.86
399.903	97.02
400.117	18.36
400.331	58.66
400.544	25.91
400.758	137.9
400.971	36.96
401.185	65.05
401.398	15.26
401.612	84.43
401.826	41.41
402.039	25.53
402.253	5.18
402.466	57.3
402.68	20.68
402.893	30.18
403.106	39.48
403.32	49.94
403.533	34.44
403.747	20.49
403.96	14.48
404.174	63.11
404.387	-19.81
404.6	25.53
404.814	77.26
405.027	30.56
405.24	29.21
405.454	26.49
405.667	62.34
405.88	1.11
406.094	48.19
406.307	61.76
406.52	58.85
406.733	21.46
406.947	16.81
407.16	97.6
407.373	74.16
407.586	26.88
407.799	-1.6
408.012	58.27
408.226	80.16
408.439	94.11
408.652	0.15
408.865	68.93
409.078	86.36
409.291	54.78
409.504	16.03
409.717	79.78
409.93	37.34
410.143	74.74
410.357	-4.31
410.57	14.48
410.783	45.68
410.996	39.28
411.209	43.74
411.421	83.26
411.634	30.95
411.847	11.96
412.06	48.78
412.273	48.78
412.486	61.56
412.699	129.37
412.912	36.18
413.125	85.2
413.338	57.69
413.55	39.09
413.763	59.24
413.976	63.5
414.189	1.31
414.402	54.2
414.615	105.74
414.827	18.75
415.04	70.09
415.253	46.06
415.466	64.28
415.678	117.17
415.891	31.14
416.104	45.29
416.316	60.98
416.529	13.13
416.742	67.38
416.954	89.46
417.167	45.29
417.38	48.39
417.592	70.67
417.805	35.99
418.017	13.51
418.23	69.51
418.442	15.06
418.655	44.51
418.868	75.32
419.08	89.08
419.293	90.63
419.505	69.7
419.718	66.21
419.93	66.21
420.142	39.28
420.355	110.97
420.567	95.86
420.78	72.03
420.992	43.74
421.205	125.31
421.417	7.31
421.629	20.3
421.842	22.04
422.054	13.13
422.266	81.13
422.479	77.45
422.691	41.41
422.903	72.03
423.115	46.06
423.328	50.33
423.54	65.83
423.752	55.75
423.964	39.48
424.177	68.73
424.389	45.29
424.601	167.74
424.813	81.91
425.025	92.37
425.238	86.56
425.45	50.52
425.662	52.46
425.874	363.81
426.086	72.41
426.298	93.14
426.51	65.24
426.722	75.13
426.934	70.86
427.146	102.25
427.358	7.7
427.57	105.54
427.782	65.83
427.994	84.43
428.206	43.35
428.418	46.84
428.63	115.04
428.842	108.26
429.054	53.43
429.266	99.54
429.478	61.18
429.69	65.24
429.902	32.31
430.114	110.39
430.325	126.27
430.537	47.42
430.749	86.94
430.961	29.4
431.173	65.63
431.384	91.01
431.596	17.58
431.808	74.93
432.02	85.2
432.231	119.88
432.443	160.76
432.655	91.79
432.867	83.07
433.078	87.53
433.29	174.32
433.502	103.22
433.713	146.04
433.925	116.97
434.136	137.71
434.348	66.02
434.56	39.28
434.771	209.2
434.983	71.83
435.194	78.23
435.406	97.79
435.617	142.55
435.829	146.81
436.04	133.44
436.252	141.19
436.463	164.25
436.675	151.85
436.886	124.72
437.098	116.01
437.309	189.05
437.521	105.74
437.732	145.65
437.943	130.54
438.155	147.59
438.366	83.65
438.578	179.36
438.789	118.52
439	157.08
439.211	103.61
439.423	162.89
439.634	156.89
439.845	161.73
440.057	136.54
440.268	169.87
440.479	105.74
440.69	115.42
440.902	118.33
441.113	129.37
441.324	125.69
441.535	150.88
441.746	193.12
441.957	115.04
442.168	156.5
442.38	160.96
442.591	178.59
442.802	137.51
443.013	135.96
443.224	148.36
443.435	157.27
443.646	133.83
443.857	137.71
444.068	142.74
444.279	126.47
444.49	213.46
444.701	162.31
444.912	284.18
445.123	186.53
445.334	174.91
445.545	167.74
445.756	160.76
445.967	135.38
446.178	180.91
446.388	202.03
446.599	215.59
446.81	189.24
447.021	182.07
447.232	205.32
447.443	246.01
447.653	178.78
447.864	223.15
448.075	194.86
448.286	220.24
448.496	202.42
448.707	210.17
448.918	176.26
449.129	276.43
449.339	167.16
449.55	188.27
449.761	155.92
449.971	260.54
450.182	187.69
450.393	221.79
450.603	196.41
450.814	286.7
451.024	229.54
451.235	235.55
451.446	286.89
451.656	231.87
451.867	187.31
452.077	226.83
452.288	297.35
452.498	283.21
452.709	221.21
452.919	223.15
453.13	216.75
453.34	257.83
453.55	188.47
453.761	253.76
453.971	238.26
454.182	255.31
454.392	265.77
454.602	292.51
454.813	237.29
455.023	248.34
455.233	209.78
455.444	223.34
455.654	185.17
455.864	219.66
456.075	227.22
456.285	209.97
456.495	199.32
456.705	241.75
456.916	290.57
457.126	270.62
457.336	260.15
457.546	184.98
457.756	238.45
457.967	273.33
458.177	210.55
458.387	262.09
458.597	205.13
458.807	256.28
459.017	235.94
459.227	237.87
459.437	233.42
459.647	278.56
459.857	299.29
460.068	229.74
460.278	301.03
460.488	271.39
460.698	316.15
460.908	238.65
461.117	217.92
461.327	215.59
461.537	259.19
461.747	277.4
461.957	247.75
462.167	369.04
462.377	292.51
462.587	253.76
462.797	298.32
463.007	314.98
463.216	308.4
463.426	300.65
463.636	276.04
463.846	242.33
464.056	256.47
464.265	307.62
464.475	273.72
464.685	281.47
464.895	274.3
465.104	263.84
465.314	302.97
465.524	285.15
465.733	252.21
465.943	343.08
466.153	326.61
466.362	316.34
466.572	310.33
466.782	282.63
466.991	280.5
467.201	395
467.41	235.74
467.62	302.58
467.829	299.87
468.039	302.97
468.249	285.34
468.458	295.42
468.668	334.75
468.877	326.8
469.086	356.45
469.296	321.77
469.505	287.86
469.715	379.11
469.924	351.6
470.134	336.68
470.343	390.16
470.552	299.29
470.762	333.97
470.971	275.65
471.18	353.93
471.39	322.15
471.599	320.99
471.808	337.27
472.018	328.93
472.227	373.11
472.436	352.77
472.645	326.8
472.855	295.8
473.064	372.14
473.273	347.53
473.482	360.71
473.691	371.75
473.901	376.79
474.11	361.68
474.319	459.71
474.528	349.86
474.737	397.52
474.946	378.34
475.155	387.45
475.364	401.01
475.573	393.45
475.783	390.16
475.992	432.2
476.201	437.43
476.41	384.35
476.619	357.8
476.828	426
477.037	355.67
477.245	372.91
477.454	459.33
477.663	370.4
477.872	375.63
478.081	479.09
478.29	363.03
478.499	476.38
478.708	415.54
478.917	479.67
479.125	394.23
479.334	407.4
479.543	403.33
479.752	440.53
479.961	451
480.169	456.81
480.378	415.73
480.587	546.9
480.796	488.78
481.004	443.63
481.213	477.34
481.422	443.05
481.63	464.17
481.839	490.91
482.048	545.93
482.256	493.62
482.465	487.81
482.674	489.36
482.882	523.07
483.091	559.88
483.299	530.04
483.508	522.29
483.716	495.56
483.925	521.13
484.134	491.29
484.342	470.95
484.551	551.16
484.759	522.68
484.967	544.38
485.176	563.95
485.384	549.22
485.593	538.96
485.801	534.5
486.01	501.37
486.218	481.61
486.426	432.4
486.635	473.28
486.843	444.41
487.051	491.29
487.26	468.04
487.468	504.47
487.676	539.34
487.885	519.19
488.093	511.06
488.301	538.96
488.509	547.48
488.717	576.16
488.926	556.2
489.134	540.31
489.342	554.46
489.55	511.64
489.758	560.66
489.967	542.25
490.175	663.73
490.383	557.56
490.591	630.99
490.799	556.01
491.007	653.85
491.215	598.82
491.423	563.76
491.631	598.63
491.839	595.72
492.047	622.27
492.255	573.06
492.463	545.54
492.671	595.14
492.879	644.74
493.087	581.58
493.295	623.04
493.503	615.87
493.711	656.17
493.919	648.23
494.127	652.88
494.334	670.51
494.542	609.67
494.75	625.17
494.958	634.28
495.166	693.18
495.374	672.64
495.581	630.6
495.789	656.37
495.997	688.53
496.205	628.66
496.412	611.42
496.62	652.49
496.828	648.62
497.035	663.15
497.243	711
497.451	659.85
497.658	654.82
497.866	659.47
498.074	706.16
498.281	643
498.489	707.9
498.696	683.3
498.904	666.83
499.112	648.04
499.319	741.03
499.527	670.12
499.734	720.5
499.942	654.24
500.149	649.97
500.357	720.69
500.564	652.49
500.771	701.32
500.979	676.9
501.186	633.12
501.394	712.75
501.601	694.15
501.808	722.63
502.016	713.33
502.223	677.1
502.43	695.89
502.638	718.17
502.845	658.5
503.052	761.38
503.26	676.9
503.467	775.13
503.674	742.58
503.881	699.77
504.089	781.72
504.296	752.85
504.503	683.88
504.71	715.27
504.917	702.29
505.125	726.31
505.332	760.8
505.539	741.23
505.746	802.84
505.953	763.9
506.16	772.81
506.367	807.88
506.574	828.22
506.781	806.72
506.988	715.65
507.195	771.65
507.402	745.49
507.609	829.19
507.816	747.23
508.023	756.34
508.23	744.52
508.437	726.89
508.644	761.38
508.851	825.9
509.058	816.4
509.265	785.21
509.472	822.02
509.679	912.31
509.885	786.37
510.092	822.8
510.299	811.95
510.506	790.05
510.713	815.82
510.92	798.19
511.126	830.35
511.333	864.65
511.54	878.01
511.746	879.95
511.953	905.14
512.16	884.6
512.367	853.99
512.573	838.88
512.78	835.97
512.987	847.6
513.193	841.98
513.4	775.33
513.606	847.79
513.813	896.81
514.02	861.35
514.226	933.62
514.433	891.19
514.639	841.2
514.846	865.23
515.052	856.12
515.259	876.85
515.465	852.63
515.672	895.84
515.878	943.5
516.085	885.76
516.291	952.41
516.497	851.86
516.704	861.35
516.91	818.73
517.117	817.18
517.323	758.08
517.529	818.92
517.736	797.8
517.942	824.73
518.148	807.68
518.354	872.4
518.561	862.51
518.767	874.33
518.973	891.38
519.179	912.11
519.386	854.96
519.592	846.43
519.798	858.25
520.004	941.37
520.21	921.99
520.417	993.87
520.623	988.64
520.829	982.64
521.035	960.36
521.241	982.25
521.447	982.64
521.653	1106.83
521.859	987.09
522.065	976.24
522.271	1060.91
522.477	1077.19
522.683	1046.96
522.889	1073.89
523.095	1043.67
523.301	1017.51
523.507	988.06
523.713	1022.16
523.919	985.74
524.125	1064.01
524.331	1079.12
524.537	1135.7
524.742	1092.69
524.948	1106.64
525.154	1098.11
525.36	1183.17
525.566	1119.23
525.772	1125.43
525.977	1077.96
526.183	1120.59
526.389	1144.42
526.595	1071.18
526.8	1078.54
527.006	1026.62
527.212	999.49
527.417	978.96
527.623	985.54
527.829	1031.07
528.034	1054.52
528.24	1076.99
528.446	1058.2
528.651	1150.42
528.857	1136.47
529.062	1216.3
529.268	1131.82
529.473	1168.25
529.679	1153.91
529.884	1218.82
530.09	1185.49
530.295	1204.09
530.501	1193.24
530.706	1210.68
530.912	1124.07
531.117	1185.49
531.323	1162.63
531.528	1242.65
531.733	1209.71
531.939	1188.78
532.144	1229.47
532.35	1205.64
532.555	1236.06
532.76	1207
532.966	1204.28
533.171	1219.59
533.376	1140.15
533.581	1136.09
533.787	1197.31
533.992	1233.35
534.197	1261.63
534.402	1183.17
534.607	1226.57
534.813	1298.25
535.018	1198.86
535.223	1240.32
535.428	1252.91
535.633	1289.92
535.838	1251.56
536.043	1260.47
536.249	1375.75
536.454	1253.69
536.659	1297.67
536.864	1218.04
537.069	1220.56
537.274	1256.21
537.479	1281.98
537.684	1286.63
537.889	1237.8
538.094	1348.82
538.299	1276.16
538.504	1294.76
538.708	1265.51
538.913	1302.9
539.118	1312.59
539.323	1330.41
539.528	1257.95
539.733	1281.59
539.938	1309.68
540.142	1308.13
540.347	1233.73
540.552	1261.05
540.757	1286.63
540.962	1238.19
541.166	1224.43
541.371	1230.63
541.576	1271.9
541.781	1176.77
541.985	1235.67
542.19	1284.3
542.395	1330.41
542.599	1344.36
542.804	1295.73
543.008	1362.38
543.213	1257.76
543.418	1276.75
543.622	1300
543.827	1275.78
544.031	1355.79
544.236	1384.47
544.44	1339.33
544.645	1380.79
544.849	1319.18
545.054	1369.94
545.258	1409.46
545.463	1426.51
545.667	1294.38
545.872	1351.34
546.076	1364.32
546.281	1346.11
546.485	1324.8
546.689	1369.36
546.894	1362.58
547.098	1353.28
547.302	1321.89
547.507	1361.03
547.711	1359.86
547.915	1414.31
548.119	1321.31
548.324	1335.06
548.528	1398.81
548.732	1323.63
548.936	1371.68
549.141	1412.95
549.345	1321.89
549.549	1328.28
549.753	1366.64
549.957	1448.79
550.161	1415.08
550.366	1369.36
550.57	1331.19
550.774	1376.14
550.978	1345.91
551.182	1384.86
551.386	1365.29
551.59	1357.54
551.794	1325.38
551.998	1402.68
552.202	1365.48
552.406	1369.16
552.61	1351.73
552.814	1402.29
553.018	1423.99
553.222	1364.32
553.426	1379.63
553.63	1466.81
553.833	1355.21
554.037	1325.96
554.241	1374.98
554.445	1394.35
554.649	1364.32
554.853	1355.02
555.056	1400.94
555.26	1439.3
555.464	1402.49
555.668	1371.1
555.871	1433.68
556.075	1432.91
556.279	1367.61
556.483	1330.03
556.686	1393.58
556.89	1356.57
557.094	1384.66
557.297	1344.94
557.501	1390.48
557.704	1321.5
557.908	1388.15
558.112	1318.79
558.315	1418.38
558.519	1310.65
558.722	1343.39
558.926	1333.32
559.129	1294.57
559.333	1264.15
559.536	1272.87
559.74	1293.21
559.943	1264.93
560.147	1281.01
560.35	1318.01
560.553	1300.19
560.757	1266.28
560.96	1347.46
561.164	1283.53
561.367	1350.56
561.57	1286.05
561.774	1311.43
561.977	1308.71
562.18	1266.28
562.384	1369.55
562.587	1295.73
562.79	1283.33
562.993	1267.45
563.197	1358.31
563.4	1359.86
563.603	1345.53
563.806	1402.1
564.009	1268.22
564.212	1292.44
564.416	1232.18
564.619	1264.35
564.822	1259.7
565.025	1336.81
565.228	1291.47
565.431	1277.52
565.634	1180.65
565.837	1262.99
566.04	1213.78
566.243	1226.76
566.446	1168.25
566.649	1291.08
566.852	1206.22
567.055	1252.53
567.258	1268.61
567.461	1306
567.664	1296.7
567.867	1180.45
568.07	1273.06
568.273	1246.52
568.475	1283.14
568.678	1228.7
568.881	1235.09
569.084	1247.3
569.287	1154.88
569.489	1154.3
569.692	1253.88
569.895	1209.71
570.098	1128.72
570.3	1182.78
570.503	1154.1
570.706	1151.59
570.909	1151
571.111	1094.82
571.314	1129.5
571.516	1105.67
571.719	1164.76
571.922	1142.87
572.124	1127.95
572.327	1141.7
572.529	1109.74
572.732	1087.07
572.935	1137.25
573.137	1223.08
573.34	1113.8
573.542	1144.8
573.745	1160.69
573.947	1149.07
574.15	1115.55
574.352	1104.12
574.554	1193.82
574.757	1132.4
574.959	1115.74
575.162	1096.56
575.364	1087.65
575.566	1180.65
575.769	1069.82
575.971	1148.49
576.173	1016.16
576.376	1074.28
576.578	1130.08
576.78	1164.18
576.982	1043.28
577.185	1056.07
577.387	1042.89
577.589	1076.6
577.791	1128.72
577.993	1106.83
578.196	1091.91
578.398	1063.62
578.6	1135.12
578.802	1004.72
579.004	1025.46
579.206	1045.22
579.408	1098.5
579.61	1058.2
579.812	1085.9
580.014	1042.12
580.216	1050.45
580.418	1056.65
580.62	1060.33
580.822	1018.87
581.024	1055.29
581.226	1111.67
581.428	1054.32
581.63	1136.09
581.832	1061.3
582.034	1115.16
582.236	1063.43
582.438	1089.97
582.64	1168.83
582.841	1157.01
583.043	1179.1
583.245	1086.87
583.447	1097.92
583.649	1083.39
583.85	1092.3
584.052	1128.14
584.254	1081.84
584.456	1116.52
584.657	1035.34
584.859	1055.29
585.061	1070.21
585.262	1037.08
585.464	1025.84
585.666	1114.58
585.867	1044.83
586.069	1123.1
586.27	1080.67
586.472	1057.81
586.674	1023.91
586.875	1025.65
587.077	1030.88
587.278	1071.18
587.48	1069.05
587.681	1149.84
587.883	1067.31
588.084	988.84
588.285	1048.51
588.487	1026.42
588.688	1022.94
588.89	954.93
589.091	945.24
589.292	967.72
589.494	915.41
589.695	921.61
589.896	856.31
590.098	847.21
590.299	964.43
590.5	892.74
590.702	915.41
590.903	952.99
591.104	1016.35
591.305	971.01
591.507	1043.67
591.708	997.36
591.909	986.12
592.11	1062.07
592.311	1000.85
592.512	959.39
592.714	944.47
592.915	957.26
593.116	960.16
593.317	957.26
593.518	957.64
593.719	963.46
593.92	971.01
594.121	1019.84
594.322	960.36
594.523	1002.79
594.724	954.16
594.925	974.89
595.126	973.73
595.327	988.64
595.528	987.67
595.729	994.07
595.929	981.48
596.13	984.96
596.331	995.81
596.532	974.69
596.733	1034.17
596.934	993.87
597.135	989.42
597.335	1006.47
597.536	929.16
597.737	1001.24
597.938	970.63
598.138	990.19
598.339	942.53
598.54	983.99
598.74	944.66
598.941	974.11
599.142	1008.41
599.342	986.32
599.543	921.41
599.744	983.41
599.944	924.13
600.145	946.79
600.345	968.49
600.546	1047.35
600.746	1045.99
600.947	1069.24
601.147	969.46
601.348	1004.72
601.548	972.95
601.749	964.62
601.949	944.66
602.15	942.92
602.35	971.98
602.551	1008.79
602.751	924.71
602.951	951.44
603.152	903.39
603.352	980.51
603.552	960.55
603.753	985.16
603.953	996.97
604.153	972.37
604.354	977.02
604.554	974.69
604.754	994.07
604.954	921.03
605.155	1000.46
605.355	968.3
605.555	971.4
605.755	997.94
605.955	957.64
606.155	998.72
606.356	964.81
606.556	973.14
606.756	957.45
606.956	893.32
607.156	1018.29
607.356	946.21
607.556	978.76
607.756	974.5
607.956	1008.79
608.156	966.75
608.356	940.59
608.556	986.71
608.756	970.24
608.956	894.1
609.156	943.5
609.356	929.36
609.556	932.46
609.755	948.73
609.955	892.35
610.155	946.41
610.355	944.08
610.555	892.55
610.755	936.33
610.954	880.73
611.154	920.06
611.354	980.12
611.554	879.37
611.753	903.59
611.953	877.05
612.153	918.31
612.352	908.82
612.552	904.36
612.752	846.43
612.951	890.03
613.151	921.03
613.351	870.65
613.55	880.92
613.75	886.35
613.949	918.31
614.149	919.28
614.348	917.34
614.548	896.23
614.747	815.24
614.947	872.4
615.146	824.54
615.346	917.73
615.545	890.03
615.745	910.18
615.944	911.14
616.144	888.28
616.343	905.14
616.542	862.71
616.742	877.05
616.941	865.42
617.14	828.22
617.34	890.61
617.539	862.51
617.738	856.9
617.938	921.61
618.137	879.76
618.336	841.59
618.535	909.4
618.734	852.05
618.934	865.23
619.133	870.85
619.332	871.04
619.531	862.9
619.73	886.73
619.929	881.7
620.128	891.58
620.328	917.15
620.527	829.77
620.726	867.94
620.925	866.78
621.124	852.05
621.323	860
621.522	816.4
621.721	843.53
621.92	810.01
