Data from pine_FLMT105791__138__17-22-37-075.txt Node

Date: Mon Mar 20 17:22:37 GMT 2023
User: antho
Spectrometer: FLMT10579
Trigger mode: 0
Integration Time (sec): 1.000000E-1
Scans to average: 10
Electric dark correction enabled: true
Nonlinearity correction enabled: false
Boxcar width: 0
XAxis mode: Wavelengths
Number of Pixels in Spectrum: 3648
>>>>>Begin Spectral Data<<<<<
345.248	-171.95
345.464	-171.95
345.681	-171.95
345.898	-174.28
346.114	-173.69
346.331	-26.06
346.548	23.73
346.764	-23.35
346.981	-15.79
347.197	-21.41
347.414	30.32
347.631	-20.83
347.847	67.33
348.064	-2.03
348.28	26.25
348.497	-53.18
348.713	15.02
348.93	27.42
349.146	11.33
349.363	-14.05
349.579	2.81
349.796	-1.45
350.012	-20.05
350.229	23.15
350.445	-6.88
350.661	-12.5
350.878	8.62
351.094	3.2
351.311	17.34
351.527	30.9
351.743	4.36
351.96	60.93
352.176	67.91
352.392	29.35
352.609	23.54
352.825	-11.53
353.041	2.42
353.257	-19.08
353.474	11.53
353.69	-4.36
353.906	15.98
354.122	-44.27
354.339	34.2
354.555	-7.46
354.771	-9.2
354.987	64.03
355.203	31.29
355.42	36.91
355.636	7.46
355.852	-1.65
356.068	-14.05
356.284	-15.02
356.5	46.4
356.716	13.27
356.932	7.85
357.148	35.75
357.364	-0.68
357.58	72.75
357.796	51.25
358.012	53.38
358.228	40.01
358.444	-55.7
358.66	82.25
358.876	7.27
359.092	-8.04
359.308	31.87
359.524	28.38
359.74	-16.76
359.956	-3.97
360.172	12.69
360.388	28.97
360.604	-9.4
360.819	99.3
361.035	-8.62
361.251	43.69
361.467	-6.49
361.683	54.93
361.898	9.4
362.114	21.99
362.33	9.4
362.546	34.39
362.762	-4.94
362.977	32.26
363.193	-7.07
363.409	32.65
363.624	-20.05
363.84	-31.48
364.056	18.12
364.271	28.38
364.487	37.3
364.703	2.03
364.918	-25.48
365.134	3.78
365.35	11.92
365.565	114.02
365.781	33.62
365.996	22.77
366.212	72.75
366.427	24.7
366.643	5.52
366.858	25.67
367.074	-6.49
367.289	58.22
367.505	84.18
367.72	-33.42
367.936	-30.71
368.151	37.1
368.367	24.32
368.582	12.69
368.798	-7.65
369.013	40.98
369.228	15.98
369.444	2.42
369.659	54.15
369.874	61.32
370.09	84.96
370.305	-59
370.52	3
370.736	60.35
370.951	34.2
371.166	62.68
371.381	78.76
371.597	36.91
371.812	-16.57
372.027	-18.31
372.242	6.88
372.458	65.97
372.673	19.47
372.888	19.08
373.103	26.64
373.318	121.58
373.533	16.76
373.749	37.49
373.964	-8.43
374.179	93.29
374.394	-7.85
374.609	53.76
374.824	-20.25
375.039	54.15
375.254	-11.92
375.469	79.92
375.684	43.5
375.899	50.66
376.114	44.66
376.329	34.39
376.544	55.51
376.759	58.61
376.974	-17.73
377.189	13.47
377.404	22.57
377.619	45.43
377.834	-29.35
378.049	-18.89
378.264	-30.32
378.478	29.35
378.693	0.48
378.908	32.65
379.123	19.67
379.338	72.95
379.553	44.46
379.767	33.23
379.982	24.51
380.197	49.7
380.412	20.25
380.626	70.62
380.841	99.88
381.056	31.87
381.271	67.52
381.485	1.07
381.7	-8.04
381.915	48.53
382.129	-2.03
382.344	35.17
382.559	20.25
382.773	55.7
382.988	-26.64
383.202	32.65
383.417	-15.6
383.632	118.67
383.846	25.48
384.061	35.55
384.275	15.21
384.49	20.44
384.704	63.45
384.919	15.6
385.133	33.03
385.348	70.81
385.562	5.13
385.777	82.05
385.991	26.64
386.206	29.74
386.42	4.17
386.634	51.44
386.849	32.84
387.063	28.38
387.277	3.39
387.492	-2.81
387.706	-27.8
387.92	-11.33
388.135	74.69
388.349	50.66
388.563	57.06
388.778	44.85
388.992	56.09
389.206	45.24
389.42	107.63
389.635	35.55
389.849	37.3
390.063	64.61
390.277	51.83
390.491	78.37
390.706	49.5
390.92	61.71
391.134	40.59
391.348	47.56
391.562	21.22
391.776	59
391.99	6.88
392.205	69.65
392.419	28.19
392.633	37.1
392.847	83.21
393.061	-13.85
393.275	88.45
393.489	49.89
393.703	33.23
393.917	75.66
394.131	-10.95
394.345	46.01
394.559	53.96
394.773	-0.87
394.986	51.44
395.2	33.23
395.414	63.84
395.628	-16.18
395.842	46.21
396.056	17.73
396.27	-39.43
396.484	36.52
396.697	56.48
396.911	60.35
397.125	59.38
397.339	43.69
397.553	47.56
397.766	102.4
397.98	65.58
398.194	69.26
398.408	17.92
398.621	63.84
398.835	68.88
399.049	45.24
399.262	80.11
399.476	82.05
399.69	72.75
399.903	100.46
400.117	36.72
400.331	63.26
400.544	5.52
400.758	139.01
400.971	68.1
401.185	102.98
401.398	22.38
401.612	86.9
401.826	59.58
402.039	73.91
402.253	34.39
402.466	61.51
402.68	26.83
402.893	64.23
403.106	52.21
403.32	28.77
403.533	75.46
403.747	50.86
403.96	66.94
404.174	90.96
404.387	20.44
404.6	57.83
404.814	73.91
405.027	60.93
405.24	43.69
405.454	28.97
405.667	115.96
405.88	-5.72
406.094	75.08
406.307	100.07
406.52	45.24
406.733	15.02
406.947	15.98
407.16	117.31
407.373	101.23
407.586	29.35
407.799	-1.26
408.012	95.61
408.226	88.64
408.439	108.98
408.652	11.72
408.865	63.84
409.078	95.81
409.291	85.35
409.504	30.9
409.717	44.27
409.93	68.68
410.143	80.89
410.357	18.89
410.57	35.36
410.783	65.78
410.996	85.15
411.209	59
411.421	104.91
411.634	49.89
411.847	30.9
412.06	69.46
412.273	44.66
412.486	66.94
412.699	147.73
412.912	85.93
413.125	85.35
413.338	62.48
413.55	70.81
413.763	52.99
413.976	90.58
414.189	27.42
414.402	58.41
414.615	125.84
414.827	34
415.04	93.1
415.253	77.4
415.466	83.6
415.678	128.55
415.891	58.8
416.104	60.35
416.316	79.34
416.529	48.92
416.742	91.93
416.954	116.35
417.167	60.74
417.38	84.38
417.592	105.5
417.805	56.28
418.017	38.65
418.23	82.83
418.442	77.21
418.655	33.03
418.868	93.29
419.08	98.33
419.293	111.5
419.505	93.29
419.718	105.5
419.93	113.83
420.142	66.94
420.355	111.31
420.567	133.98
420.78	113.44
420.992	77.79
421.205	160.13
421.417	29.16
421.629	79.15
421.842	72.17
422.054	48.53
422.266	94.84
422.479	112.08
422.691	94.06
422.903	112.08
423.115	79.73
423.328	56.28
423.54	88.25
423.752	76.82
423.964	51.63
424.177	90.96
424.389	83.02
424.601	186.29
424.813	128.94
425.025	128.55
425.238	128.16
425.45	93.29
425.662	95.81
425.874	389.14
426.086	79.92
426.298	109.37
426.51	114.99
426.722	101.43
426.934	85.35
427.146	115.76
427.358	58.22
427.57	108.21
427.782	121
427.994	79.53
428.206	99.68
428.418	64.03
428.63	111.5
428.842	145.99
429.054	113.83
429.266	132.62
429.478	82.44
429.69	127.2
429.902	55.7
430.114	131.26
430.325	119.45
430.537	69.07
430.749	78.37
430.961	69.26
431.173	94.26
431.384	100.85
431.596	49.5
431.808	96.78
432.02	115.96
432.231	137.46
432.443	182.61
432.655	139.4
432.867	101.81
433.078	128.16
433.29	169.82
433.502	170.59
433.713	162.46
433.925	134.56
434.136	164.59
434.348	104.72
434.56	57.45
434.771	215.74
434.983	94.45
435.194	102.4
435.406	106.66
435.617	191.91
435.829	236.66
436.04	181.25
436.252	156.45
436.463	196.94
436.675	173.5
436.886	170.4
437.098	158.97
437.309	190.74
437.521	149.86
437.732	182.61
437.943	133.39
438.155	174.08
438.366	103.17
438.578	213.03
438.789	194.23
439	180.86
439.211	164.59
439.423	164.59
439.634	167.11
439.845	187.06
440.057	180.28
440.268	194.23
440.479	141.14
440.69	175.63
440.902	132.62
441.113	150.44
441.324	165.75
441.535	168.46
441.746	200.24
441.957	164.78
442.168	137.46
442.38	187.45
442.591	222.71
442.802	158.58
443.013	174.66
443.224	205.08
443.435	178.93
443.646	198.49
443.857	204.11
444.068	172.92
444.279	153.54
444.49	261.46
444.701	201.59
444.912	300.21
445.123	237.24
445.334	219.61
445.545	192.49
445.756	186.29
445.967	172.14
446.178	219.81
446.388	224.84
446.599	248.48
446.81	233.56
447.021	199.46
447.232	237.63
447.443	245.38
447.653	180.09
447.864	242.28
448.075	220.19
448.286	238.41
448.496	233.76
448.707	249.26
448.918	210.7
449.129	315.71
449.339	211.48
449.55	226.39
449.761	189.58
449.971	249.26
450.182	216.13
450.393	255.84
450.603	235.69
450.814	293.82
451.024	250.03
451.235	295.17
451.446	284.91
451.656	303.89
451.867	221.55
452.077	241.89
452.288	294.4
452.498	299.82
452.709	260.3
452.919	260.88
453.13	224.26
453.34	278.9
453.55	208.18
453.761	276.38
453.971	275.99
454.182	273.28
454.392	250.03
454.602	334.5
454.813	289.94
455.023	273.86
455.233	201.4
455.444	244.61
455.654	210.7
455.864	248.09
456.075	250.61
456.285	230.46
456.495	250.22
456.705	290.91
456.916	328.69
457.126	317.26
457.336	267.47
457.546	204.31
457.756	233.56
457.967	292.07
458.177	275.02
458.387	270.57
458.597	260.88
458.807	263.79
459.017	253.71
459.227	276.96
459.437	265.72
459.647	296.92
459.857	305.06
460.068	248.67
460.278	303.7
460.488	305.44
460.698	347.68
460.908	287.04
461.117	254.29
461.327	265.72
461.537	303.12
461.747	285.1
461.957	287.23
462.167	388.17
462.377	318.04
462.587	312.03
462.797	350.39
463.007	293.43
463.216	320.17
463.426	330.82
463.636	328.3
463.846	254.68
464.056	278.12
464.265	338.77
464.475	279.87
464.685	287.04
464.895	291.49
465.104	296.34
465.314	317.07
465.524	287.81
465.733	281.61
465.943	368.22
466.153	381.78
466.362	341.09
466.572	332.95
466.782	296.14
466.991	338.57
467.201	371.12
467.41	265.14
467.62	324.04
467.829	335.09
468.039	349.23
468.249	329.27
468.458	309.51
468.668	363.76
468.877	339.74
469.086	374.61
469.296	405.22
469.505	323.46
469.715	403.09
469.924	339.15
470.134	417.82
470.343	385.07
470.552	355.62
470.762	306.99
470.971	294.21
471.18	350.59
471.39	330.82
471.599	315.52
471.808	409.29
472.018	328.11
472.227	398.05
472.436	422.27
472.645	373.06
472.855	351.55
473.064	417.62
473.273	411.23
473.482	385.07
473.691	427.7
473.901	431.96
474.11	388.17
474.319	441.07
474.528	399.22
474.737	436.42
474.946	432.93
475.155	395.34
475.364	448.23
475.573	396.12
475.783	437.38
475.992	447.27
476.201	445.91
476.41	407.35
476.619	395.15
476.828	440.87
477.037	398.44
477.245	451.72
477.454	451.72
477.663	437.38
477.872	400.77
478.081	480.2
478.29	411.81
478.499	552.28
478.708	490.47
478.917	520.89
479.125	443.39
479.334	446.1
479.543	470.32
479.752	448.23
479.961	454.24
480.169	499.38
480.378	466.64
480.587	595.68
480.796	484.08
481.004	478.65
481.213	518.95
481.422	512.17
481.63	513.33
481.839	524.96
482.048	571.07
482.256	543.36
482.465	545.3
482.674	534.06
482.882	540.85
483.091	588.51
483.299	547.63
483.508	550.73
483.716	522.63
483.925	536
484.134	531.35
484.342	556.54
484.551	585.41
484.759	587.34
484.967	590.25
485.176	621.83
485.384	564.68
485.593	625.32
485.801	610.21
486.01	540.26
486.218	523.99
486.426	468.97
486.635	507.91
486.843	505.78
487.051	527.48
487.26	515.08
487.468	565.06
487.676	595.29
487.885	547.82
488.093	570.49
488.301	572.62
488.509	573.01
488.717	619.51
488.926	594.13
489.134	556.15
489.342	607.69
489.55	560.22
489.758	569.91
489.967	600.71
490.175	718.12
490.383	650.89
490.591	700.11
490.799	603.43
491.007	654.96
491.215	646.05
491.423	653.61
491.631	635.39
491.839	630.16
492.047	683.44
492.255	584.24
492.463	589.48
492.671	616.79
492.879	701.46
493.087	665.62
493.295	686.74
493.503	692.16
493.711	688.29
493.919	722
494.127	712.31
494.334	721.22
494.542	664.84
494.75	703.01
494.958	698.56
495.166	747.19
495.374	698.56
495.581	716.57
495.789	714.64
495.997	761.14
496.205	683.25
496.412	706.31
496.62	688.09
496.828	738.47
497.035	729.17
497.243	730.33
497.451	748.35
497.658	703.4
497.866	702.24
498.074	791.55
498.281	685.19
498.489	813.64
498.696	759.78
498.904	706.69
499.112	728.59
499.319	816.35
499.527	745.25
499.734	816.16
499.942	712.7
500.149	715.41
500.357	787.68
500.564	688.29
500.771	746.6
500.979	711.92
501.186	723.55
501.394	740.21
501.601	729.94
501.808	759
502.016	741.76
502.223	738.27
502.43	758.04
502.638	748.74
502.845	714.06
503.052	816.16
503.26	771.79
503.467	824.3
503.674	753
503.881	789.62
504.089	839.02
504.296	815.19
504.503	718.9
504.71	802.79
504.917	735.56
505.125	784.58
505.332	781.29
505.539	818.1
505.746	885.72
505.953	855.68
506.16	815.77
506.367	871.96
506.574	865.18
506.781	899.08
506.988	800.27
507.195	850.07
507.402	836.7
507.609	848.52
507.816	818.87
508.023	802.21
508.23	831.47
508.437	810.15
508.644	855.88
508.851	894.82
509.058	906.06
509.265	871.96
509.472	890.17
509.679	953.72
509.885	872.35
510.092	872.93
510.299	873.32
510.506	890.75
510.713	884.55
510.92	865.37
511.126	916.91
511.333	951.59
511.54	936.86
511.746	969.03
511.953	925.63
512.16	984.72
512.367	881.65
512.573	927.18
512.78	919.43
512.987	930.86
513.193	946.36
513.4	851.03
513.606	900.25
513.813	921.17
514.02	951.59
514.226	984.14
514.433	958.56
514.639	901.02
514.846	958.76
515.052	900.63
515.259	943.06
515.465	966.9
515.672	923.5
515.878	1026.76
516.085	964.57
516.291	1000.22
516.497	919.43
516.704	962.25
516.91	923.88
517.117	860.14
517.323	856.46
517.529	885.33
517.736	878.93
517.942	895.98
518.148	905.09
518.354	925.24
518.561	951.78
518.767	948.68
518.973	993.63
519.179	1020.76
519.386	971.16
519.592	970
519.798	966.9
520.004	1056.99
520.21	1020.56
520.417	1044.59
520.623	1081.4
520.829	1084.89
521.035	1031.41
521.241	1090.7
521.447	1050.01
521.653	1158.9
521.859	1063.96
522.065	1095.54
522.271	1207.14
522.477	1154.64
522.683	1189.9
522.889	1137.78
523.095	1150.37
523.301	1142.04
523.507	1118.79
523.713	1136.04
523.919	1104.65
524.125	1194.94
524.331	1149.21
524.537	1253.25
524.742	1229.62
524.948	1247.83
525.154	1231.36
525.36	1321.65
525.566	1215.47
525.772	1250.35
525.977	1204.24
526.183	1240.66
526.389	1249.96
526.595	1206.75
526.8	1171.88
527.006	1146.11
527.212	1108.72
527.417	1110.07
527.623	1092.64
527.829	1176.14
528.034	1207.34
528.24	1190.67
528.446	1178.86
528.651	1255.58
528.857	1269.72
529.062	1326.88
529.268	1258.68
529.473	1280.38
529.679	1253.25
529.884	1322.23
530.09	1321.45
530.295	1342.96
530.501	1353.03
530.706	1286.77
530.912	1248.02
531.117	1322.62
531.323	1317.97
531.528	1367.37
531.733	1366.98
531.939	1306.73
532.144	1365.43
532.35	1346.83
532.555	1379.77
532.76	1351.87
532.966	1373.57
533.171	1307.89
533.376	1285.22
533.581	1319.32
533.787	1324.36
533.992	1387.71
534.197	1354.58
534.402	1347.61
534.607	1332.5
534.813	1415.61
535.018	1334.24
535.223	1364.85
535.428	1362.33
535.633	1458.24
535.838	1421.04
536.043	1411.16
536.249	1490.79
536.454	1414.26
536.659	1428.21
536.864	1396.43
537.069	1388.49
537.274	1420.07
537.479	1415.03
537.684	1436.54
537.889	1366.21
538.094	1497.57
538.299	1428.4
538.504	1418.33
538.708	1466.57
538.913	1456.88
539.118	1418.71
539.323	1458.63
539.528	1414.45
539.733	1421.04
539.938	1459.4
540.142	1464.63
540.347	1411.16
540.552	1408.83
540.757	1381.32
540.962	1418.33
541.166	1341.02
541.371	1362.14
541.576	1399.34
541.781	1294.91
541.985	1403.41
542.19	1395.66
542.395	1484.39
542.599	1518.88
542.804	1473.16
543.008	1514.04
543.213	1404.18
543.418	1450.88
543.622	1458.04
543.827	1429.56
544.031	1492.34
544.236	1497.18
544.44	1474.71
544.645	1568.29
544.849	1466.38
545.054	1511.71
545.258	1578.56
545.463	1540
545.667	1451.46
545.872	1505.51
546.076	1523.14
546.281	1529.34
546.485	1471.03
546.689	1543.49
546.894	1519.27
547.098	1512.68
547.302	1510.36
547.507	1534.57
547.711	1516.17
547.915	1552.79
548.119	1480.33
548.324	1484.59
548.528	1537.87
548.732	1478.58
548.936	1541.94
549.141	1538.64
549.345	1511.71
549.549	1489.63
549.753	1514.81
549.957	1595.61
550.161	1551.24
550.366	1570.61
550.57	1467.93
550.774	1545.23
550.978	1527.41
551.182	1532.64
551.386	1504.93
551.59	1496.99
551.794	1510.55
551.998	1554.72
552.202	1500.67
552.406	1490.4
552.61	1524.31
552.814	1503.58
553.018	1628.74
553.222	1538.84
553.426	1515.39
553.63	1603.74
553.833	1523.34
554.037	1501.83
554.241	1560.15
554.445	1522.95
554.649	1531.67
554.853	1483.62
555.056	1588.05
555.26	1591.54
555.464	1561.7
555.668	1560.73
555.871	1576.62
556.075	1552.01
556.279	1532.06
556.483	1493.11
556.686	1502.41
556.89	1517.72
557.094	1512.49
557.297	1474.51
557.501	1550.27
557.704	1435.38
557.908	1555.89
558.112	1459.4
558.315	1580.88
558.519	1502.22
558.722	1461.34
558.926	1484.78
559.129	1457.66
559.333	1414.84
559.536	1400.31
559.74	1403.6
559.943	1400.11
560.147	1390.04
560.35	1393.91
560.553	1414.26
560.757	1362.72
560.96	1469.86
561.164	1399.53
561.367	1501.83
561.57	1427.05
561.774	1511.52
561.977	1464.24
562.18	1418.52
562.384	1529.73
562.587	1459.01
562.79	1420.65
562.993	1443.51
563.197	1470.83
563.4	1467.34
563.603	1482.46
563.806	1500.67
564.009	1425.11
564.212	1422.59
564.416	1393.72
564.619	1450.1
564.822	1345.28
565.025	1454.36
565.228	1400.89
565.431	1437.51
565.634	1334.43
565.837	1322.42
566.04	1320.68
566.243	1365.05
566.446	1268.95
566.649	1365.82
566.852	1341.02
567.055	1343.93
567.258	1364.08
567.461	1445.06
567.664	1410.96
567.867	1286.19
568.07	1362.91
568.273	1371.25
568.475	1408.45
568.678	1321.84
568.881	1301.5
569.084	1339.28
569.287	1228.07
569.489	1263.72
569.692	1315.06
569.895	1353.03
570.098	1254.42
570.3	1242.4
570.503	1205.59
570.706	1282.12
570.909	1220.9
571.111	1219.54
571.314	1214.31
571.516	1248.99
571.719	1240.08
571.922	1222.64
572.124	1232.52
572.327	1246.09
572.529	1212.37
572.732	1193.19
572.935	1259.45
573.137	1301.11
573.34	1185.64
573.542	1267.98
573.745	1265.85
573.947	1252.09
574.15	1206.75
574.352	1226.9
574.554	1275.92
574.757	1200.94
574.959	1156.38
575.162	1207.92
575.364	1185.44
575.566	1278.63
575.769	1151.54
575.971	1177.31
576.173	1090.31
576.376	1176.53
576.578	1205.59
576.78	1240.85
576.982	1112.21
577.185	1171.88
577.387	1134.29
577.589	1158.9
577.791	1156.38
577.993	1147.66
578.196	1140.69
578.398	1195.52
578.6	1172.07
578.802	1123.06
579.004	1116.08
579.206	1134.87
579.408	1159.29
579.61	1111.43
579.812	1148.05
580.014	1135.07
580.216	1119.18
580.418	1124.41
580.62	1125.96
580.822	1111.04
581.024	1145.34
581.226	1167.23
581.428	1131.77
581.63	1218.96
581.832	1093.41
582.034	1210.24
582.236	1156.96
582.438	1150.96
582.64	1216.25
582.841	1201.52
583.043	1217.8
583.245	1168.78
583.447	1181.37
583.649	1144.56
583.85	1175.37
584.052	1187.57
584.254	1134.87
584.456	1207.53
584.657	1112.79
584.859	1129.06
585.061	1130.81
585.262	1136.04
585.464	1087.99
585.666	1140.11
585.867	1140.49
586.069	1172.85
586.27	1139.33
586.472	1155.61
586.674	1134.87
586.875	1109.49
587.077	1095.16
587.278	1115.11
587.48	1119.57
587.681	1240.85
587.883	1115.11
588.084	1057.38
588.285	1120.15
588.487	1089.93
588.688	1082.18
588.89	1034.13
589.091	987.24
589.292	1027.93
589.494	1008.16
589.695	982.98
589.896	898.89
590.098	922.53
590.299	1000.22
590.5	946.55
590.702	973.29
590.903	1019.79
591.104	1035.29
591.305	1017.46
591.507	1076.75
591.708	1073.26
591.909	996.93
592.11	1103.1
592.311	1084.11
592.512	1041.68
592.714	987.82
592.915	983.75
593.116	1008.16
593.317	1011.65
593.518	1014.75
593.719	1012.43
593.92	1051.95
594.121	1053.11
594.322	1023.28
594.523	1003.13
594.724	988.98
594.925	1018.63
595.126	1049.63
595.327	1051.76
595.528	1022.5
595.729	1056.99
595.929	1011.26
596.13	1027.15
596.331	1032.19
596.532	1024.44
596.733	1082.56
596.934	1043.23
597.135	1047.49
597.335	1038.39
597.536	1003.32
597.737	1012.23
597.938	986.85
598.138	1028.7
598.339	1033.35
598.54	1045.75
598.74	1017.85
598.941	1017.85
599.142	1080.04
599.342	1019.79
599.543	1001.96
599.744	1029.48
599.944	1000.41
600.145	1019.4
600.345	1046.72
600.546	1065.9
600.746	1085.28
600.947	1091.86
601.147	1048.46
601.348	1093.61
601.548	990.92
601.749	1034.13
601.949	986.85
602.15	1000.8
602.35	1021.34
602.551	1060.28
602.751	983.95
602.951	1015.53
603.152	955.85
603.352	1070.94
603.552	1028.51
603.753	1049.63
603.953	1016.69
604.153	1022.69
604.354	1013.2
604.554	1020.56
604.754	1014.56
604.954	999.64
605.155	1033.35
605.355	985.88
605.555	1085.66
605.755	1046.72
605.955	1033.16
606.155	1033.74
606.356	1010.68
606.556	1034.32
606.756	1028.7
606.956	993.25
607.156	1071.91
607.356	1017.46
607.556	1015.33
607.756	1026.96
607.956	1054.47
608.156	1013.59
608.356	976
608.556	1036.84
608.756	1008.16
608.956	993.44
609.156	1023.28
609.356	975.23
609.556	977.55
609.755	1015.53
609.955	949.65
610.155	1011.07
610.355	955.85
610.555	946.16
610.755	982.2
610.954	919.04
611.154	991.11
611.354	997.7
611.554	951.2
611.753	933.76
611.953	924.85
612.153	980.65
612.352	968.45
612.552	911.48
612.752	869.25
612.951	965.35
613.151	967.48
613.351	948.88
613.55	929.89
613.75	964.38
613.949	949.65
614.149	937.64
614.348	928.34
614.548	916.52
614.747	890.37
614.947	911.68
615.146	867.31
615.346	954.69
615.545	938.41
615.745	946.16
615.944	940.35
616.144	920.2
616.343	921.36
616.542	924.46
616.742	921.56
616.941	896.76
617.14	846.38
617.34	932.6
617.539	913.42
617.738	871.18
617.938	961.08
618.137	887.27
618.336	867.89
618.535	907.42
618.734	915.55
618.934	923.5
619.133	935.31
619.332	933.38
619.531	870.99
619.73	877.97
619.929	963.99
620.128	931.63
