Data from pine_FLMT105791__124__17-22-23-075.txt Node

Date: Mon Mar 20 17:22:23 GMT 2023
User: antho
Spectrometer: FLMT10579
Trigger mode: 0
Integration Time (sec): 1.000000E-1
Scans to average: 10
Electric dark correction enabled: true
Nonlinearity correction enabled: false
Boxcar width: 0
XAxis mode: Wavelengths
Number of Pixels in Spectrum: 3648
>>>>>Begin Spectral Data<<<<<
345.248	-141.97
345.464	-141.97
345.681	-141.97
345.898	-178.01
346.114	-147.97
346.331	-43.35
346.548	37.44
346.764	12.06
346.981	-11.77
347.197	-8.48
347.414	29.11
347.631	-38.89
347.847	60.5
348.064	1.4
348.28	41.7
348.497	-59.63
348.713	-20.1
348.93	25.24
349.146	43.64
349.363	1.99
349.579	-4.8
349.796	8.38
350.012	10.32
350.229	34.73
350.445	8.38
350.661	-23.98
350.878	-7.51
351.094	0.24
351.311	-3.44
351.527	29.5
351.743	-30.76
351.96	27.75
352.176	45.39
352.392	12.84
352.609	46.94
352.825	-13.71
353.041	38.02
353.257	-2.28
353.474	16.52
353.69	9.93
353.906	19.23
354.122	-26.3
354.339	57.59
354.555	17.1
354.771	-10.61
354.987	46.55
355.203	43.84
355.42	-9.45
355.636	-27.46
355.852	-2.66
356.068	-18.94
356.284	-36.18
356.5	45.39
356.716	19.62
356.932	2.76
357.148	47.9
357.364	13.03
357.58	39.38
357.796	68.63
358.012	14
358.228	41.12
358.444	-41.22
358.66	54.88
358.876	33.18
359.092	-3.44
359.308	22.72
359.524	19.62
359.74	3.34
359.956	-10.03
360.172	17.87
360.388	55.46
360.604	-1.11
360.819	50.23
361.035	4.12
361.251	38.02
361.467	-22.62
361.683	54.49
361.898	29.3
362.114	27.95
362.33	29.69
362.546	45.19
362.762	6.44
362.977	28.92
363.193	-7.12
363.409	47.52
363.624	-37.34
363.84	2.57
364.056	19.42
364.271	7.02
364.487	18.84
364.703	-12.16
364.918	-47.81
365.134	-16.42
365.35	-26.3
365.565	131.22
365.781	25.04
365.996	34.54
366.212	73.28
366.427	28.34
366.643	-0.15
366.858	10.32
367.074	-4.21
367.289	62.82
367.505	122.3
367.72	-27.46
367.936	20.2
368.151	29.11
368.367	23.3
368.582	22.14
368.798	9.93
369.013	68.44
369.228	33.37
369.444	10.7
369.659	45.19
369.874	34.92
370.09	61.47
370.305	-34.05
370.52	-18.55
370.736	62.82
370.951	30.47
371.166	64.57
371.381	82
371.597	35.12
371.812	-20.88
372.027	-9.45
372.242	19.42
372.458	81.03
372.673	39.57
372.888	9.15
373.103	49.65
373.318	92.27
373.533	33.18
373.749	56.04
373.964	-29.01
374.179	64.37
374.394	4.31
374.609	43.06
374.824	-10.41
375.039	74.64
375.254	-1.11
375.469	53.33
375.684	33.18
375.899	76.97
376.114	-0.92
376.329	31.82
376.544	56.04
376.759	65.54
376.974	-19.52
377.189	26.79
377.404	18.07
377.619	69.6
377.834	-20.88
378.049	-22.43
378.264	-43.35
378.478	20
378.693	-12.74
378.908	40.15
379.123	14.97
379.338	45
379.553	35.7
379.767	21.94
379.982	38.41
380.197	16.52
380.412	18.65
380.626	71.54
380.841	93.43
381.056	46.74
381.271	82.58
381.485	-19.91
381.7	-8.67
381.915	25.82
382.129	-1.7
382.344	36.09
382.559	27.17
382.773	41.7
382.988	-2.47
383.202	42.48
383.417	-5.76
383.632	121.14
383.846	38.02
384.061	56.62
384.275	30.47
384.49	47.32
384.704	45.77
384.919	20.78
385.133	43.25
385.348	59.53
385.562	-16.03
385.777	73.48
385.991	7.22
386.206	14.19
386.42	-11.96
386.634	83.55
386.849	57.4
387.063	49.84
387.277	-14.1
387.492	4.31
387.706	-9.83
387.92	-15.26
388.135	49.45
388.349	12.45
388.563	12.64
388.778	12.84
388.992	49.26
389.206	31.44
389.42	84.91
389.635	24.07
389.849	51.78
390.063	64.18
390.277	75.22
390.491	87.23
390.706	65.92
390.92	59.72
391.134	29.69
391.348	52.75
391.562	-20.3
391.776	20.78
391.99	17.87
392.205	63.99
392.419	15.16
392.633	32.21
392.847	53.72
393.061	27.75
393.275	98.86
393.489	36.67
393.703	42.67
393.917	52.94
394.131	-13.51
394.345	12.45
394.559	60.3
394.773	26.59
394.986	59.34
395.2	33.18
395.414	68.83
395.628	15.94
395.842	38.6
396.056	26.79
396.27	-0.53
396.484	51.59
396.697	32.99
396.911	87.43
397.125	57.59
397.339	81.81
397.553	50.62
397.766	111.84
397.98	72.51
398.194	82.58
398.408	9.93
398.621	68.44
398.835	74.64
399.049	52.75
399.262	102.35
399.476	93.63
399.69	77.55
399.903	138
400.117	38.41
400.331	48.1
400.544	7.8
400.758	176.55
400.971	85.1
401.185	76.97
401.398	29.89
401.612	68.25
401.826	81.23
402.039	72.51
402.253	43.84
402.466	71.73
402.68	29.5
402.893	66.89
403.106	62.82
403.32	60.3
403.533	80.84
403.747	64.18
403.96	77.35
404.174	115.13
404.387	10.9
404.6	61.66
404.814	90.92
405.027	53.52
405.24	43.84
405.454	23.49
405.667	100.99
405.88	16.9
406.094	45.97
406.307	89.75
406.52	79.87
406.733	24.85
406.947	-2.66
407.16	137.8
407.373	101.57
407.586	22.33
407.799	34.54
408.012	85.88
408.226	85.3
408.439	107.97
408.652	34.54
408.865	97.12
409.078	111.84
409.291	75.42
409.504	40.93
409.717	77.55
409.93	99.25
410.143	78.71
410.357	27.75
410.57	32.79
410.783	64.76
410.996	67.86
411.209	51.78
411.421	114.17
411.634	57.59
411.847	50.23
412.06	79.87
412.273	59.14
412.486	60.69
412.699	147.1
412.912	85.49
413.125	113.78
413.338	97.5
413.55	88.59
413.763	59.34
413.976	85.1
414.189	37.64
414.402	58.75
414.615	128.5
414.827	31.24
415.04	99.83
415.253	109.52
415.466	105.45
415.678	146.33
415.891	90.33
416.104	71.15
416.316	80.84
416.529	56.62
416.742	108.35
416.954	97.7
417.167	76.77
417.38	73.87
417.592	127.15
417.805	38.8
418.017	64.37
418.23	95.76
418.442	63.79
418.655	63.21
418.868	73.48
419.08	153.69
419.293	134.51
419.505	89.37
419.718	101.96
419.93	117.46
420.142	76.19
420.355	155.43
420.567	144
420.78	118.43
420.992	96.15
421.205	146.13
421.417	83.36
421.629	57.59
421.842	57.01
422.054	53.14
422.266	118.62
422.479	115.52
422.691	92.47
422.903	142.65
423.115	107.19
423.328	91.11
423.54	109.9
423.752	98.47
423.964	62.05
424.177	105.83
424.389	93.63
424.601	207.36
424.813	124.82
425.025	148.46
425.238	133.15
425.45	101.96
425.662	89.17
425.874	424.55
426.086	126.95
426.298	116.88
426.51	129.47
426.722	113.58
426.934	110.68
427.146	160.86
427.358	83.94
427.57	175.58
427.782	103.32
427.994	137.8
428.206	75.8
428.418	90.53
428.63	131.8
428.842	144.39
429.054	142.45
429.266	140.71
429.478	99.63
429.69	120.75
429.902	86.27
430.114	144.58
430.325	140.32
430.537	107
430.749	118.04
430.961	78.9
431.173	100.99
431.384	156.79
431.596	58.56
431.808	108.55
432.02	131.22
432.231	191.28
432.443	195.54
432.655	169.77
432.867	103.32
433.078	147.3
433.29	214.53
433.502	168.61
433.713	196.51
433.925	187.6
434.136	208.71
434.348	127.53
434.56	91.69
434.771	253.86
434.983	124.63
435.194	144.39
435.406	173.45
435.617	168.8
435.829	208.71
436.04	190.31
436.252	223.83
436.463	216.08
436.675	215.88
436.886	179.26
437.098	189.34
437.309	225.76
437.521	200.77
437.732	214.91
437.943	184.69
438.155	177.71
438.366	153.5
438.578	220.34
438.789	185.85
439	207.36
439.211	189.73
439.423	223.05
439.634	209.49
439.845	245.33
440.057	240.1
440.268	241.07
440.479	187.98
440.69	227.31
440.902	202.32
441.113	216.66
441.324	208.52
441.535	241.07
441.746	272.84
441.957	190.5
442.168	199.41
442.38	262.38
442.591	261.99
442.802	206.39
443.013	226.15
443.224	253.08
443.435	228.28
443.646	231.77
443.857	232.16
444.068	198.06
444.279	226.15
444.49	311.01
444.701	249.98
444.912	330
445.123	253.08
445.334	267.81
445.545	260.83
445.756	237.97
445.967	212.2
446.178	277.49
446.388	280.98
446.599	259.09
446.81	277.69
447.021	218.6
447.232	306.36
447.443	327.48
447.653	250.95
447.864	287.96
448.075	292.41
448.286	303.26
448.496	289.12
448.707	313.14
448.918	258.31
449.129	345.11
449.339	279.43
449.55	306.17
449.761	261.8
449.971	321.28
450.182	267.23
450.393	302.29
450.603	270.33
450.814	332.13
451.024	325.93
451.235	339.49
451.446	354.02
451.656	367.78
451.867	289.89
452.077	308.3
452.288	362.16
452.498	357.51
452.709	305.98
452.919	320.12
453.13	325.54
453.34	340.85
453.55	265.87
453.761	346.27
453.971	336.39
454.182	350.15
454.392	320.51
454.602	376.69
454.813	327.29
455.023	373.4
455.233	305.2
455.444	327.29
455.654	284.08
455.864	340.85
456.075	309.46
456.285	317.41
456.495	320.12
456.705	343.76
456.916	391.22
457.126	386.19
457.336	340.27
457.546	262.96
457.756	329.22
457.967	370.49
458.177	312.37
458.387	340.85
458.597	297.45
458.807	324.96
459.017	346.27
459.227	317.41
459.437	332.13
459.647	359.06
459.857	374.17
460.068	324.77
460.278	388.9
460.488	324.77
460.698	404.98
460.908	339.11
461.117	290.48
461.327	346.27
461.537	361.77
461.747	361
461.957	346.08
462.167	464.65
462.377	392.58
462.587	389.87
462.797	417.57
463.007	360.42
463.216	387.35
463.426	408.27
463.636	404.98
463.846	329.22
464.056	356.35
464.265	398.01
464.475	336.59
464.685	356.54
464.895	394.91
465.104	347.05
465.314	413.51
465.524	371.07
465.733	345.89
465.943	422.61
466.153	448.57
466.362	447.22
466.572	424.55
466.782	343.17
466.991	407.5
467.201	442.57
467.41	360.22
467.62	391.42
467.829	385.02
468.039	429.78
468.249	376.69
468.458	398.01
468.668	410.41
468.877	432.88
469.086	475.12
469.296	475.7
469.505	408.47
469.715	498.37
469.924	444.12
470.134	466.79
470.343	479.38
470.552	418.35
470.762	409.63
470.971	406.72
471.18	436.37
471.39	421.25
471.599	379.99
471.808	443.54
472.018	411.18
472.227	471.44
472.436	500.11
472.645	443.92
472.855	425.13
473.064	518.71
473.273	510.77
473.482	492.94
473.691	473.95
473.901	492.75
474.11	486.35
474.319	580.52
474.528	497.4
474.737	549.71
474.946	509.6
475.155	514.06
475.364	533.05
475.573	521.81
475.783	499.72
475.992	552.23
476.201	561.14
476.41	534.6
476.619	490.23
476.828	525.49
477.037	499.53
477.245	508.25
477.454	569.08
477.663	529.37
477.872	503.98
478.081	566.18
478.29	507.86
478.499	647.36
478.708	583.62
478.917	617.71
479.125	568.89
479.334	567.53
479.543	562.3
479.752	581.29
479.961	596.79
480.169	607.83
480.378	572.77
480.587	681.84
480.796	595.05
481.004	588.27
481.213	626.63
481.422	614.23
481.63	638.83
481.839	621.4
482.048	707.03
482.256	661.89
482.465	645.23
482.674	663.63
482.882	658.98
483.091	730.48
483.299	664.21
483.508	669.45
483.716	676.42
483.925	663.63
484.134	658.79
484.342	630.11
484.551	679.13
484.759	665.96
484.967	694.44
485.176	705.09
485.384	716.53
485.593	737.06
485.801	672.16
486.01	683.39
486.218	641.93
486.426	578
486.635	603.18
486.843	584.2
487.051	622.95
487.26	634.38
487.468	684.56
487.676	708
487.885	694.63
488.093	685.14
488.301	741.91
488.509	721.37
488.717	753.14
488.926	711.68
489.134	713.43
489.342	699.28
489.55	675.45
489.758	713.04
489.967	711.29
490.175	838.97
490.383	760.31
490.591	812.04
490.799	727.18
491.007	830.06
491.215	783.56
491.423	792.09
491.631	750.24
491.839	760.89
492.047	803.32
492.255	738.03
492.463	753.14
492.671	754.31
492.879	834.91
493.087	769.22
493.295	792.28
493.503	840.14
493.711	804.68
493.919	841.3
494.127	842.66
494.334	854.86
494.542	783.56
494.75	822.31
494.958	821.15
495.166	857.57
495.374	851.18
495.581	879.66
495.789	864.35
495.997	905.04
496.205	806.04
496.412	826.77
496.62	842.07
496.828	879.47
497.035	827.35
497.243	863.19
497.451	867.26
497.658	867.07
497.866	866.49
498.074	927.13
498.281	848.86
498.489	923.64
498.696	862.42
498.904	842.27
499.112	835.49
499.319	931.78
499.527	869.2
499.734	911.82
499.942	828.71
500.149	883.92
500.357	877.92
500.564	853.7
500.771	903.3
500.979	878.5
501.186	821.73
501.394	886.05
501.601	881.4
501.808	903.88
502.016	872.49
502.223	853.5
502.43	891.48
502.638	908.53
502.845	854.86
503.052	1004.63
503.26	908.34
503.467	981.18
503.674	912.02
503.881	926.16
504.089	1013.93
504.296	932.75
504.503	886.25
504.71	908.34
504.917	882.95
505.125	948.83
505.332	938.56
505.539	952.32
505.746	1018.58
505.953	1016.25
506.16	995.33
506.367	1063.33
506.574	1044.73
506.781	1070.7
506.988	983.51
507.195	1028.07
507.402	988.74
507.609	1043.57
507.816	970.53
508.023	997.07
508.23	978.47
508.437	951.73
508.644	1003.85
508.851	1049.19
509.058	1050.55
509.265	1057.33
509.472	1034.85
509.679	1112.35
509.885	1058.68
510.092	1018.38
510.299	1025.36
510.506	1036.4
510.713	1051.32
510.92	1058.1
511.126	1051.9
511.333	1086
511.54	1088.91
511.746	1111
511.953	1144.9
512.16	1138.12
512.367	1111.19
512.573	1107.7
512.78	1117.19
512.987	1096.85
513.193	1101.89
513.4	1052.29
513.606	1106.35
513.813	1154.01
514.02	1089.68
514.226	1148.39
514.433	1144.13
514.639	1104.21
514.846	1111.96
515.052	1099.56
515.259	1123.39
515.465	1161.95
515.672	1135.79
515.878	1228.6
516.085	1128.24
516.291	1184.04
516.497	1169.51
516.704	1128.43
516.91	1091.04
517.117	1049.38
517.323	1007.92
517.529	1055.97
517.736	1059.07
517.942	1070.89
518.148	1081.35
518.354	1091.04
518.561	1159.24
518.767	1131.34
518.973	1166.21
519.179	1179.78
519.386	1164.86
519.592	1177.64
519.798	1180.16
520.004	1271.81
520.21	1204.19
520.417	1290.99
520.623	1320.24
520.829	1293.7
521.035	1286.72
521.241	1325.86
521.447	1297.38
521.653	1432.62
521.859	1275.29
522.065	1337.87
522.271	1421.77
522.477	1377.78
522.683	1396.38
522.889	1380.5
523.095	1370.62
523.301	1364.03
523.507	1320.24
523.713	1351.24
523.919	1318.5
524.125	1417.31
524.331	1384.18
524.537	1470.98
524.742	1470.4
524.948	1460.13
525.154	1484.54
525.36	1535.3
525.566	1468.65
525.772	1531.62
525.977	1398.71
526.183	1470.4
526.389	1499.46
526.595	1433.2
526.8	1411.3
527.006	1369.65
527.212	1345.43
527.417	1330.51
527.623	1329.74
527.829	1398.32
528.034	1461.1
528.24	1421.38
528.446	1402.97
528.651	1512.25
528.857	1510.5
529.062	1568.43
529.268	1550.41
529.473	1575.99
529.679	1564.75
529.884	1627.72
530.09	1582.96
530.295	1616.09
530.501	1606.79
530.706	1591.68
530.912	1531.43
531.117	1595.36
531.323	1602.92
531.528	1636.05
531.733	1625.39
531.939	1635.86
532.144	1627.91
532.35	1622.68
532.555	1651.16
532.76	1644.38
532.966	1625.2
533.171	1619.78
533.376	1570.56
533.581	1537.63
533.787	1584.32
533.992	1605.44
534.197	1671.89
534.402	1645.16
534.607	1631.79
534.813	1730.4
535.018	1650
535.223	1632.37
535.428	1675.38
535.633	1703.67
535.838	1706.19
536.043	1712.77
536.249	1769.54
536.454	1694.17
536.659	1729.82
536.864	1693.01
537.069	1688.56
537.274	1705.99
537.479	1716.46
537.684	1733.7
537.889	1668.02
538.094	1759.66
538.299	1726.53
538.504	1718.59
538.708	1719.17
538.913	1797.64
539.118	1755.01
539.323	1743
539.528	1699.02
539.733	1711.42
539.938	1767.02
540.142	1719.17
540.347	1665.69
540.552	1671.89
540.757	1673.64
540.962	1663.95
541.166	1612.41
541.371	1659.49
541.576	1704.83
541.781	1606.02
541.985	1720.72
542.19	1707.93
542.395	1777.1
542.599	1786.59
542.804	1753.65
543.008	1796.28
543.213	1716.84
543.418	1666.47
543.622	1771.67
543.827	1710.26
544.031	1802.09
544.236	1816.04
544.44	1741.84
544.645	1851.11
544.849	1742.22
545.054	1796.28
545.258	1861.38
545.463	1828.44
545.667	1767.6
545.872	1811.39
546.076	1782.33
546.281	1825.34
546.485	1763.92
546.689	1803.84
546.894	1818.75
547.098	1784.46
547.302	1790.27
547.507	1811.39
547.711	1798.02
547.915	1855.37
548.119	1764.12
548.324	1768.57
548.528	1836.38
548.732	1819.53
548.936	1876.1
549.141	1849.37
549.345	1803.64
549.549	1823.02
549.753	1827.28
549.957	1902.84
550.161	1879.01
550.366	1861.57
550.57	1792.21
550.774	1865.06
550.978	1819.14
551.182	1859.44
551.386	1787.56
551.59	1834.06
551.794	1801.9
551.998	1864.28
552.202	1819.33
552.406	1843.75
552.61	1857.31
552.814	1863.9
553.018	1893.35
553.222	1821.66
553.426	1829.99
553.63	1943.53
553.833	1871.65
554.037	1799.96
554.241	1887.15
554.445	1843.75
554.649	1865.25
554.853	1848.59
555.056	1902.06
555.26	1891.41
555.464	1888.5
555.668	1876.49
555.871	1873.2
556.075	1929.58
556.279	1823.4
556.483	1799.57
556.686	1820.88
556.89	1834.83
557.094	1872.42
557.297	1728.66
557.501	1831.35
557.704	1722.85
557.908	1882.3
558.112	1785.04
558.315	1850.72
558.519	1797.44
558.722	1788.92
558.926	1774.39
559.129	1716.07
559.333	1681.58
559.536	1721.88
559.74	1703.28
559.943	1698.82
560.147	1693.79
560.35	1706.96
560.553	1761.99
560.757	1681.39
560.96	1780.2
561.164	1722.27
561.367	1796.67
561.57	1725.56
561.774	1748.81
561.977	1733.31
562.18	1722.85
562.384	1812.94
562.587	1752.1
562.79	1765.47
562.993	1737.19
563.197	1776.71
563.4	1788.34
563.603	1820.5
563.806	1833.28
564.009	1700.96
564.212	1750.75
564.416	1645.54
564.619	1721.11
564.822	1655.23
565.025	1740.67
565.228	1658.14
565.431	1694.95
565.634	1617.64
565.837	1633.14
566.04	1624.04
566.243	1641.67
566.446	1551.77
566.649	1668.99
566.852	1593.23
567.055	1625.01
567.258	1641.47
567.461	1694.76
567.664	1664.14
567.867	1604.28
568.07	1658.91
568.273	1623.26
568.475	1711.81
568.678	1561.26
568.881	1606.79
569.084	1566.3
569.287	1512.25
569.489	1494.81
569.692	1597.88
569.895	1578.51
570.098	1519.22
570.3	1531.23
570.503	1445.4
570.706	1517.48
570.909	1434.17
571.111	1464
571.314	1457.42
571.516	1462.07
571.719	1460.9
571.922	1481.44
572.124	1460.9
572.327	1509.34
572.529	1418.47
572.732	1426.61
572.935	1472.33
573.137	1547.31
573.34	1478.53
573.542	1497.13
573.745	1461.1
573.947	1506.24
574.15	1455.28
574.352	1444.24
574.554	1544.99
574.757	1403.17
574.959	1432.42
575.162	1419.63
575.364	1406.46
575.566	1524.06
575.769	1408.2
575.971	1428.35
576.173	1348.92
576.376	1438.04
576.578	1447.73
576.78	1466.33
576.982	1341.36
577.185	1408.4
577.387	1352.21
577.589	1390.96
577.791	1426.8
577.993	1403.94
578.196	1372.75
578.398	1395.22
578.6	1431.84
578.802	1347.56
579.004	1361.7
579.206	1349.5
579.408	1373.52
579.61	1326.64
579.812	1421.18
580.014	1353.76
580.216	1364.61
580.418	1323.15
580.62	1364.42
580.822	1331.87
581.024	1379.53
581.226	1418.28
581.428	1348.72
581.63	1445.98
581.832	1337.87
582.034	1428.74
582.236	1371.59
582.438	1417.7
582.64	1429.9
582.841	1458.77
583.043	1493.06
583.245	1443.47
583.447	1399.87
583.649	1385.92
583.85	1397.74
584.052	1409.56
584.254	1402.39
584.456	1426.8
584.657	1351.63
584.859	1399.29
585.061	1371.2
585.262	1301.06
585.464	1340.59
585.666	1404.72
585.867	1322.76
586.069	1401.42
586.27	1388.25
586.472	1327.02
586.674	1315.2
586.875	1326.83
587.077	1301.25
587.278	1333.03
587.48	1332.45
587.681	1452.38
587.883	1388.83
588.084	1270.45
588.285	1321.79
588.487	1301.64
588.688	1328.57
588.89	1226.47
589.091	1197.21
589.292	1241.58
589.494	1214.65
589.695	1188.3
589.896	1096.08
590.098	1115.06
590.299	1167.96
590.5	1127.27
590.702	1196.44
590.903	1190.43
591.104	1288.66
591.305	1234.02
591.507	1298.35
591.708	1255.14
591.909	1277.42
592.11	1307.07
592.311	1288.85
592.512	1226.08
592.714	1184.62
592.915	1179.58
593.116	1210.58
593.317	1221.04
593.518	1239.06
593.719	1229.76
593.92	1254.95
594.121	1250.11
594.322	1224.72
594.523	1239.26
594.724	1197.6
594.925	1213.1
595.126	1240.42
595.327	1217.94
595.528	1209.61
595.729	1244.29
595.929	1218.52
596.13	1191.79
596.331	1184.62
596.532	1215.42
596.733	1279.56
596.934	1254.95
597.135	1260.18
597.335	1212.52
597.536	1193.53
597.737	1206.32
597.938	1183.65
598.138	1223.17
598.339	1175.13
598.54	1244.49
598.74	1210.97
598.941	1219.3
599.142	1266.96
599.342	1248.56
599.543	1193.92
599.744	1217.75
599.944	1206.32
600.145	1227.63
600.345	1243.32
600.546	1312.88
600.746	1290.4
600.947	1333.42
601.147	1243.71
601.348	1269.67
601.548	1203.8
601.749	1223.76
601.949	1157.3
602.15	1212.13
602.35	1200.31
602.551	1241
602.751	1160.01
602.951	1194.69
603.152	1140.64
603.352	1232.67
603.552	1229.57
603.753	1246.23
603.953	1238.67
604.153	1210.97
604.354	1235.77
604.554	1206.71
604.754	1212.91
604.954	1167.18
605.155	1238.09
605.355	1194.89
605.555	1233.64
605.755	1268.12
605.955	1219.3
606.155	1243.32
606.356	1196.63
606.556	1253.4
606.756	1215.04
606.956	1180.74
607.156	1258.44
607.356	1201.47
607.556	1211.74
607.756	1226.27
607.956	1236.16
608.156	1170.86
608.356	1187.53
608.556	1261.34
608.756	1192.37
608.956	1161.95
609.156	1190.43
609.356	1143.93
609.556	1163.31
609.755	1194.11
609.955	1145.29
610.155	1164.28
610.355	1183.07
610.555	1132.31
610.755	1177.84
610.954	1080.77
611.154	1144.32
611.354	1199.73
611.554	1154.39
611.753	1141.22
611.953	1109.06
612.153	1197.79
612.352	1165.44
612.552	1083.29
612.752	1092.78
612.951	1155.94
613.151	1165.83
613.351	1064.11
613.55	1119.52
613.75	1117.97
613.949	1135.6
614.149	1135.21
614.348	1115.06
614.548	1063.53
614.747	1043.38
614.947	1084.84
615.146	1036.98
615.346	1135.41
615.545	1102.86
615.745	1106.93
615.944	1153.23
616.144	1070.31
616.343	1112.16
616.542	1054.81
616.742	1067.4
616.941	1082.9
617.14	997.07
617.34	1049.96
617.539	1081.16
617.738	1039.7
617.938	1127.66
618.137	1072.83
618.336	1017.03
618.535	1112.74
618.734	1054.23
