Data from pine_FLMT105791__62__17-21-02-078.txt Node

Date: Mon Mar 20 17:21:02 GMT 2023
User: antho
Spectrometer: FLMT10579
Trigger mode: 0
Integration Time (sec): 1.000000E-1
Scans to average: 10
Electric dark correction enabled: true
Nonlinearity correction enabled: false
Boxcar width: 0
XAxis mode: Wavelengths
Number of Pixels in Spectrum: 3648
>>>>>Begin Spectral Data<<<<<
345.248	-163.88
345.464	-163.88
345.681	-163.88
345.898	-154.97
346.114	-184.61
346.331	-36.59
346.548	43.82
346.764	6.04
346.981	-10.24
347.197	-18.76
347.414	14.95
347.631	-44.72
347.847	53.7
348.064	13.21
348.28	28.32
348.497	-47.24
348.713	-2.49
348.93	31.23
349.146	-4.23
349.363	-17.4
349.579	23.48
349.796	-19.15
350.012	-6.94
350.229	40.91
350.445	4.68
350.661	-2.1
350.878	-16.44
351.094	7.78
351.311	-5.97
351.527	11.85
351.743	0.23
351.96	27.16
352.176	43.24
352.392	0.23
352.609	21.15
352.825	26.38
353.041	3.52
353.257	-16.24
353.474	13.21
353.69	-4.62
353.906	22.7
354.122	-30.58
354.339	36.26
354.555	0.81
354.771	-20.31
354.987	60.68
355.203	57.77
355.42	-2.68
355.636	-15.27
355.852	-30
356.068	3.71
356.284	-37.75
356.5	67.46
356.716	1.19
356.932	-16.82
357.148	-0.94
357.364	-11.21
357.58	48.86
357.796	67.07
358.012	44.98
358.228	16.89
358.444	-54.41
358.66	38.39
358.876	30.45
359.092	2.36
359.308	25.22
359.524	23.67
359.74	-17.21
359.956	-25.74
360.172	1.97
360.388	26.19
360.604	-1.52
360.819	53.12
361.035	26.19
361.251	38.39
361.467	-41.82
361.683	44.01
361.898	29.09
362.114	45.18
362.33	22.12
362.546	24.44
362.762	4.88
362.977	13.59
363.193	-41.43
363.409	42.85
363.624	-30.77
363.84	-20.5
364.056	-7.52
364.271	16.69
364.487	8.17
364.703	-30.58
364.918	-39.3
365.134	-5.59
365.35	-12.76
365.565	121.51
365.781	-1.32
365.996	13.4
366.212	50.6
366.427	6.04
366.643	-12.95
366.858	-10.82
367.074	-10.04
367.289	36.65
367.505	100.2
367.72	-38.91
367.936	9.53
368.151	14.18
368.367	19.02
368.582	-6.75
368.798	-31.55
369.013	46.14
369.228	-26.51
369.444	13.59
369.659	43.82
369.874	-10.43
370.09	31.61
370.305	-73.01
370.52	-16.05
370.736	51.57
370.951	2.94
371.166	54.86
371.381	61.06
371.597	41.88
371.812	-17.02
372.027	3.33
372.242	6.23
372.458	80.24
372.673	-11.79
372.888	14.95
373.103	36.07
373.318	104.07
373.533	41.69
373.749	49.05
373.964	-65.26
374.179	77.14
374.394	-30.77
374.609	51.57
374.824	-28.25
375.039	54.67
375.254	-16.24
375.469	36.46
375.684	19.21
375.899	50.21
376.114	25.22
376.329	24.44
376.544	61.64
376.759	40.53
376.974	-14.5
377.189	12.24
377.404	1.39
377.619	50.41
377.834	-39.69
378.049	-31.94
378.264	-28.84
378.478	-17.4
378.693	-5.97
378.908	20.18
379.123	-22.25
379.338	38.78
379.553	22.7
379.767	11.27
379.982	41.69
380.197	12.63
380.412	15.92
380.626	27.16
380.841	102.14
381.056	6.62
381.271	53.89
381.485	-10.04
381.7	-21.67
381.915	12.43
382.129	-0.16
382.344	10.49
382.559	-3.26
382.773	35.1
382.988	-61.58
383.202	1.97
383.417	-21.47
383.632	105.82
383.846	30.26
384.061	17.08
384.275	1.19
384.49	32.97
384.704	38.01
384.919	5.26
385.133	16.89
385.348	46.14
385.562	-53.25
385.777	48.66
385.991	40.14
386.206	-7.33
386.42	4.49
386.634	39.36
386.849	7.01
387.063	27.35
387.277	-23.6
387.492	-13.72
387.706	-19.92
387.92	-26.7
388.135	20.38
388.349	6.43
388.563	11.08
388.778	16.69
388.992	23.09
389.206	30.84
389.42	111.05
389.635	31.03
389.849	13.98
390.063	48.66
390.277	11.46
390.491	95.55
390.706	46.14
390.92	27.54
391.134	-9.07
391.348	53.7
391.562	-51.7
391.776	15.34
391.99	-7.33
392.205	45.76
392.419	-21.47
392.633	6.43
392.847	56.03
393.061	11.85
393.275	72.88
393.489	24.06
393.703	26.19
393.917	62.61
394.131	-5.01
394.345	24.44
394.559	57.38
394.773	18.44
394.986	44.21
395.2	8.94
395.414	13.59
395.628	11.27
395.842	40.53
396.056	-16.24
396.27	-36.39
396.484	5.65
396.697	17.08
396.911	69.01
397.125	25.8
397.339	38.78
397.553	42.66
397.766	86.25
397.98	51.57
398.194	42.66
398.408	-0.55
398.621	13.59
398.835	29.29
399.049	8.94
399.262	56.99
399.476	33.36
399.69	49.44
399.903	87.8
400.117	28.71
400.331	38.2
400.544	16.69
400.758	119.57
400.971	-6.75
401.185	57.96
401.398	-17.99
401.612	69.2
401.826	43.63
402.039	52.54
402.253	-4.04
402.466	36.65
402.68	20.38
402.893	34.33
403.106	8.36
403.32	5.26
403.533	25.61
403.747	20.18
403.96	20.38
404.174	28.32
404.387	-5.39
404.6	20.57
404.814	54.86
405.027	21.15
405.24	12.82
405.454	15.14
405.667	53.31
405.88	-37.94
406.094	15.34
406.307	73.07
406.52	12.63
406.733	2.16
406.947	-19.15
407.16	63
407.373	60.68
407.586	-7.14
407.799	-1.32
408.012	41.3
408.226	39.94
408.439	75.21
408.652	-29.22
408.865	28.13
409.078	61.06
409.291	33.36
409.504	-19.34
409.717	50.79
409.93	40.53
410.143	16.69
410.357	-17.21
410.57	-6.75
410.783	18.24
410.996	32.78
411.209	13.21
411.421	52.54
411.634	27.35
411.847	-2.87
412.06	21.93
412.273	32
412.486	40.53
412.699	105.24
412.912	3.52
413.125	38.39
413.338	29.68
413.55	62.81
413.763	5.07
413.976	47.69
414.189	10.49
414.402	43.82
414.615	60.09
414.827	-34.26
415.04	55.06
415.253	37.43
415.466	54.86
415.678	76.17
415.891	29.09
416.104	36.84
416.316	24.64
416.529	-3.84
416.742	54.09
416.954	71.53
417.167	32.78
417.38	15.73
417.592	70.56
417.805	-4.23
418.017	5.65
418.23	61.45
418.442	13.79
418.655	-3.84
418.868	32.78
419.08	59.9
419.293	71.91
419.505	33.74
419.718	28.9
419.93	81.41
420.142	17.28
420.355	52.34
420.567	78.69
420.78	61.64
420.992	25.41
421.205	72.3
421.417	9.33
421.629	16.5
421.842	-3.07
422.054	15.73
422.266	59.71
422.479	64.36
422.691	23.48
422.903	60.09
423.115	14.37
423.328	2.74
423.54	59.9
423.752	9.91
423.964	15.14
424.177	28.71
424.389	55.64
424.601	153.09
424.813	62.81
425.025	94.97
425.238	39.75
425.45	34.91
425.662	54.67
425.874	336.76
426.086	45.95
426.298	54.09
426.51	35.68
426.722	24.06
426.934	43.04
427.146	82.76
427.358	14.18
427.57	55.64
427.782	23.86
427.994	45.37
428.206	14.76
428.418	-19.34
428.63	44.79
428.842	71.33
429.054	52.54
429.266	82.37
429.478	26.96
429.69	52.73
429.902	2.74
430.114	97.49
430.325	71.91
430.537	27.93
430.749	48.08
430.961	-8.11
431.173	41.69
431.384	64.74
431.596	-26.32
431.808	34.91
432.02	58.93
432.231	79.08
432.443	37.43
432.655	60.87
432.867	15.92
433.078	56.61
433.29	106.59
433.502	91.67
433.713	88.77
433.925	54.48
434.136	96.91
434.348	29.48
434.56	-11.59
434.771	129.65
434.983	-5.01
435.194	5.26
435.406	67.07
435.617	65.91
435.829	110.08
436.04	83.15
436.252	112.6
436.463	104.66
436.675	64.16
436.886	79.27
437.098	71.72
437.309	122.67
437.521	59.51
437.732	69.78
437.943	66.49
438.155	83.73
438.366	9.14
438.578	91.48
438.789	46.14
439	104.46
439.211	57.38
439.423	59.71
439.634	89.74
439.845	74.04
440.057	84.89
440.268	107.95
440.479	24.06
440.69	64.36
440.902	72.11
441.113	81.21
441.324	94.39
441.535	78.11
441.746	128.87
441.957	18.44
442.168	49.83
442.38	94.39
442.591	110.27
442.802	45.76
443.013	71.33
443.224	90.32
443.435	71.53
443.646	81.21
443.857	56.41
444.068	54.09
444.279	56.8
444.49	96.71
444.701	100.2
444.912	199.79
445.123	136.62
445.334	110.27
445.545	70.94
445.756	79.47
445.967	68.62
446.178	118.22
446.388	112.99
446.599	109.89
446.81	121.9
447.021	78.5
447.232	146.7
447.443	160.84
447.653	116.28
447.864	113.57
448.075	101.56
448.286	139.14
448.496	106.98
448.707	111.44
448.918	71.14
449.129	192.04
449.339	73.85
449.55	97.87
449.761	117.64
449.971	169.17
450.182	93.03
450.393	118.99
450.603	92.64
450.814	131.97
451.024	130.23
451.235	154.64
451.446	170.53
451.656	183.9
451.867	84.31
452.077	129.84
452.288	179.83
452.498	186.42
452.709	120.74
452.919	133.14
453.13	100.97
453.34	185.25
453.55	82.18
453.761	171.69
453.971	150.96
454.182	144.37
454.392	161.42
454.602	162.97
454.813	136.43
455.023	159.29
455.233	91.87
455.444	148.83
455.654	82.37
455.864	123.45
456.075	98.07
456.285	80.24
456.495	140.69
456.705	149.41
456.916	163.17
457.126	176.73
457.336	122.48
457.546	66.29
457.756	102.33
457.967	148.06
458.177	118.22
458.387	148.83
458.597	105.82
458.807	139.92
459.017	125.58
459.227	156
459.437	135.66
459.647	143.41
459.857	156.19
460.068	119.19
460.278	163.94
460.488	175.18
460.698	183.9
460.908	153.09
461.117	103.49
461.327	120.93
461.537	139.34
461.747	147.86
461.957	147.67
462.167	240.86
462.377	208.31
462.587	153.29
462.797	187.77
463.007	148.25
463.216	179.64
463.426	212.96
463.636	203.27
463.846	112.79
464.056	145.54
464.265	205.21
464.475	138.76
464.685	169.75
464.895	174.21
465.104	155.61
465.314	190.1
465.524	139.72
465.733	123.06
465.943	215.09
466.153	234.47
466.362	204.24
466.572	165.69
466.782	125
466.991	179.64
467.201	216.64
467.41	146.7
467.62	183.12
467.829	178.86
468.039	189.71
468.249	152.9
468.458	181.77
468.668	193.97
468.877	191.65
469.086	226.91
469.296	203.47
469.505	147.47
469.715	223.62
469.924	191.84
470.134	230.79
470.343	208.31
470.552	167.82
470.762	185.25
470.971	144.96
471.18	205.4
471.39	191.45
471.599	157.36
471.808	227.1
472.018	164.52
472.227	221.87
472.436	218.19
472.645	187
472.855	158.71
473.064	235.24
473.273	197.07
473.482	245.9
473.691	225.17
473.901	230.59
474.11	187.39
474.319	284.45
474.528	212.19
474.737	252.87
474.946	225.94
475.155	224.59
475.364	237.57
475.573	203.08
475.783	217.22
475.992	235.82
476.201	251.71
476.41	210.64
476.619	184.09
476.828	231.75
477.037	202.11
477.245	242.41
477.454	249.38
477.663	225.36
477.872	220.71
478.081	284.26
478.29	200.17
478.499	292.59
478.708	247.06
478.917	295.5
479.125	251.52
479.334	239.7
479.543	212.19
479.752	272.63
479.961	261.59
480.169	301.7
480.378	236.21
480.587	374.74
480.796	278.64
481.004	226.91
481.213	286
481.422	271.28
481.63	261.01
481.839	275.54
482.048	324.37
482.256	278.45
482.465	287.75
482.674	269.53
482.882	293.17
483.091	365.05
483.299	304.41
483.508	290.46
483.716	276.9
483.925	297.05
484.134	283.48
484.342	256.94
484.551	320.1
484.759	293.56
484.967	332.31
485.176	320.68
485.384	328.63
485.593	338.9
485.801	302.47
486.01	280.77
486.218	301.7
486.426	249
486.635	262.17
486.843	261.78
487.051	292.98
487.26	294.53
487.468	331.15
487.676	319.72
487.885	265.66
488.093	280.38
488.301	284.07
488.509	291.62
488.717	335.02
488.926	304.22
489.134	304.22
489.342	328.82
489.55	270.5
489.758	299.95
489.967	273.6
490.175	397.8
490.383	284.26
490.591	377.45
490.799	281.55
491.007	365.25
491.215	333.08
491.423	315.65
491.631	288.72
491.839	341.03
492.047	376.48
492.255	303.63
492.463	253.84
492.671	349.36
492.879	381.52
493.087	340.83
493.295	354.01
493.503	363.31
493.711	372.41
493.919	389.66
494.127	366.41
494.334	405.93
494.542	348.39
494.75	364.66
494.958	341.41
495.166	422.98
495.374	374.93
495.581	380.36
495.789	354.2
495.997	431.89
496.205	370.09
496.412	365.05
496.62	362.92
496.828	385.98
497.035	349.75
497.243	402.83
497.451	371.83
497.658	373.96
497.866	362.53
498.074	437.71
498.281	378.23
498.489	463.28
498.696	401.28
498.904	365.44
499.112	379
499.319	456.89
499.527	408.84
499.734	403.41
499.942	348.78
500.149	341.41
500.357	370.48
500.564	383.85
500.771	427.44
500.979	397.02
501.186	401.28
501.394	421.43
501.601	422.01
501.808	441.58
502.016	380.94
502.223	401.86
502.43	403.61
502.638	416.4
502.845	395.08
503.052	464.06
503.26	399.35
503.467	454.37
503.674	393.34
503.881	420.08
504.089	509.78
504.296	470.64
504.503	390.05
504.71	440.81
504.917	369.9
505.125	431.7
505.332	429.57
505.539	454.95
505.746	492.34
505.953	460.76
506.16	449.91
506.367	478.78
506.574	468.51
506.781	498.16
506.988	386.95
507.195	444.49
507.402	435.58
507.609	469.87
507.816	429.57
508.023	449.33
508.23	432.48
508.437	392.56
508.644	481.49
508.851	538.26
509.058	492.15
509.265	457.47
509.472	472.19
509.679	567.32
509.885	445.46
510.092	458.83
510.299	458.83
510.506	464.64
510.713	481.88
510.92	520.63
511.126	492.73
511.333	486.73
511.54	521.02
511.746	531.87
511.953	528.96
512.16	543.11
512.367	489.44
512.573	510.36
512.78	514.24
512.987	483.24
513.193	490.02
513.4	430.34
513.606	491.96
513.813	516.76
514.02	483.24
514.226	587.67
514.433	546.21
514.639	478.98
514.846	535.36
515.052	499.51
515.259	502.23
515.465	499.51
515.672	509.97
515.878	587.47
516.085	516.37
516.291	567.13
516.497	500.87
516.704	529.54
516.91	482.08
517.117	471.03
517.323	459.6
517.529	510.17
517.736	510.75
517.942	494.09
518.148	493.7
518.354	517.53
518.561	519.27
518.767	525.28
518.973	555.89
519.179	572.94
519.386	502.42
519.592	505.33
519.798	506.68
520.004	558.41
520.21	517.53
520.417	577.21
520.623	575.85
520.829	591.35
521.035	577.4
521.241	593.48
521.447	615.76
521.653	679.12
521.859	597.55
522.065	597.55
522.271	664.2
522.477	633.39
522.683	637.85
522.889	634.75
523.095	617.12
523.301	614.99
523.507	584.18
523.713	642.89
523.919	617.12
524.125	654.51
524.331	624.09
524.537	676.21
524.742	674.66
524.948	693.45
525.154	665.94
525.36	759.13
525.566	676.99
525.772	724.65
525.977	629.13
526.183	697.52
526.389	725.03
526.595	658.97
526.8	692.48
527.006	636.69
527.212	627.97
527.417	589.22
527.623	613.24
527.829	659.74
528.034	679.31
528.24	680.86
528.446	630.49
528.651	692.48
528.857	671.95
529.062	740.92
529.268	694.62
529.473	698.1
529.679	659.55
529.884	751.19
530.09	741.31
530.295	763.01
530.501	776.57
530.706	723.68
530.912	699.27
531.117	708.18
531.323	714.77
531.528	751.97
531.733	756.23
531.939	711.08
532.144	791.68
532.35	755.07
532.555	791.68
532.76	767.27
532.966	806.02
533.171	771.34
533.376	734.92
533.581	710.12
533.787	754.87
533.992	766.88
534.197	797.3
534.402	733.75
534.607	760.68
534.813	823.26
535.018	725.42
535.223	747.12
535.428	766.11
535.633	804.08
535.838	805.05
536.043	772.89
536.249	858.14
536.454	794.78
536.659	808.35
536.864	765.53
537.069	781.8
537.274	775.99
537.479	792.85
537.684	825.01
537.889	765.33
538.094	872.67
538.299	791.68
538.504	842.45
538.708	823.65
538.913	822.68
539.118	813.58
539.323	830.24
539.528	775.8
539.733	790.71
539.938	817.65
540.142	808.15
540.347	807.57
540.552	794.4
540.757	811.06
540.962	789.36
541.166	770.76
541.371	763.59
541.576	815.32
541.781	706.05
541.985	791.68
542.19	804.47
542.395	854.07
542.599	875.58
542.804	873.64
543.008	879.84
543.213	803.7
543.418	751.97
543.622	868.79
543.827	786.06
544.031	862.79
544.236	880.61
544.44	845.16
544.645	905.61
544.849	854.07
545.054	865.89
545.258	928.08
545.463	885.26
545.667	817.45
545.872	885.46
546.076	851.16
546.281	860.85
546.485	840.12
546.689	886.81
546.894	921.69
547.098	845.16
547.302	807.96
547.507	845.16
547.711	859.49
547.915	951.14
548.119	813.38
548.324	834.7
548.528	916.65
548.732	850.2
548.936	890.88
549.141	899.02
549.345	825.78
549.549	867.63
549.753	874.41
549.957	914.91
550.161	925.95
550.366	881.78
550.57	842.64
550.774	867.05
550.978	852.71
551.182	907.35
551.386	865.11
551.59	853.1
551.794	826.17
551.998	900.18
552.202	891.46
552.406	816.1
552.61	894.95
552.814	878.68
553.018	938.35
553.222	861.24
553.426	864.73
553.63	955.59
553.833	873.64
554.037	817.06
554.241	893.98
554.445	869.76
554.649	883.52
554.853	875.58
555.056	918.78
555.26	913.16
555.464	897.28
555.668	893.79
555.871	906.58
556.075	953.85
556.279	848.65
556.483	845.16
556.686	886.04
556.89	895.73
557.094	898.63
557.297	850
557.501	910.64
557.704	797.3
557.908	937.19
558.112	868.41
558.315	924.01
558.519	876.74
558.722	844.96
558.926	844.19
559.129	816.87
559.333	811.06
559.536	821.52
559.74	818.81
559.943	792.26
560.147	789.36
560.35	807.38
560.553	829.08
560.757	758.36
560.96	872.28
561.164	794.98
561.367	885.84
561.57	830.63
561.774	853.1
561.977	851.36
562.18	820.75
562.384	919.36
562.587	815.9
562.79	821.71
562.993	837.6
563.197	867.63
563.4	902.7
563.603	884.29
563.806	914.52
564.009	806.8
564.212	847.68
564.416	779.67
564.619	824.81
564.822	781.61
565.025	879.06
565.228	842.64
565.431	832.76
565.634	755.07
565.837	827.53
566.04	793.23
566.243	790.33
566.446	739.57
566.649	817.26
566.852	777.93
567.055	786.65
567.258	810.67
567.461	865.5
567.664	844.38
567.867	734.14
568.07	805.63
568.273	803.11
568.475	854.85
568.678	817.65
568.881	781.03
569.084	802.92
569.287	684.73
569.489	711.08
569.692	821.71
569.895	808.93
570.098	739.18
570.3	746.93
570.503	710.5
570.706	751.97
570.909	720.97
571.111	712.83
571.314	713.6
571.516	761.46
571.719	731.04
571.922	716.32
572.124	697.33
572.327	739.37
572.529	697.52
572.732	677.37
572.935	738.6
573.137	777.93
573.34	729.88
573.542	757
573.745	734.53
573.947	748.67
574.15	729.3
574.352	711.86
574.554	764.17
574.757	688.42
574.959	660.13
575.162	684.93
575.364	707.4
575.566	808.93
575.769	674.08
575.971	701.4
576.173	598.9
576.376	686.87
576.578	727.36
576.78	730.46
576.982	623.51
577.185	668.46
577.387	648.12
577.589	639.01
577.791	719.61
577.993	713.8
578.196	698.88
578.398	725.42
578.6	742.86
578.802	670.4
579.004	685.7
579.206	676.21
579.408	705.27
579.61	661.49
579.812	685.32
580.014	691.52
580.216	646.95
580.418	650.64
580.62	641.14
580.822	633
581.024	673.3
581.226	700.23
581.428	655.67
581.63	761.27
581.832	633.97
582.034	695
582.236	662.84
582.438	683.57
582.64	746.73
582.841	721.74
583.043	765.92
583.245	720.77
583.447	719.61
583.649	703.53
583.85	667.49
584.052	714.18
584.254	649.86
584.456	728.52
584.657	635.14
584.859	697.13
585.061	657.8
585.262	655.87
585.464	623.51
585.666	721.93
585.867	695.58
586.069	744.6
586.27	669.04
586.472	670.01
586.674	655.87
586.875	647.34
587.077	676.99
587.278	671.37
587.48	667.3
587.681	774.44
587.883	670.79
588.084	610.14
588.285	646.37
588.487	642.3
588.688	673.89
588.89	609.17
589.091	594.64
589.292	616.73
589.494	602.2
589.695	583.6
589.896	552.02
590.098	555.7
590.299	588.64
590.5	564.61
590.702	616.15
590.903	601.62
591.104	659.74
591.305	609.37
591.507	668.27
591.708	679.5
591.909	618.86
592.11	705.27
592.311	640.95
592.512	606.07
592.714	570.42
592.915	547.95
593.116	578.56
593.317	606.27
593.518	585.34
593.719	609.56
593.92	644.63
594.121	672.72
594.322	628.74
594.523	611.3
594.724	579.53
594.925	619.64
595.126	628.35
595.327	656.84
595.528	619.64
595.729	641.34
595.929	595.81
596.13	611.69
596.331	619.64
596.532	617.7
596.733	656.45
596.934	648.5
597.135	615.57
597.335	643.85
597.536	546.21
597.737	621.57
597.938	577.01
598.138	626.8
598.339	611.69
598.54	623.12
598.74	593.29
598.941	620.99
599.142	648.7
599.342	618.09
599.543	595.42
599.744	597.55
599.944	620.6
600.145	587.86
600.345	594.45
600.546	687.45
600.746	676.79
600.947	684.35
601.147	637.07
601.348	634.75
601.548	583.6
601.749	634.36
601.949	605.49
602.15	613.05
602.35	638.62
602.551	651.6
602.751	630.49
602.951	611.3
603.152	527.41
603.352	648.12
603.552	622.54
603.753	634.94
603.953	629.52
604.153	625.64
604.354	615.37
604.554	597.16
604.754	618.28
604.954	566.16
605.155	622.74
605.355	591.93
605.555	628.74
605.755	649.86
605.955	633.78
606.155	630.29
606.356	601.04
606.556	620.22
606.756	623.7
606.956	554.73
607.156	654.32
607.356	539.81
607.556	640.56
607.756	605.3
607.956	657.03
608.156	606.07
608.356	605.49
608.556	637.65
608.756	597.94
608.956	597.55
609.156	633.39
609.356	577.59
609.556	565.19
609.755	634.94
609.955	565.77
610.155	579.14
610.355	599.68
610.555	545.43
610.755	595.42
610.954	536.91
611.154	591.16
611.354	612.27
611.554	561.71
611.753	556.09
611.953	515.79
612.153	618.47
612.352	590.96
612.552	525.28
612.752	501.45
612.951	568.29
613.151	581.47
613.351	542.14
613.55	569.46
613.75	605.3
613.949	541.75
614.149	600.84
614.348	556.09
614.548	529.93
614.747	522.57
614.947	536.32
615.146	489.63
615.346	608.59
615.545	570.23
615.745	572.36
615.944	586.51
616.144	568.1
616.343	579.92
616.542	556.09
616.742	564.42
616.941	543.69
617.14	518.31
617.34	540.59
617.539	555.89
617.738	525.28
617.938	600.84
618.137	502.61
618.336	524.51
618.535	531.48
618.734	534.19
618.934	536.32
619.133	529.54
619.332	565.19
619.531	524.12
619.73	520.24
619.929	582.44
620.128	577.01
620.328	579.53
620.527	507.26
620.726	521.21
620.925	542.14
621.124	511.91
621.323	547.56
621.522	499.9
621.721	521.21
621.92	508.04
622.119	521.79
622.318	515.01
622.517	531.67
622.715	508.62
622.914	489.24
623.113	516.17
623.312	452.63
623.511	542.72
623.71	497.38
623.909	483.63
624.107	580.31
624.306	456.5
624.505	497.19
624.704	493.89
624.902	488.86
625.101	577.98
625.3	524.31
625.499	500.87
625.697	519.08
625.896	468.71
626.095	532.26
626.293	446.62
626.492	458.83
626.69	512.49
626.889	465.99
627.088	551.63
