Data from pine_FLMT105791__190__17-23-44-072.txt Node

Date: Mon Mar 20 17:23:44 GMT 2023
User: antho
Spectrometer: FLMT10579
Trigger mode: 0
Integration Time (sec): 1.000000E-1
Scans to average: 10
Electric dark correction enabled: true
Nonlinearity correction enabled: false
Boxcar width: 0
XAxis mode: Wavelengths
Number of Pixels in Spectrum: 3648
>>>>>Begin Spectral Data<<<<<
345.248	-159.92
345.464	-159.92
345.681	-159.92
345.898	-178.91
346.114	-153.33
346.331	-54.52
346.548	61.34
346.764	-4.54
346.981	-1.44
347.197	-18.29
347.414	2.24
347.631	-22.36
347.847	50.49
348.064	19.49
348.28	16.78
348.497	-45.81
348.713	-3.37
348.93	25.11
349.146	-6.67
349.363	-7.64
349.579	-3.57
349.796	-9.96
350.012	-4.15
350.229	39.25
350.445	-2.21
350.661	-26.62
350.878	-21.78
351.094	9.8
351.311	-4.15
351.527	15.61
351.743	-27.01
351.96	30.14
352.176	36.73
352.392	27.63
352.609	20.46
352.825	-23.72
353.041	14.06
353.257	11.16
353.474	-0.66
353.69	8.44
353.906	16.39
354.122	-14.61
354.339	33.44
354.555	23.56
354.771	-40.19
354.987	66.18
355.203	55.14
355.42	-15
355.636	-3.96
355.852	-28.17
356.068	-5.31
356.284	-22.56
356.5	71.8
356.716	7.67
356.932	19.68
357.148	12.9
357.364	0.5
357.58	44.67
357.796	34.21
358.012	50.87
358.228	14.26
358.444	-65.18
358.66	54.17
358.876	7.86
359.092	-19.84
359.308	14.64
359.524	0.5
359.74	1.86
359.956	-8.99
360.172	38.09
360.388	57.85
360.604	-5.7
360.819	64.05
361.035	4.76
361.251	28.79
361.467	-23.72
361.683	12.13
361.898	7.86
362.114	6.12
362.33	-1.63
362.546	43.51
362.762	25.69
362.977	17.36
363.193	-40.77
363.409	57.27
363.624	-26.82
363.84	-0.27
364.056	-19.65
364.271	7.86
364.487	11.74
364.703	-20.04
364.918	-25.07
365.134	-3.18
365.35	1.08
365.565	105.9
365.781	-2.6
365.996	35.76
366.212	57.66
366.427	3.6
366.643	-24.3
366.858	-2.21
367.074	-26.43
367.289	48.55
367.505	97.96
367.72	-52.59
367.936	9.22
368.151	37.51
368.367	39.64
368.582	27.82
368.798	-16.74
369.013	34.79
369.228	13.29
369.444	-30.5
369.659	66.37
369.874	27.04
370.09	62.69
370.305	-48.71
370.52	-15.58
370.736	29.37
370.951	-14.81
371.166	55.14
371.381	48.55
371.597	51.07
371.812	-36.12
372.027	-21.59
372.242	-5.51
372.458	57.27
372.673	0.31
372.888	10.58
373.103	43.12
373.318	74.9
373.533	34.6
373.749	15.03
373.964	-42.32
374.179	68.12
374.394	-23.33
374.609	52.62
374.824	-30.69
375.039	28.4
375.254	-36.31
375.469	79.16
375.684	23.94
375.899	32.08
376.114	1.47
376.329	14.45
376.544	47.58
376.759	39.64
376.974	-30.89
377.189	6.31
377.404	-19.84
377.619	55.72
377.834	-59.75
378.049	-57.82
378.264	-28.95
378.478	20.07
378.693	-29.14
378.908	25.88
379.123	-9.19
379.338	49.32
379.553	9.03
379.767	11.93
379.982	20.46
380.197	45.26
380.412	29.76
380.626	25.49
380.841	87.49
381.056	25.88
381.271	61.72
381.485	-24.88
381.7	-25.07
381.915	21.62
382.129	4.96
382.344	18.91
382.559	3.79
382.773	40.8
382.988	-42.32
383.202	31.89
383.417	-18.49
383.632	100.28
383.846	1.86
384.061	19.29
384.275	8.06
384.49	23.94
384.704	47.58
384.919	21.23
385.133	20.65
385.348	24.53
385.562	-33.6
385.777	39.64
385.991	14.26
386.206	22.59
386.42	-15.97
386.634	58.43
386.849	28.79
387.063	12.32
387.277	-31.27
387.492	-16.74
387.706	-31.27
387.92	-15.58
388.135	38.09
388.349	-15
388.563	6.12
388.778	-8.99
388.992	31.89
389.206	41.19
389.42	96.21
389.635	0.5
389.849	15.81
390.063	44.48
390.277	23.56
390.491	54.75
390.706	44.48
390.92	44.29
391.134	-10.93
391.348	46.22
391.562	-25.46
391.776	1.66
391.99	-35.73
392.205	35.18
392.419	12.32
392.633	-7.06
392.847	75.87
393.061	-3.76
393.275	69.47
393.489	-9.77
393.703	5.54
393.917	47.58
394.131	22.78
394.345	21.04
394.559	45.64
394.773	18.91
394.986	14.26
395.2	11.16
395.414	46.61
395.628	-24.49
395.842	3.02
396.056	7.67
396.27	-27.01
396.484	27.43
396.697	32.47
396.911	83.62
397.125	23.94
397.339	37.31
397.553	17.16
397.766	63.47
397.98	34.79
398.194	60.17
398.408	-2.6
398.621	29.37
398.835	45.45
399.049	7.48
399.262	68.7
399.476	6.31
399.69	44.09
399.903	87.69
400.117	-7.83
400.331	33.05
400.544	-11.12
400.758	118.88
400.971	22.01
401.185	46.61
401.398	-5.31
401.612	31.69
401.826	17.94
402.039	51.84
402.253	11.54
402.466	36.92
402.68	-13.26
402.893	22.2
403.106	22.01
403.32	14.84
403.533	35.38
403.747	-5.31
403.96	34.79
404.174	51.65
404.387	-28.76
404.6	-1.44
404.814	37.51
405.027	4.96
405.24	18.71
405.454	-8.8
405.667	65.41
405.88	-39.02
406.094	18.52
406.307	41.19
406.52	10.58
406.733	-25.27
406.947	-32.05
407.16	84.2
407.373	46.22
407.586	-27.98
407.799	3.02
408.012	61.14
408.226	24.91
408.439	72.77
408.652	-22.17
408.865	18.33
409.078	30.14
409.291	21.23
409.504	-15.58
409.717	7.86
409.93	26.46
410.143	18.13
410.357	-18.87
410.57	-24.3
410.783	10.77
410.996	20.46
411.209	21.81
411.421	42.74
411.634	22.59
411.847	-3.37
412.06	31.69
412.273	10.77
412.486	22.01
412.699	96.02
412.912	18.91
413.125	43.51
413.338	4.76
413.55	47.77
413.763	14.84
413.976	26.08
414.189	5.34
414.402	-0.47
414.615	48.36
414.827	-4.92
415.04	21.04
415.253	26.85
415.466	41.57
415.678	75.87
415.891	19.88
416.104	19.29
416.316	-4.34
416.529	-32.05
416.742	11.16
416.954	60.37
417.167	36.34
417.38	8.25
417.592	65.6
417.805	20.46
418.017	-29.92
418.23	50.29
418.442	-4.92
418.655	-14.61
418.868	32.86
419.08	54.56
419.293	54.56
419.505	16.19
419.718	39.83
419.93	56.11
420.142	34.6
420.355	70.83
420.567	56.69
420.78	36.34
420.992	-1.82
421.205	43.9
421.417	-25.46
421.629	-0.66
421.842	-27.21
422.054	-45.42
422.266	44.09
422.479	34.99
422.691	-8.61
422.903	48.36
423.115	-8.99
423.328	23.17
423.54	33.83
423.752	17.36
423.964	-29.14
424.177	15.23
424.389	0.5
424.601	137.29
424.813	12.32
425.025	44.67
425.238	44.48
425.45	19.29
425.662	-4.73
425.874	288.8
426.086	19.68
426.298	53.97
426.51	11.93
426.722	39.44
426.934	-5.51
427.146	43.32
427.358	-11.12
427.57	39.25
427.782	9.61
427.994	34.99
428.206	21.23
428.418	-35.54
428.63	40.8
428.842	52.42
429.054	46.81
429.266	59.59
429.478	5.73
429.69	29.95
429.902	-21.78
430.114	47.77
430.325	48.74
430.537	31.69
430.749	31.5
430.961	-16.74
431.173	7.28
431.384	62.89
431.596	-66.73
431.808	6.31
432.02	22.01
432.231	26.66
432.443	75.67
432.655	21.04
432.867	-0.47
433.078	2.63
433.29	86.52
433.502	50.68
433.713	76.64
433.925	46.81
434.136	73.54
434.348	0.69
434.56	-12.67
434.771	105.71
434.983	-15.97
435.194	-11.12
435.406	0.11
435.617	67.54
435.829	88.85
436.04	39.25
436.252	50.87
436.463	64.24
436.675	31.69
436.886	19.88
437.098	28.79
437.309	45.64
437.521	12.51
437.732	43.71
437.943	30.34
438.155	34.6
438.366	-17.32
438.578	63.08
438.789	20.26
439	65.99
439.211	35.57
439.423	63.27
439.634	35.38
439.845	52.42
440.057	45.26
440.268	52.62
440.479	-25.85
440.69	37.31
440.902	-9.57
441.113	38.28
441.324	55.72
441.535	59.01
441.746	73.93
441.957	-0.27
442.168	5.54
442.38	44.09
442.591	39.44
442.802	7.09
443.013	5.34
443.224	42.93
443.435	28.01
443.646	24.14
443.857	29.95
444.068	-8.8
444.279	-17.71
444.49	87.49
444.701	35.57
444.912	108.03
445.123	52.81
445.334	65.41
445.545	47.58
445.756	46.42
445.967	14.64
446.178	49.71
446.388	76.84
446.599	67.34
446.81	58.62
447.021	-4.92
447.232	74.71
447.443	77.22
447.653	-4.54
447.864	54.36
448.075	3.21
448.286	67.73
448.496	21.23
448.707	76.45
448.918	18.33
449.129	120.04
449.339	8.83
449.55	68.89
449.761	36.34
449.971	71.02
450.182	12.51
450.393	56.11
450.603	48.94
450.814	82.46
451.024	51.46
451.235	60.95
451.446	76.45
451.656	74.51
451.867	46.61
452.077	61.34
452.288	90.4
452.498	85.94
452.709	57.85
452.919	75.48
453.13	48.74
453.34	88.46
453.55	8.44
453.761	81.1
453.971	66.96
454.182	62.69
454.392	91.95
454.602	106.09
454.813	81.68
455.023	88.07
455.233	18.33
455.444	66.57
455.654	-6.09
455.864	26.85
456.075	42.16
456.285	11.54
456.495	50.87
456.705	60.56
456.916	93.5
457.126	90.21
457.336	30.73
457.546	-17.52
457.756	14.84
457.967	95.44
458.177	17.16
458.387	72.38
458.597	28.59
458.807	43.9
459.017	33.44
459.227	53.2
459.437	39.25
459.647	92.72
459.857	63.47
460.068	25.3
460.278	105.51
460.488	60.56
460.698	117.52
460.908	63.08
461.117	5.15
461.327	32.08
461.537	33.24
461.747	47.58
461.957	50.87
462.167	137.48
462.377	58.04
462.587	56.69
462.797	71.99
463.007	67.73
463.216	54.17
463.426	115.97
463.636	89.43
463.846	32.08
464.056	34.99
464.265	101.64
464.475	41.77
464.685	71.8
464.895	72.57
465.104	53.78
465.314	73.35
465.524	56.11
465.733	38.86
465.943	134.38
466.153	129.92
466.362	87.11
466.572	62.31
466.782	45.45
466.991	52.42
467.201	119.85
467.41	32.28
467.62	59.79
467.829	55.72
468.039	99.89
468.249	37.31
468.458	55.91
468.668	66.37
468.877	87.49
469.086	114.81
469.296	105.51
469.505	11.35
469.715	137.29
469.924	80.32
470.134	123.92
470.343	137.09
470.552	54.94
470.762	50.29
470.971	64.63
471.18	66.76
471.39	69.86
471.599	19.29
471.808	83.23
472.018	41.96
472.227	86.14
472.436	100.67
472.645	37.51
472.855	34.99
473.064	80.52
473.273	80.52
473.482	70.44
473.691	92.34
473.901	105.12
474.11	71.61
474.319	154.72
474.528	78.39
474.737	113.84
474.946	71.99
475.155	73.16
475.364	113.65
475.573	56.3
475.783	96.79
475.992	91.37
476.201	119.46
476.41	61.14
476.619	74.12
476.828	81.68
477.037	30.73
477.245	64.63
477.454	109.39
477.663	57.85
477.872	44.67
478.081	92.92
478.29	16.19
478.499	154.92
478.708	69.09
478.917	148.52
479.125	84.97
479.334	104.74
479.543	53.01
479.752	99.51
479.961	76.26
480.169	89.04
480.378	53.97
480.587	181.27
480.796	124.89
481.004	76.06
481.213	99.89
481.422	64.24
481.63	85.56
481.839	109.58
482.048	129.73
482.256	104.74
482.465	77.03
482.674	110.36
482.882	95.63
483.091	177.78
483.299	87.88
483.508	120.04
483.716	112.29
483.925	107.06
484.134	93.31
484.342	97.96
484.551	140.19
484.759	107.45
484.967	108.03
485.176	123.34
485.384	130.12
485.593	147.75
485.801	90.4
486.01	123.92
486.218	104.16
486.426	50.87
486.635	128.37
486.843	95.63
487.051	102.41
487.26	102.41
487.468	130.12
487.676	130.7
487.885	75.67
488.093	92.34
488.301	71.41
488.509	93.69
488.717	132.25
488.926	114.42
489.134	113.46
489.342	124.69
489.55	76.84
489.758	121.98
489.967	93.69
490.175	191.34
490.383	91.56
490.591	149.69
490.799	71.61
491.007	176.42
491.215	109.58
491.423	108.22
491.631	91.56
491.839	88.46
492.047	162.86
492.255	105.12
492.463	78.77
492.671	125.47
492.879	167.51
493.087	118.11
493.295	137.67
493.503	129.15
493.711	129.54
493.919	147.17
494.127	177.59
494.334	172.55
494.542	81.87
494.75	125.47
494.958	120.43
495.166	146.78
495.374	149.69
495.581	97.37
495.789	116.94
495.997	170.8
496.205	141.16
496.412	101.06
496.62	90.4
496.828	134.19
497.035	121.4
497.243	146.39
497.451	115.59
497.658	125.47
497.866	147.17
498.074	171.77
498.281	126.24
498.489	184.37
498.696	159.76
498.904	110.94
499.112	129.34
499.319	197.93
499.527	96.79
499.734	181.65
499.942	98.34
500.149	137.87
500.357	119.85
500.564	117.72
500.771	152.79
500.979	131.47
501.186	147.94
501.394	151.62
501.601	124.69
501.808	149.88
502.016	162.86
502.223	158.02
502.43	135.74
502.638	153.95
502.845	122.95
503.052	177.2
503.26	137.29
503.467	183.2
503.674	146.2
503.881	157.63
504.089	250.24
504.296	159.37
504.503	98.15
504.71	145.81
504.917	110.74
505.125	140.77
505.332	136.32
505.539	174.49
505.746	189.99
505.953	157.44
506.16	164.22
506.367	162.09
506.574	204.71
506.781	194.64
506.988	141.35
507.195	125.66
507.402	151.04
507.609	212.07
507.816	160.54
508.023	137.87
508.23	147.75
508.437	96.79
508.644	171
508.851	206.65
509.058	173.52
509.265	160.34
509.472	173.9
509.679	231.06
509.885	133.6
510.092	156.85
510.299	158.6
510.506	159.18
510.713	163.44
510.92	172.55
511.126	190.37
511.333	192.5
511.54	163.44
511.746	214.78
511.953	227.77
512.16	219.24
512.367	137.67
512.573	166.74
512.78	184.17
512.987	190.95
513.193	184.75
513.4	95.44
513.606	148.52
513.813	208.39
514.02	204.13
514.226	252.18
514.433	239.58
514.639	167.12
514.846	171.77
515.052	157.82
515.259	166.35
515.465	158.99
515.672	142.52
515.878	265.55
516.085	133.22
516.291	211.68
516.497	130.31
516.704	169.84
516.91	152.4
517.117	133.6
517.323	152.2
517.529	174.68
517.736	204.13
517.942	176.42
518.148	161.89
518.354	184.56
518.561	192.89
518.767	192.89
518.973	217.3
519.179	210.72
519.386	168.48
519.592	157.44
519.798	174.49
520.004	198.12
520.21	160.73
520.417	198.9
520.623	222.73
520.829	213.82
521.035	187.66
521.241	222.34
521.447	229.9
521.653	310.69
521.859	181.27
522.065	208.39
522.271	291.12
522.477	232.42
522.683	241.13
522.889	226.99
523.095	256.44
523.301	249.66
523.507	191.73
523.713	229.9
523.919	188.44
524.125	256.05
524.331	209.55
524.537	268.45
524.742	247.14
524.948	263.61
525.154	224.67
525.36	313.21
525.566	250.43
525.772	274.07
525.977	195.22
526.183	241.72
526.389	251.21
526.595	229.32
526.8	243.65
527.006	186.11
527.212	216.53
527.417	183.59
527.623	203.16
527.829	244.23
528.034	217.88
528.24	247.14
528.446	188.44
528.651	251.6
528.857	226.6
529.062	267.29
529.268	216.72
529.473	228.93
529.679	207.81
529.884	299.45
530.09	257.02
530.295	295.19
530.501	286.67
530.706	256.83
530.912	211.3
531.117	244.23
531.323	241.91
531.528	260.9
531.733	272.91
531.939	231.06
532.144	250.05
532.35	270
532.555	268.84
532.76	292.09
532.966	300.03
533.171	294.61
533.376	239.97
533.581	233.19
533.787	264.38
533.992	270.58
534.197	304.49
534.402	249.47
534.607	261.09
534.813	350.21
535.018	255.47
535.223	238.62
535.428	277.37
535.633	299.06
535.838	256.05
536.043	257.02
536.249	332.2
536.454	247.72
536.659	280.27
536.864	243.65
537.069	252.18
537.274	278.92
537.479	282.79
537.684	285.12
537.889	251.79
538.094	325.41
538.299	246.56
538.504	295
538.708	280.27
538.913	327.74
539.118	257.22
539.323	299.26
539.528	250.24
539.733	282.98
539.938	298.1
540.142	313.79
540.347	293.45
540.552	262.25
540.757	308.75
540.962	290.54
541.166	248.11
541.371	202.58
541.576	300.61
541.781	169.64
541.985	277.56
542.19	281.05
542.395	326.38
542.599	351.57
542.804	314.18
543.008	318.44
543.213	267.68
543.418	227.77
543.622	337.04
543.827	268.65
544.031	338.01
544.236	319.21
544.44	286.86
544.645	365.91
544.849	291.9
545.054	304.1
545.258	370.95
545.463	349.83
545.667	301
545.872	326.38
546.076	301.2
546.281	280.47
546.485	276.2
546.689	298.68
546.894	340.14
547.098	307.78
547.302	261.48
547.507	298.29
547.711	316.5
547.915	360.1
548.119	296.16
548.324	297.9
548.528	344.01
548.732	291.51
548.936	302.36
549.141	343.43
549.345	284.73
549.549	294.03
549.753	262.83
549.957	356.8
550.161	360.1
550.366	293.06
550.57	261.09
550.774	311.66
550.978	297.9
551.182	344.01
551.386	295.38
551.59	272.72
551.794	273.3
551.998	331.03
552.202	294.42
552.406	252.57
552.61	307.98
552.814	295
553.018	335.88
553.222	331.42
553.426	317.66
553.63	371.53
553.833	270.78
554.037	253.73
554.241	318.25
554.445	306.23
554.649	298.29
554.853	275.23
555.056	326
555.26	347.7
555.464	342.08
555.668	321.35
555.871	343.43
556.075	347.7
556.279	276.2
556.483	244.23
556.686	300.42
556.89	297.52
557.094	311.46
557.297	272.33
557.501	360.1
557.704	271.94
557.908	338.98
558.112	271.75
558.315	363.39
558.519	327.93
558.722	344.4
558.926	302.16
559.129	296.16
559.333	252.37
559.536	294.22
559.74	278.14
559.943	285.89
560.147	269.03
560.35	321.73
560.553	270.39
560.757	242.49
560.96	350.02
561.164	276.01
561.367	350.02
561.57	275.43
561.774	287.05
561.977	295.58
562.18	264.77
562.384	377.15
562.587	296.55
562.79	302.36
562.993	305.26
563.197	340.53
563.4	371.33
563.603	327.93
563.806	424.61
564.009	278.92
564.212	301
564.416	257.99
564.619	339.95
564.822	287.44
565.025	360.1
565.228	299.84
565.431	309.72
565.634	217.3
565.837	310.3
566.04	282.4
566.243	292.48
566.446	214.98
566.649	322.7
566.852	279.3
567.055	283.18
567.258	325.61
567.461	366.1
567.664	361.45
567.867	213.62
568.07	332.39
568.273	312.43
568.475	350.21
568.678	274.65
568.881	300.81
569.084	308.36
569.287	210.14
569.489	270.78
569.692	317.66
569.895	330.84
570.098	252.57
570.3	276.01
570.503	218.85
570.706	240.75
570.909	212.46
571.111	238.81
571.314	220.6
571.516	257.02
571.719	278.53
571.922	254.31
572.124	276.4
572.327	257.41
572.529	195.02
572.732	238.62
572.935	230.09
573.137	321.73
573.34	233
573.542	277.17
573.745	276.2
573.947	278.14
574.15	240.36
574.352	211.1
574.554	305.46
574.757	210.72
574.959	253.92
575.162	196.77
575.364	232.22
575.566	338.98
575.769	221.76
575.971	245.01
576.173	187.47
576.376	268.26
576.578	284.92
576.78	306.04
576.982	174.87
577.185	257.22
577.387	214.98
577.589	193.09
577.791	265.74
577.993	239.39
578.196	216.14
578.398	259.15
578.6	283.76
578.802	197.35
579.004	216.92
579.206	215.75
579.408	268.84
579.61	210.72
579.812	252.57
580.014	224.28
580.216	223.5
580.418	218.66
580.62	195.41
580.822	181.85
581.024	196.96
581.226	238.42
581.428	224.86
581.63	267.29
581.832	207.81
582.034	291.12
582.236	233.38
582.438	257.8
582.64	285.89
582.841	265.16
583.043	322.31
583.245	250.24
583.447	282.21
583.649	245.98
583.85	260.32
584.052	280.27
584.254	233
584.456	274.85
584.657	190.37
584.859	243.27
585.061	218.85
585.262	227.77
585.464	195.8
585.666	258.18
585.867	233.38
586.069	316.11
586.27	281.43
586.472	258.57
586.674	242.49
586.875	201.22
587.077	215.75
587.278	229.51
587.48	235.9
587.681	329.1
587.883	257.41
588.084	184.95
588.285	238.03
588.487	225.25
588.688	260.7
588.89	186.3
589.091	197.35
589.292	228.93
589.494	236.29
589.695	240.55
589.896	168.09
590.098	171.19
590.299	225.05
590.5	182.82
590.702	199.29
590.903	198.12
591.104	283.76
591.305	208.97
591.507	292.09
591.708	263.42
591.909	233.97
592.11	289.38
592.311	246.95
592.512	227.77
592.714	171.39
592.915	174.49
593.116	175.45
593.317	206.07
593.518	172.16
593.719	202.39
593.92	236.48
594.121	259.54
594.322	211.68
594.523	217.11
594.724	168.67
594.925	193.09
595.126	259.54
595.327	235.52
595.528	240.94
595.729	238.42
595.929	218.08
596.13	199.87
596.331	234.35
596.532	220.98
596.733	274.27
596.934	229.9
597.135	228.54
597.335	220.98
597.536	209.75
597.737	211.88
597.938	208.2
598.138	250.63
598.339	199.48
598.54	240.17
598.74	208.59
598.941	217.5
599.142	274.65
599.342	239.2
599.543	204.52
599.744	240.17
599.944	188.63
600.145	196.77
600.345	214.01
600.546	297.71
600.746	254.12
600.947	290.93
601.147	243.46
601.348	272.33
601.548	201.8
601.749	250.24
601.949	208.2
602.15	209.36
602.35	241.13
602.551	267.68
602.751	160.54
602.951	204.13
603.152	133.99
603.352	254.5
603.552	214.4
603.753	245.01
603.953	235.13
604.153	227.96
604.354	198.7
604.554	214.01
604.754	202.97
604.954	158.02
605.155	208.97
605.355	201.8
605.555	250.82
605.755	255.47
605.955	223.7
606.155	277.37
606.356	222.34
606.556	238.23
606.756	280.47
606.956	188.63
607.156	270.2
607.356	200.64
607.556	252.76
607.756	240.94
607.956	264.97
608.156	223.12
608.356	205.49
608.556	272.13
608.756	204.13
608.956	194.05
609.156	237.45
609.356	186.89
609.556	177.97
609.755	237.26
609.955	192.5
610.155	243.07
610.355	215.75
610.555	238.23
610.755	240.94
610.954	182.43
611.154	233.38
611.354	239.58
611.554	209.55
611.753	192.31
611.953	177
612.153	232.42
612.352	224.08
612.552	160.73
612.752	149.49
612.951	188.63
613.151	207.42
613.351	159.57
613.55	210.72
613.75	230.87
613.949	204.9
614.149	211.1
614.348	232.03
614.548	183.79
614.747	173.13
614.947	175.65
615.146	135.15
615.346	243.07
615.545	209.94
615.745	244.82
615.944	235.71
616.144	193.86
616.343	230.87
616.542	208.59
616.742	206.26
616.941	212.07
617.14	164.02
617.34	204.9
617.539	190.95
617.738	199.29
617.938	262.45
618.137	215.37
618.336	146.2
618.535	217.11
618.734	180.69
618.934	242.49
619.133	225.25
619.332	211.49
619.531	185.14
619.73	185.53
619.929	236.68
620.128	228.35
620.328	234.93
620.527	162.67
620.726	196.96
620.925	219.82
621.124	183.01
621.323	243.65
621.522	161.31
621.721	151.43
621.92	147.94
622.119	244.62
622.318	183.59
622.517	169.06
622.715	173.32
622.914	151.24
623.113	173.13
623.312	132.44
623.511	199.29
623.71	149.1
623.909	165.96
624.107	255.67
624.306	148.14
624.505	151.82
624.704	154.14
624.902	166.74
625.101	231.06
625.3	215.56
625.499	172.35
625.697	174.29
625.896	187.27
626.095	192.89
626.293	129.92
626.492	139.61
626.69	226.02
626.889	127.02
627.088	220.6
627.286	151.04
627.485	178.17
627.683	158.79
627.882	214.4
628.08	147.36
628.279	167.32
628.477	274.27
628.676	149.88
628.874	193.28
629.073	170.22
629.271	165.19
629.469	182.43
