Data from pine_FLMT105791__52__17-20-52-078.txt Node

Date: Mon Mar 20 17:20:52 GMT 2023
User: antho
Spectrometer: FLMT10579
Trigger mode: 0
Integration Time (sec): 1.000000E-1
Scans to average: 10
Electric dark correction enabled: true
Nonlinearity correction enabled: false
Boxcar width: 0
XAxis mode: Wavelengths
Number of Pixels in Spectrum: 3648
>>>>>Begin Spectral Data<<<<<
345.248	-165.01
345.464	-165.01
345.681	-165.01
345.898	-190
346.114	-157.65
346.331	-42.37
346.548	16.73
346.764	5.49
346.981	-11.17
347.197	2.2
347.414	12.66
347.631	-14.85
347.847	45.4
348.064	-16.02
348.28	24.67
348.497	-15.44
348.713	-7.3
348.93	27.19
349.146	20.21
349.363	-15.05
349.579	22.15
349.796	-2.26
350.012	-16.6
350.229	25.06
350.445	8.78
350.661	4.52
350.878	-3.42
351.094	8.01
351.311	13.82
351.527	19.83
351.743	-9.82
351.96	10.33
352.176	43.66
352.392	19.63
352.609	4.13
352.825	-6.91
353.041	9.75
353.257	-25.12
353.474	4.91
353.69	4.91
353.906	27.58
354.122	-43.72
354.339	64.78
354.555	1.61
354.771	-4.2
354.987	76.21
355.203	64.58
355.42	6.07
355.636	-7.49
355.852	-5.36
356.068	2.39
356.284	-31.32
356.5	34.94
356.716	25.64
356.932	7.23
357.148	24.86
357.364	6.26
357.58	42.5
357.796	70.01
358.012	32.42
358.228	31.65
358.444	-58.64
358.66	59.35
358.876	29.71
359.092	6.85
359.308	24.09
359.524	26.41
359.74	23.12
359.956	-12.92
360.172	-0.13
360.388	45.01
360.604	12.27
360.819	71.56
361.035	8.01
361.251	27.19
361.467	-6.14
361.683	52.18
361.898	33
362.114	41.14
362.33	14.01
362.546	44.82
362.762	4.13
362.977	-3.42
363.193	3.16
363.409	45.98
363.624	-20.86
363.84	-18.54
364.056	-2.26
364.271	31.26
364.487	38.81
364.703	7.23
364.918	-36.17
365.134	0.26
365.35	15.18
365.565	134.53
365.781	11.5
365.996	26.22
366.212	70.01
366.427	16.34
366.643	-22.8
366.858	8.2
367.074	-6.33
367.289	63.81
367.505	122.71
367.72	0.45
367.936	-8.65
368.151	41.53
368.367	28.74
368.582	31.06
368.798	2.2
369.013	51.41
369.228	4.71
369.444	24.67
369.659	49.66
369.874	43.66
370.09	70.78
370.305	-50.5
370.52	-7.3
370.736	55.28
370.951	18.47
371.166	57.61
371.381	56.06
371.597	36.68
371.812	-12.14
372.027	-10.59
372.242	3.75
372.458	67.68
372.673	13.63
372.888	20.8
373.103	19.83
373.318	91.32
373.533	48.7
373.749	26.61
373.964	-26.67
374.179	88.8
374.394	-7.88
374.609	84.73
374.824	-15.82
375.039	43.66
375.254	-9.43
375.469	55.86
375.684	21.76
375.899	63.81
376.114	27.96
376.329	19.44
376.544	47.34
376.759	66.33
376.974	3.94
377.189	3.55
377.404	-17.95
377.619	52.76
377.834	-38.49
378.049	-24.15
378.264	-27.84
378.478	23.9
378.693	14.98
378.908	19.63
379.123	29.9
379.338	52.57
379.553	12.85
379.767	40.75
379.982	26.03
380.197	27.96
380.412	33.2
380.626	32.23
380.841	96.55
381.056	46.18
381.271	65.36
381.485	3.94
381.7	-35.58
381.915	26.41
382.129	39.78
382.344	44.24
382.559	-6.33
382.773	73.69
382.988	-33.26
383.202	32.23
383.417	19.44
383.632	86.67
383.846	30.1
384.061	23.31
384.275	-7.49
384.49	51.21
384.704	46.37
384.919	10.91
385.133	7.62
385.348	28.74
385.562	2
385.777	52.18
385.991	40.95
386.206	5.88
386.42	-0.71
386.634	73.49
386.849	17.7
387.063	20.99
387.277	-13.69
387.492	9.56
387.706	-22.8
387.92	8.78
388.135	46.56
388.349	29.71
388.563	20.8
388.778	56.64
388.992	36.88
389.206	47.92
389.42	79.31
389.635	35.52
389.849	46.76
390.063	54.9
390.277	36.88
390.491	86.09
390.706	59.93
390.92	51.99
391.134	49.47
391.348	53.54
391.562	-14.47
391.776	6.65
391.99	-14.27
392.205	80.66
392.419	-10.4
392.633	-1.87
392.847	85.89
393.061	14.21
393.275	89.19
393.489	10.91
393.703	26.22
393.917	54.7
394.131	-17.95
394.345	44.43
394.559	84.54
394.773	13.63
394.986	50.63
395.2	20.8
395.414	48.11
395.628	-16.99
395.842	26.22
396.056	-1.68
396.27	-36.55
396.484	41.72
396.697	38.43
396.911	73.49
397.125	75.24
397.339	64
397.553	41.72
397.766	86.67
397.98	80.28
398.194	51.8
398.408	25.64
398.621	26.41
398.835	65.36
399.049	29.9
399.262	72.91
399.476	73.88
399.69	79.5
399.903	106.43
400.117	47.73
400.331	45.98
400.544	13.63
400.758	133.17
400.971	48.31
401.185	53.15
401.398	9.17
401.612	83.38
401.826	63.03
402.039	70.59
402.253	19.83
402.466	73.88
402.68	55.48
402.893	45.4
403.106	51.02
403.32	63.23
403.533	43.08
403.747	27.96
403.96	41.14
404.174	79.89
404.387	11.69
404.6	59.16
404.814	85.51
405.027	51.8
405.24	53.73
405.454	37.46
405.667	60.13
405.88	-25.9
406.094	46.56
406.307	77.37
406.52	66.13
406.733	18.86
406.947	9.36
407.16	130.65
407.373	84.54
407.586	41.91
407.799	10.14
408.012	78.34
408.226	57.41
408.439	116.89
408.652	-0.32
408.865	68.65
409.078	86.09
409.291	83.96
409.504	17.31
409.717	66.91
409.93	53.54
410.143	48.5
410.357	-18.34
410.57	12.27
410.783	44.05
410.996	71.17
411.209	52.96
411.421	95.19
411.634	45.21
411.847	20.02
412.06	45.98
412.273	46.56
412.486	63.23
412.699	138.01
412.912	65.16
413.125	83.18
413.338	49.28
413.55	84.93
413.763	63.42
413.976	75.82
414.189	42.5
414.402	49.86
414.615	128.91
414.827	44.43
415.04	96.94
415.253	107.59
415.466	94.42
415.678	116.7
415.891	48.89
416.104	49.28
416.316	68.26
416.529	31.45
416.742	86.86
416.954	104.88
417.167	62.64
417.38	31.26
417.592	108.18
417.805	23.12
418.017	22.93
418.23	94.23
418.442	68.26
418.655	67.68
418.868	73.49
419.08	115.93
419.293	132.2
419.505	82.6
419.718	70.01
419.93	111.28
420.142	42.3
420.355	118.25
420.567	137.04
420.78	100.23
420.992	78.73
421.205	133.75
421.417	28.35
421.629	55.67
421.842	43.27
422.054	27.77
422.266	95.97
422.479	121.74
422.691	52.57
422.903	97.33
423.115	68.07
423.328	74.27
423.54	79.31
423.752	88.41
423.964	58
424.177	89.38
424.389	53.73
424.601	179.86
424.813	92.68
425.025	99.07
425.238	133.94
425.45	92.48
425.662	77.95
425.874	369.54
426.086	101.39
426.298	98.29
426.51	83.96
426.722	104.11
426.934	80.66
427.146	98.68
427.358	63.23
427.57	117.28
427.782	96.36
427.994	123.29
428.206	55.28
428.418	52.57
428.63	142.28
428.842	126
429.054	94.03
429.266	124.26
429.478	63.81
429.69	124.84
429.902	64.19
430.114	124.26
430.325	131.23
430.537	95
430.749	102.36
430.961	35.52
431.173	104.3
431.384	120.58
431.596	5.68
431.808	85.7
432.02	120.77
432.231	153.71
432.443	151.96
432.655	136.08
432.867	86.48
433.078	118.64
433.29	193.81
433.502	152.16
433.713	180.64
433.925	145.96
434.136	161.84
434.348	76.21
434.56	64.39
434.771	232.56
434.983	91.32
435.194	111.08
435.406	134.33
435.617	156.61
435.829	204.66
436.04	191.1
436.252	178.7
436.463	200.01
436.675	185.87
436.886	172.5
437.098	192.26
437.309	224.62
437.521	167.66
437.732	167.07
437.943	176.37
438.155	157.97
438.366	108.56
438.578	245.54
438.789	179.47
439	189.74
439.211	164.94
439.423	191.68
439.634	205.05
439.845	191.68
440.057	187.81
440.268	207.96
440.479	156.42
440.69	224.62
440.902	179.09
441.113	178.31
441.324	166.49
441.535	235.27
441.746	258.52
441.957	157.39
442.168	147.89
442.38	201.17
442.591	204.86
442.802	181.02
443.013	206.6
443.224	207.57
443.435	207.18
443.646	206.02
443.857	215.9
444.068	208.34
444.279	220.36
444.49	251.94
444.701	203.11
444.912	310.25
445.123	255.42
445.334	264.34
445.545	228.11
445.756	226.56
445.967	205.82
446.178	240.31
446.388	255.04
446.599	260.65
446.81	263.75
447.021	217.84
447.232	295.14
447.443	295.92
447.653	195.36
447.864	283.32
448.075	252.9
448.286	301.34
448.496	273.44
448.707	292.62
448.918	256.2
449.129	363.92
449.339	243.6
449.55	271.7
449.761	267.44
449.971	319.75
450.182	255.81
450.393	298.24
450.603	287.59
450.814	304.83
451.024	289.72
451.235	339.32
451.446	355.2
451.656	328.27
451.867	265.89
452.077	308.9
452.288	354.23
452.498	341.25
452.709	278.67
452.919	338.15
453.13	289.72
453.34	353.27
453.55	241.67
453.761	317.23
453.971	307.93
454.182	332.53
454.392	345.32
454.602	381.94
454.813	336.02
455.023	315.68
455.233	245.74
455.444	302.12
455.654	252.71
455.864	316.07
456.075	285.65
456.285	310.64
456.495	326.53
456.705	332.34
456.916	363.15
457.126	403.64
457.336	332.15
457.546	273.83
457.756	293.4
457.967	378.84
458.177	294.17
458.387	315.87
458.597	282.94
458.807	334.28
459.017	330.79
459.227	315.87
459.437	341.06
459.647	357.14
459.857	349.39
460.068	319.94
460.278	374.58
460.488	371.09
460.698	404.42
460.908	349
461.117	271.7
461.327	302.89
461.537	362.18
461.747	368.18
461.957	338.54
462.167	457.5
462.377	382.72
462.587	362.95
462.797	379.23
463.007	370.9
463.216	382.72
463.426	405.58
463.636	438.13
463.846	338.73
464.056	347.84
464.265	432.9
464.475	311.42
464.685	370.32
464.895	403.45
465.104	394.53
465.314	391.05
465.524	370.12
465.733	349
465.943	450.33
466.153	451.5
466.362	428.25
466.572	410.42
466.782	366.63
466.991	376.52
467.201	488.31
467.41	339.51
467.62	417.59
467.829	401.51
468.039	452.66
468.249	410.61
468.458	394.73
468.668	435.22
468.877	420.3
469.086	458.66
469.296	485.21
469.505	408.87
469.715	509.04
469.924	448.59
470.134	461.18
470.343	487.34
470.552	400.35
470.762	425.92
470.971	409.45
471.18	451.11
471.39	476.3
471.599	406.35
471.808	472.03
472.018	414.3
472.227	468.93
472.436	470.1
472.645	451.88
472.855	441.81
473.064	518.34
473.273	490.25
473.482	497.22
473.691	525.12
473.901	503.81
474.11	478.43
474.319	574.33
474.528	528.41
474.737	554.96
474.946	519.31
475.155	523.38
475.364	547.59
475.573	528.22
475.783	528.99
475.992	546.43
476.201	577.04
476.41	547.98
476.619	479.78
476.828	536.94
477.037	501.09
477.245	512.33
477.454	568.52
477.663	528.03
477.872	550.31
478.081	635.17
478.29	506.71
478.499	641.76
478.708	578.4
478.917	665.78
479.125	583.05
479.334	587.31
479.543	585.96
479.752	588.28
479.961	604.94
480.169	636.72
480.378	580.34
480.587	710.34
480.796	655.32
481.004	635.56
481.213	668.88
481.422	685.35
481.63	625.87
481.839	679.73
482.048	713.25
482.256	655.9
482.465	650.67
482.674	687.09
482.882	700.27
483.091	741.34
483.299	676.05
483.508	736.11
483.716	693.87
483.925	696.78
484.134	680.5
484.342	691.94
484.551	723.32
484.759	725.45
484.967	708.6
485.176	746.77
485.384	748.32
485.593	741.15
485.801	738.24
486.01	704.72
486.218	669.66
486.426	604.56
486.635	626.26
486.843	632.65
487.051	658.03
487.26	646.21
487.468	696.59
487.676	714.6
487.885	699.69
488.093	748.9
488.301	761.68
488.509	741.15
488.717	807.41
488.926	766.92
489.134	735.72
489.342	740.57
489.55	716.54
489.758	765.95
489.967	754.13
490.175	879.68
490.383	778.15
490.591	870.57
490.799	767.11
491.007	836.28
491.215	805.47
491.423	809.35
491.631	801.02
491.839	814
492.047	835.12
492.255	815.74
492.463	752.19
492.671	828.53
492.879	867.47
493.087	835.89
493.295	841.7
493.503	848.1
493.711	870.76
493.919	883.75
494.127	894.01
494.334	921.53
494.542	833.95
494.75	883.55
494.958	843.83
495.166	913.58
495.374	901.18
495.581	912.23
495.789	909.13
495.997	957.56
496.205	882
496.412	895.95
496.62	914.36
496.828	913.39
497.035	887.23
497.243	942.84
497.451	900.41
497.658	940.13
497.866	913
498.074	986.24
498.281	909.13
498.489	1006.19
498.696	896.53
498.904	916.1
499.112	894.6
499.319	1018.4
499.527	935.28
499.734	1001.93
499.942	910.48
500.149	880.65
500.357	944.97
500.564	927.92
500.771	955.63
500.979	900.6
501.186	919.4
501.394	973.45
501.601	918.23
501.808	931.41
502.016	912.81
502.223	918.62
502.43	959.5
502.638	935.67
502.845	936.64
503.052	1029.44
503.26	945.36
503.467	1070.32
503.674	955.24
503.881	1024.02
504.089	1074.78
504.296	1024.6
504.503	943.03
504.71	982.75
504.917	950.2
505.125	994.38
505.332	1026.73
505.539	1052.69
505.746	1102.49
505.953	1069.55
506.16	1040.68
506.367	1103.26
506.574	1137.17
506.781	1077.69
506.988	1038.36
507.195	1097.45
507.402	1082.14
507.609	1118.18
507.816	996.7
508.023	1022.66
508.23	1044.17
508.437	1013.75
508.644	1096.48
508.851	1130.39
509.058	1104.42
509.265	1077.49
509.472	1125.74
509.679	1206.53
509.885	1104.62
510.092	1126.32
510.299	1115.27
510.506	1113.53
510.713	1125.35
510.92	1122.25
511.126	1138.33
511.333	1159.64
511.54	1165.84
511.746	1208.47
511.953	1240.63
512.16	1234.23
512.367	1143.17
512.573	1186.38
512.78	1188.51
512.987	1163.71
513.193	1156.15
513.4	1100.74
513.606	1176.11
513.813	1179.21
514.02	1179.99
514.226	1204.2
514.433	1225.71
514.639	1110.04
514.846	1197.62
515.052	1158.67
515.259	1214.67
515.465	1214.86
515.672	1173.01
515.878	1292.55
516.085	1213.89
516.291	1264.85
516.497	1231.13
516.704	1203.82
516.91	1146.08
517.117	1124.96
517.323	1049.01
517.529	1101.71
517.736	1105.2
517.942	1134.45
518.148	1149.76
518.354	1180.57
518.561	1182.12
518.767	1183.67
518.973	1224.55
519.179	1233.65
519.386	1204.78
519.592	1202.46
519.798	1186.96
520.004	1301.46
520.21	1233.85
520.417	1325.3
520.623	1368.89
520.829	1328.4
521.035	1326.26
521.241	1361.33
521.447	1373.54
521.653	1467.12
521.859	1371.99
522.065	1381.29
522.271	1482.23
522.477	1444.45
522.683	1455.49
522.889	1429.73
523.095	1405.89
523.301	1431.28
523.507	1371.99
523.713	1406.67
523.919	1384
524.125	1453.94
524.331	1434.76
524.537	1524.66
524.742	1456.66
524.948	1490.76
525.154	1524.47
525.36	1622.89
525.566	1518.85
525.772	1567.67
525.977	1490.95
526.183	1560.7
526.389	1539
526.595	1483.01
526.8	1498.89
527.006	1438.83
527.212	1368.5
527.417	1417.71
527.623	1396.4
527.829	1438.64
528.034	1498.51
528.24	1461.31
528.446	1470.22
528.651	1596.35
528.857	1525.82
529.062	1620.18
529.268	1579.88
529.473	1585.11
529.679	1573.87
529.884	1674.04
530.09	1661.83
530.295	1653.7
530.501	1649.82
530.706	1616.3
530.912	1585.3
531.117	1664.93
531.323	1666.48
531.528	1660.67
531.733	1687.02
531.939	1650.6
532.144	1687.02
532.35	1675.59
532.555	1735.07
532.76	1667.26
532.966	1722.28
533.171	1630.45
533.376	1589.37
533.581	1631.03
533.787	1638.97
533.992	1638.39
534.197	1708.33
534.402	1639.17
534.607	1684.5
534.813	1776.73
535.018	1666.87
535.223	1664.16
535.428	1702.91
535.633	1735.26
535.838	1730.81
536.043	1766.46
536.249	1839.11
536.454	1742.63
536.659	1791.06
536.864	1749.41
537.069	1757.35
537.274	1747.28
537.479	1776.15
537.684	1774.4
537.889	1695.35
538.094	1801.33
538.299	1732.94
538.504	1804.82
538.708	1744.37
538.913	1812.18
539.118	1781.76
539.323	1748.63
539.528	1731.58
539.733	1750.96
539.938	1768.01
540.142	1787
540.347	1743.4
540.552	1717.05
540.757	1714.73
540.962	1756.38
541.166	1669.97
541.371	1682.37
541.576	1748.83
541.781	1641.49
541.985	1779.05
542.19	1720.15
542.395	1852.68
542.599	1844.93
542.804	1798.04
543.008	1867.98
543.213	1790.68
543.418	1789.32
543.622	1813.73
543.827	1754.25
544.031	1873.21
544.236	1837.76
544.44	1832.53
544.645	1909.64
544.849	1809.47
545.054	1873.02
545.258	1918.74
545.463	1924.17
545.667	1837.37
545.872	1869.53
546.076	1871.08
546.281	1866.43
546.485	1841.24
546.689	1892.98
546.894	1893.36
547.098	1861.59
547.302	1786.8
547.507	1847.44
547.711	1852.29
547.915	1905.18
548.119	1817.03
548.324	1857.33
548.528	1924.56
548.732	1856.55
548.936	1889.49
549.141	1882.9
549.345	1870.5
549.549	1853.26
549.753	1883.87
549.957	1965.05
550.161	1974.74
550.366	1937.92
550.57	1861.2
550.774	1914.67
550.978	1915.84
551.182	1909.83
551.386	1874.57
551.59	1876.51
551.794	1879.03
551.998	1935.79
552.202	1921.26
552.406	1836.21
552.61	1881.16
552.814	1906.92
553.018	1968.15
553.222	1865.46
553.426	1871.66
553.63	1978.42
553.833	1913.9
554.037	1878.44
554.241	1970.28
554.445	1885.61
554.649	1885.81
554.853	1892.01
555.056	1941.8
555.26	1956.52
555.464	1926.3
555.668	1949.74
555.871	1969.89
556.075	1922.62
556.279	1882.32
556.483	1874.76
556.686	1906.34
556.89	1902.86
557.094	1912.35
557.297	1830.2
557.501	1928.82
557.704	1840.08
557.908	1904.21
558.112	1854.81
558.315	1928.62
558.519	1832.33
558.722	1851.9
558.926	1862.75
559.129	1781.38
559.333	1725.19
559.536	1793.39
559.74	1778.86
559.943	1780.02
560.147	1789.71
560.35	1802.88
560.553	1811.02
560.757	1726.35
560.96	1852.48
561.164	1816.25
561.367	1889.49
561.57	1801.53
561.774	1812.57
561.977	1769.75
562.18	1766.85
562.384	1880.58
562.587	1819.74
562.79	1782.73
562.993	1772.66
563.197	1823.03
563.4	1872.05
563.603	1864.88
563.806	1868.18
564.009	1786.41
564.212	1815.67
564.416	1697.48
564.619	1797.85
564.822	1741.08
565.025	1814.7
565.228	1773.05
565.431	1793.39
565.634	1684.31
565.837	1741.85
566.04	1703.68
566.243	1742.82
566.446	1643.43
566.649	1712.98
566.852	1652.53
567.055	1690.7
567.258	1739.14
567.461	1763.75
567.664	1797.85
567.867	1656.41
568.07	1706.98
568.273	1729.65
568.475	1775.18
568.678	1669
568.881	1695.16
569.084	1663.77
569.287	1583.17
569.489	1633.16
569.692	1666.29
569.895	1670.17
570.098	1603.71
570.3	1612.24
570.503	1553.72
570.706	1596.15
570.909	1568.25
571.111	1531.83
571.314	1552.75
571.516	1568.25
571.719	1583.95
571.922	1553.14
572.124	1560.31
572.327	1572.32
572.529	1525.05
572.732	1534.16
572.935	1568.06
573.137	1655.44
573.34	1543.84
573.542	1628.51
573.745	1603.71
573.947	1593.83
574.15	1562.64
574.352	1530.86
574.554	1620.95
574.757	1525.82
574.959	1521.56
575.162	1527.37
575.364	1493.27
575.566	1652.92
575.769	1506.64
575.971	1506.64
576.173	1421.98
576.376	1499.28
576.578	1549.07
576.78	1572.52
576.982	1445.61
577.185	1481.65
577.387	1471.77
577.589	1471.96
577.791	1510.13
577.993	1515.94
578.196	1507.61
578.398	1505.87
578.6	1521.76
578.802	1417.52
579.004	1442.32
579.206	1455.49
579.408	1507.03
579.61	1448.33
579.812	1523.69
580.014	1443.48
580.216	1466.54
580.418	1496.76
580.62	1461.69
580.822	1419.07
581.024	1470.41
581.226	1525.82
581.428	1482.81
581.63	1567.48
581.832	1464.41
582.034	1496.96
582.236	1470.41
582.438	1529.12
582.64	1532.61
582.841	1563.99
583.043	1586.85
583.245	1529.7
583.447	1514.78
583.649	1523.69
583.85	1521.76
584.052	1542.87
584.254	1464.02
584.456	1539.97
584.657	1434.18
584.859	1493.27
585.061	1493.86
585.262	1463.05
585.464	1449.68
585.666	1532.02
585.867	1441.74
586.069	1503.35
586.27	1471.19
586.472	1467.7
586.674	1443.29
586.875	1450.84
587.077	1433.79
587.278	1455.3
587.48	1469.44
587.681	1579.3
587.883	1454.72
588.084	1394.27
588.285	1409.96
588.487	1437.48
588.688	1417.52
588.89	1336.92
589.091	1345.25
589.292	1315.8
589.494	1298.17
589.695	1277.05
589.896	1229.39
590.098	1203.82
590.299	1254.77
590.5	1247.22
590.702	1254.77
590.903	1312.51
591.104	1383.03
591.305	1344.86
591.507	1394.46
591.708	1375.28
591.909	1322.58
592.11	1401.05
592.311	1363.85
592.512	1338.47
592.714	1301.66
592.915	1311.54
593.116	1335.37
593.317	1340.99
593.518	1366.37
593.719	1324.33
593.92	1380.32
594.121	1377.22
594.322	1372.57
594.523	1321.61
594.724	1299.91
594.925	1319.48
595.126	1346.8
595.327	1326.46
595.528	1330.91
595.729	1360.75
595.929	1332.46
596.13	1347.77
596.331	1338.28
596.532	1353.97
596.733	1384.39
596.934	1386.52
597.135	1401.44
597.335	1353.58
597.536	1312.9
597.737	1343.7
597.938	1310.38
598.138	1352.23
598.339	1353.78
598.54	1346.61
598.74	1323.16
598.941	1365.01
599.142	1408.03
599.342	1371.79
599.543	1328.78
599.744	1340.99
599.944	1305.73
600.145	1331.11
600.345	1338.66
600.546	1435.93
600.746	1400.08
600.947	1456.08
601.147	1327.04
601.348	1389.43
601.548	1309.21
601.749	1328.2
601.949	1307.86
602.15	1317.55
602.35	1318.51
602.551	1393.3
602.751	1299.33
602.951	1355.33
603.152	1291.2
603.352	1340.8
603.552	1315.03
603.753	1358.43
603.953	1369.66
604.153	1383.42
604.354	1334.4
604.554	1360.17
604.754	1310.96
604.954	1281.51
605.155	1365.98
605.355	1340.02
605.555	1368.31
605.755	1377.8
605.955	1342.35
606.155	1352.81
606.356	1347.58
606.556	1363.85
606.756	1352.03
606.956	1299.14
607.156	1381.09
607.356	1287.71
607.556	1340.99
607.756	1307.08
607.956	1370.24
608.156	1344.09
608.356	1285.96
608.556	1377.03
608.756	1329.95
608.956	1309.99
609.156	1330.33
609.356	1294.1
609.556	1235.4
609.755	1320.65
609.955	1242.76
610.155	1305.73
610.355	1292.75
610.555	1278.41
610.755	1262.91
610.954	1201.1
611.154	1303.21
611.354	1324.13
611.554	1236.37
611.753	1238.11
611.953	1212.92
612.153	1271.82
612.352	1279.57
612.552	1204.78
612.752	1193.35
612.951	1284.41
613.151	1247.6
613.351	1207.11
613.55	1234.43
613.75	1253.8
613.949	1236.37
614.149	1235.78
614.348	1206.14
614.548	1202.65
614.747	1146.66
614.947	1223.38
615.146	1132.52
615.346	1218.54
615.545	1228.03
615.745	1192.77
615.944	1223.38
616.144	1180.76
616.343	1244.31
616.542	1194.52
616.742	1198.58
616.941	1196.26
617.14	1123.6
617.34	1189.87
617.539	1183.28
617.738	1154.6
617.938	1264.85
618.137	1171.46
618.336	1127.87
618.535	1207.69
618.734	1189.67
618.934	1198.2
