Data from pine_FLMT105791__9__17-19-43-080.txt Node

Date: Mon Mar 20 17:19:43 GMT 2023
User: antho
Spectrometer: FLMT10579
Trigger mode: 0
Integration Time (sec): 1.000000E-1
Scans to average: 10
Electric dark correction enabled: true
Nonlinearity correction enabled: false
Boxcar width: 0
XAxis mode: Wavelengths
Number of Pixels in Spectrum: 3648
>>>>>Begin Spectral Data<<<<<
345.248	-180.44
345.464	-180.44
345.681	-180.44
345.898	-155.45
346.114	-165.14
346.331	-60.9
346.548	31.9
346.764	5.94
346.981	-5.3
347.197	-31.65
347.414	37.52
347.631	-9.56
347.847	51.67
348.064	14.27
348.28	9.62
348.497	-41.91
348.713	-1.61
348.93	30.16
349.146	10.2
349.363	-12.85
349.579	40.62
349.796	1.87
350.012	-22.35
350.229	29.58
350.445	-13.05
350.661	7.49
350.878	6.91
351.094	42.95
351.311	22.41
351.527	17.37
351.743	-3.16
351.96	29.19
352.176	29.77
352.392	25.32
352.609	31.52
352.825	17.95
353.041	6.91
353.257	7.69
353.474	-14.6
353.69	12.14
353.906	-8.59
354.122	-20.02
354.339	35
354.555	12.34
354.771	-9.36
354.987	57.28
355.203	52.25
355.42	-5.68
355.636	-3.55
355.852	-37.65
356.068	27.84
356.284	-43.27
356.5	66.78
356.716	3.04
356.932	-13.43
357.148	9.24
357.364	-14.21
357.58	29.38
357.796	59.61
358.012	52.63
358.228	7.1
358.444	-51.99
358.66	56.32
358.876	21.05
359.092	-9.95
359.308	-8.4
359.524	27.84
359.74	4.59
359.956	-8.4
360.172	1.1
360.388	45.08
360.604	16.02
360.819	81.31
361.035	20.86
361.251	10.01
361.467	-11.88
361.683	48.18
361.898	34.42
362.114	53.8
362.33	18.92
362.546	57.09
362.762	0.32
362.977	33.26
363.193	-23.51
363.409	42.17
363.624	-44.05
363.84	-32.61
364.056	-17.7
364.271	1.49
364.487	21.64
364.703	7.1
364.918	-10.33
365.134	-0.45
365.35	13.3
365.565	114.44
365.781	10.79
365.996	18.54
366.212	44.88
366.427	28.61
366.643	-18.08
366.858	14.27
367.074	-53.54
367.289	63.48
367.505	86.15
367.72	-50.25
367.936	-8.01
368.151	24.15
368.367	16.6
368.582	14.27
368.798	-15.18
369.013	65.81
369.228	16.79
369.444	12.53
369.659	40.23
369.874	51.67
370.09	45.85
370.305	-78.53
370.52	7.88
370.736	68.13
370.951	-10.53
371.166	87.32
371.381	58.06
371.597	62.9
371.812	-11.88
372.027	-26.03
372.242	12.72
372.458	59.22
372.673	-7.81
372.888	-7.23
373.103	44.5
373.318	108.43
373.533	23.19
373.749	59.42
373.964	-22.15
374.179	82.47
374.394	7.1
374.609	72.2
374.824	-31.65
375.039	44.11
375.254	-30.1
375.469	65.81
375.684	11.17
375.899	40.43
376.114	14.47
376.329	16.21
376.544	31.52
376.759	21.44
376.974	-12.85
377.189	-20.99
377.404	-0.65
377.619	71.62
377.834	-41.72
378.049	-20.8
378.264	-33
378.478	40.23
378.693	-20.8
378.908	23.38
379.123	-29.32
379.338	45.66
379.553	40.23
379.767	26.67
379.982	46.63
380.197	42.56
380.412	24.93
380.626	53.6
380.841	106.5
381.056	41.59
381.271	62.9
381.485	1.29
381.7	-16.53
381.915	42.17
382.129	-1.81
382.344	29.58
382.559	23.19
382.773	29.97
382.988	-26.22
383.202	26.67
383.417	0.9
383.632	109.6
383.846	12.34
384.061	46.82
384.275	24.74
384.49	42.56
384.704	34.42
384.919	32.29
385.133	10.79
385.348	23.77
385.562	-13.43
385.777	37.33
385.991	25.32
386.206	28.22
386.42	4.78
386.634	55.35
386.849	45.85
387.063	28.42
387.277	-18.86
387.492	1.68
387.706	-22.73
387.92	-7.62
388.135	44.3
388.349	58.45
388.563	37.72
388.778	20.86
388.992	51.67
389.206	37.33
389.42	86.93
389.635	20.47
389.849	29.19
390.063	59.22
390.277	28.42
390.491	74.72
390.706	46.63
390.92	39.07
391.134	15.63
391.348	61.55
391.562	-34.16
391.776	0.52
391.99	0.71
392.205	66
392.419	-20.41
392.633	21.44
392.847	83.05
393.061	5.75
393.275	74.14
393.489	16.99
393.703	30.16
393.917	60.58
394.131	10.79
394.345	37.91
394.559	55.15
394.773	2.65
394.986	34.03
395.2	18.54
395.414	33.26
395.628	-14.4
395.842	27.06
396.056	-4.33
396.27	-24.28
396.484	22.99
396.697	39.27
396.911	86.73
397.125	52.05
397.339	41.78
397.553	30.35
397.766	85.96
397.98	69.49
398.194	73.17
398.408	24.54
398.621	33.45
398.835	40.43
399.049	30.74
399.262	73.75
399.476	53.99
399.69	57.87
399.903	117.35
400.117	26.87
400.331	52.44
400.544	11.37
400.758	163.65
400.971	39.85
401.185	41.01
401.398	-10.53
401.612	91.38
401.826	46.63
402.039	56.12
402.253	16.21
402.466	50.31
402.68	53.8
402.893	56.51
403.106	45.66
403.32	38.88
403.533	55.73
403.747	22.99
403.96	47.4
404.174	64.45
404.387	9.82
404.6	20.86
404.814	64.84
405.027	18.73
405.24	52.63
405.454	39.65
405.667	63.48
405.88	-19.44
406.094	42.56
406.307	91.58
406.52	18.54
406.733	19.12
406.947	17.95
407.16	83.63
407.373	74.53
407.586	15.24
407.799	6.33
408.012	85.18
408.226	56.7
408.439	92.55
408.652	12.53
408.865	30.16
409.078	87.7
409.291	55.35
409.504	-10.72
409.717	44.69
409.93	42.75
410.143	59.8
410.357	12.34
410.57	-6.85
410.783	13.89
410.996	43.72
411.209	29.19
411.421	87.12
411.634	32.29
411.847	-0.65
412.06	25.7
412.273	27.64
412.486	39.46
412.699	117.73
412.912	39.65
413.125	56.12
413.338	37.52
413.55	88.67
413.763	47.6
413.976	37.13
414.189	46.43
414.402	7.49
414.615	90.22
414.827	24.15
415.04	56.9
415.253	83.44
415.466	83.25
415.678	87.32
415.891	21.83
416.104	45.08
416.316	53.02
416.529	6.33
416.742	79.37
416.954	78.4
417.167	39.85
417.38	32.87
417.592	76.47
417.805	9.04
418.017	-19.63
418.23	59.22
418.442	40.43
418.655	11.75
418.868	45.08
419.08	91
419.293	89.64
419.505	59.61
419.718	65.42
419.93	80.92
420.142	44.5
420.355	102.23
420.567	98.17
420.78	95.26
420.992	50.31
421.205	116.38
421.417	3.81
421.629	34.42
421.842	22.02
422.054	-1.03
422.266	63.68
422.479	84.02
422.691	27.06
422.903	82.08
423.115	36.94
423.328	50.5
423.54	39.07
423.752	39.85
423.964	29.58
424.177	81.7
424.389	24.15
424.601	169.27
424.813	50.12
425.025	81.12
425.238	90.22
425.45	35.78
425.662	53.6
425.874	365.54
426.086	53.22
426.298	62.9
426.51	68.13
426.722	53.8
426.934	40.62
427.146	101.65
427.358	43.72
427.57	80.92
427.782	69.68
427.994	60.38
428.206	40.43
428.418	15.44
428.63	102.43
428.842	96.23
429.054	56.51
429.266	92.16
429.478	60.38
429.69	91.58
429.902	14.47
430.114	96.62
430.325	62.9
430.537	49.15
430.749	51.67
430.961	9.04
431.173	73.17
431.384	106.11
431.596	31.32
431.808	24.74
432.02	64.45
432.231	107.08
432.443	108.43
432.655	73.37
432.867	59.22
433.078	81.89
433.29	170.43
433.502	97.39
433.713	114.83
433.925	73.95
434.136	116.57
434.348	63.87
434.56	38.68
434.771	168.5
434.983	21.44
435.194	58.06
435.406	65.62
435.617	97
435.829	122.58
436.04	85.57
436.252	115.8
436.463	121.03
436.675	128.97
436.886	85.57
437.098	60.19
437.309	147.76
437.521	72.4
437.732	87.12
437.943	79.76
438.155	113.47
438.366	42.75
438.578	146.99
438.789	100.68
439	112.31
439.211	100.1
439.423	96.62
439.634	134.4
439.845	109.79
440.057	140.6
440.268	133.04
440.479	96.42
440.69	96.81
440.902	95.26
441.113	122.96
441.324	84.22
441.535	118.7
441.746	175.66
441.957	52.25
442.168	71.04
442.38	98.36
442.591	152.22
442.802	94.29
443.013	89.83
443.224	114.63
443.435	116.76
443.646	107.66
443.857	103.2
444.068	92.16
444.279	86.54
444.49	167.14
444.701	119.67
444.912	231.66
445.123	149.9
445.334	150.86
445.545	130.13
445.756	120.45
445.967	105.33
446.178	105.33
446.388	143.11
446.599	180.12
446.81	168.69
447.021	145.63
447.232	176.05
447.443	185.74
447.653	106.3
447.864	185.74
448.075	138.85
448.286	163.26
448.496	170.43
448.707	166.56
448.918	163.85
449.129	248.51
449.339	128.39
449.55	169.66
449.761	163.07
449.971	213.06
450.182	123.35
450.393	179.93
450.603	138.66
450.814	186.9
451.024	166.95
451.235	178.38
451.446	222.36
451.656	227.01
451.867	136.33
452.077	162.88
452.288	236.31
452.498	207.83
452.709	150.86
452.919	195.43
453.13	125.48
453.34	237.47
453.55	123.16
453.761	207.24
453.971	190.97
454.182	194.26
454.392	159.2
454.602	206.86
454.813	182.06
455.023	199.5
455.233	138.85
455.444	182.64
455.654	118.12
455.864	184.38
456.075	160.75
456.285	171.4
456.495	158.03
456.705	189.03
456.916	233.79
457.126	259.56
457.336	188.06
457.546	124.71
457.756	163.46
457.967	236.31
458.177	163.07
458.387	186.13
458.597	166.75
458.807	175.86
459.017	173.73
459.227	170.63
459.437	201.82
459.647	224.49
459.857	207.24
460.068	187.48
460.278	253.16
460.488	219.26
460.698	262.27
460.908	181.28
461.117	183.03
461.327	166.75
461.537	188.06
461.747	198.53
461.957	224.68
462.167	315.36
462.377	231.08
462.587	202.6
462.797	242.7
463.007	205.69
463.216	245.61
463.426	257.43
463.636	241.54
463.846	187.68
464.056	172.18
464.265	258.59
464.475	204.92
464.685	205.5
464.895	246.96
465.104	209.76
465.314	217.51
465.524	214.22
465.733	183.61
465.943	285.13
466.153	271.18
466.362	250.06
466.572	240.96
466.782	199.5
466.991	235.34
467.201	279.51
467.41	161.91
467.62	239.41
467.829	229.53
468.039	244.25
468.249	237.86
468.458	213.06
468.668	265.56
468.877	268.28
469.086	291.72
469.296	274.48
469.505	226.81
469.715	288.23
469.924	263.24
470.134	293.66
470.343	278.54
470.552	238.63
470.762	236.5
470.971	194.46
471.18	275.64
471.39	260.53
471.599	215.96
471.808	261.49
472.018	235.73
472.227	305.28
472.436	289.2
472.645	241.34
472.855	242.7
473.064	317.29
473.273	273.31
473.482	294.43
473.691	314.39
473.901	312.84
474.11	283.78
474.319	374.45
474.528	277.19
474.737	359.53
474.946	300.82
475.155	304.51
475.364	332.02
475.573	283.78
475.783	297.14
475.992	319.81
476.201	334.34
476.41	310.32
476.619	264.01
476.828	328.53
477.037	286.68
477.245	292.11
477.454	354.49
477.663	290.17
477.872	309.16
478.081	366.51
478.29	286.68
478.499	370.19
478.708	299.86
478.917	388.79
479.125	337.25
479.334	344.42
479.543	316.71
479.752	354.11
479.961	338.41
480.169	375.22
480.378	329.89
480.587	449.43
480.796	392.08
481.004	353.91
481.213	372.12
481.422	382.97
481.63	356.24
481.839	392.47
482.048	418.62
482.256	384.91
482.465	364.37
482.674	411.65
482.882	417.07
483.091	431.22
483.299	374.45
483.508	437.8
483.716	358.56
483.925	386.46
484.134	378.32
484.342	380.84
484.551	397.5
484.759	434.12
484.967	408.35
485.176	433.93
485.384	430.44
485.593	453.11
485.801	404.09
486.01	418.04
486.218	391.5
486.426	324.27
486.635	383.36
486.843	367.09
487.051	409.13
487.26	393.82
487.468	409.71
487.676	444.78
487.885	370.19
488.093	417.65
488.301	414.94
488.509	461.25
488.717	475.39
488.926	429.28
489.134	426.95
489.342	465.51
489.55	420.95
489.758	438.77
489.967	418.43
490.175	534.29
490.383	424.44
490.591	546.5
490.799	439.16
491.007	513.95
491.215	457.18
491.423	463.57
491.631	472.1
491.839	475.2
492.047	485.66
492.255	454.66
492.463	387.62
492.671	471.13
492.879	528.28
493.087	494.96
493.295	506.58
493.503	493.02
493.711	535.84
493.919	527.32
494.127	528.87
494.334	542.04
494.542	480.82
494.75	471.9
494.958	510.07
495.166	568
495.374	507.17
495.581	501.93
495.789	512.98
495.997	573.23
496.205	521.7
496.412	508.33
496.62	520.53
496.828	539.52
497.035	520.92
497.243	528.09
497.451	491.08
497.658	551.53
497.866	530.42
498.074	611.6
498.281	511.82
498.489	595.13
498.696	527.7
498.904	525.18
499.112	538.36
499.319	609.66
499.527	520.34
499.734	578.27
499.942	537.2
500.149	485.66
500.357	562.38
500.564	502.13
500.771	558.51
500.979	515.11
501.186	505.81
501.394	578.27
501.601	547.08
501.808	588.15
502.016	531.38
502.223	546.5
502.43	544.56
502.638	554.63
502.845	506
503.052	640.66
503.26	552.89
503.467	626.13
503.674	567.23
503.881	579.63
504.089	637.75
504.296	580.21
504.503	546.5
504.71	585.44
504.917	531
505.125	550.57
505.332	590.28
505.539	589.12
505.746	674.95
505.953	630.58
506.16	598.61
506.367	660.23
506.574	627.1
506.781	669.91
506.988	562.96
507.195	617.8
507.402	593.19
507.609	624
507.816	590.09
508.023	615.47
508.23	607.91
508.437	556.96
508.644	633.68
508.851	669.91
509.058	666.43
509.265	630.97
509.472	668.17
509.679	729.2
509.885	634.65
510.092	670.11
510.299	635.23
510.506	641.82
510.713	647.05
510.92	660.42
511.126	664.29
511.333	710.02
511.54	685.99
511.746	723.19
511.953	698.78
512.16	709.05
512.367	696.65
512.573	682.31
512.78	715.64
512.987	682.7
513.193	718.16
513.4	627.87
513.606	673.79
513.813	678.24
514.02	718.35
514.226	775.89
514.433	723
514.639	631.36
514.846	709.44
515.052	674.18
515.259	690.45
515.465	677.86
515.672	687.93
515.878	775.31
516.085	691.03
516.291	742.57
516.497	666.23
516.704	695.49
516.91	665.65
517.117	649.38
517.323	599.2
517.529	650.73
517.736	637.75
517.942	668.75
518.148	644.14
518.354	698.01
518.561	649.38
518.767	696.65
518.973	738.89
519.179	753.61
519.386	670.69
519.592	646.47
519.798	688.13
520.004	747.41
520.21	704.4
520.417	773.18
520.623	775.89
520.829	792.17
521.035	763.3
521.241	783.06
521.447	797.4
521.653	871.41
521.859	772.21
522.065	787.71
522.271	883.62
522.477	809.02
522.683	828.2
522.889	820.65
523.095	816.97
523.301	801.27
523.507	780.35
523.713	828.59
523.919	809.61
524.125	858.62
524.331	838.28
524.537	903.77
524.742	857.46
524.948	894.66
525.154	883.42
525.36	940.38
525.566	890.01
525.772	939.22
525.977	849.71
526.183	895.63
526.389	889.43
526.595	850.29
526.8	847.39
527.006	816.97
527.212	806.31
527.417	799.72
527.623	779.19
527.829	877.61
528.034	852.62
528.24	840.22
528.446	824.52
528.651	888.65
528.857	877.03
529.062	949.1
529.268	899.12
529.473	934.57
529.679	909.38
529.884	969.25
530.09	935.93
530.295	987.85
530.501	964.6
530.706	931.86
530.912	887.3
531.117	926.82
531.323	909.77
531.528	987.85
531.733	1008.2
531.939	959.95
532.144	991.53
532.35	948.33
532.555	1014.4
532.76	972.93
532.966	984.37
533.171	970.42
533.376	984.37
533.581	934.57
533.787	943.68
533.992	958.98
534.197	1022.92
534.402	934.77
534.607	976.03
534.813	1064.77
535.018	966.93
535.223	922.56
535.428	1002.77
535.633	1018.27
535.838	994.05
536.043	1007.03
536.249	1067.68
536.454	997.35
536.659	1005.48
536.864	962.47
537.069	999.28
537.274	1034.35
537.479	1006.84
537.684	992.7
537.889	970.61
538.094	1086.47
538.299	1012.65
538.504	1030.67
538.708	1039
538.913	1043.65
539.118	1003.35
539.323	1071.94
539.528	977.78
539.733	1048.69
539.938	1055.66
540.142	1033
540.347	1049.66
540.552	1007.23
540.757	1019.05
540.962	1005.1
541.166	964.99
541.371	968.28
541.576	1030.86
541.781	919.85
541.985	1037.26
542.19	1034.35
542.395	1089.18
542.599	1100.42
542.804	1092.67
543.008	1109.14
543.213	1033
543.418	1022.73
543.622	1071.36
543.827	978.94
544.031	1120.76
544.236	1081.24
544.44	1056.05
544.645	1152.73
544.849	1070.97
545.054	1084.34
545.258	1137.04
545.463	1133.16
545.667	1040.16
545.872	1094.41
546.076	1096.93
546.281	1079.88
546.485	1037.06
546.689	1092.86
546.894	1094.8
547.098	1083.18
547.302	1029.51
547.507	1070.97
547.711	1081.63
547.915	1115.92
548.119	1035.32
548.324	1080.66
548.528	1130.84
548.732	1060.9
548.936	1106.43
549.141	1148.08
549.345	1058.18
549.549	1101.39
549.753	1080.66
549.957	1122.89
550.161	1160.68
550.366	1104.1
550.57	1084.53
550.774	1097.71
550.978	1083.56
551.182	1118.24
551.386	1083.37
551.59	1077.36
551.794	1086.08
551.998	1113.59
552.202	1097.51
552.406	1021.18
552.61	1091.7
552.814	1096.16
553.018	1161.26
553.222	1082.79
553.426	1054.7
553.63	1179.08
553.833	1087.83
554.037	1056.05
554.241	1124.25
554.445	1122.31
554.649	1070.39
554.853	1091.89
555.056	1157.96
555.26	1127.54
555.464	1111.46
555.668	1131.61
555.871	1137.04
556.075	1141.3
556.279	1047.53
556.483	1052.18
556.686	1082.01
556.89	1111.66
557.094	1120.96
557.297	1022.53
557.501	1120.57
557.704	1037.84
557.908	1138.59
558.112	1035.9
558.315	1171.91
558.519	1085.69
558.722	1076.01
558.926	1078.53
559.129	1044.81
559.333	977.2
559.536	1023.5
559.74	1047.33
559.943	1014.01
560.147	1023.5
560.35	1051.21
560.553	1028.93
560.757	990.56
560.96	1109.91
561.164	1035.9
561.367	1108.94
561.57	1030.67
561.774	1069.03
561.977	1024.66
562.18	1027.96
562.384	1125.99
562.587	1070.2
562.79	1028.93
562.993	1029.9
563.197	1075.62
563.4	1125.8
563.603	1088.41
563.806	1145.18
564.009	1032.03
564.212	1041.52
564.416	1009.16
564.619	1066.51
564.822	976.23
565.025	1111.27
565.228	1015.75
565.431	1024.86
565.634	965.77
565.837	1018.27
566.04	969.45
566.243	968.67
566.446	891.95
566.649	1012.26
566.852	963.83
567.055	984.17
567.258	1017.11
567.461	1076.2
567.664	1048.69
567.867	934.77
568.07	1025.05
568.273	984.17
568.475	1034.74
568.678	971.97
568.881	985.14
569.084	981.27
569.287	905.9
569.489	951.62
569.692	1008.39
569.895	962.86
570.098	917.52
570.3	922.95
570.503	892.92
570.706	932.63
570.909	910.35
571.111	889.24
571.314	867.92
571.516	887.49
571.719	911.71
571.922	897.57
572.124	896.6
572.327	916.36
572.529	876.64
572.732	883.42
572.935	906.87
573.137	994.44
573.34	899.31
573.542	941.74
573.745	966.73
573.947	923.33
574.15	896.4
574.352	886.72
574.554	997.93
574.757	896.21
574.959	887.3
575.162	879.74
575.364	903.57
575.566	981.85
575.769	844.87
575.971	888.65
576.173	818.13
576.376	872.19
576.578	897.76
576.78	970.03
576.982	811.93
577.185	863.47
577.387	878
577.589	834.4
577.791	880.13
577.993	916.94
578.196	895.05
578.398	893.69
578.6	880.9
578.802	839.64
579.004	809.02
579.206	852.81
579.408	879.94
579.61	876.25
579.812	902.99
580.014	859.59
580.216	827.04
580.418	851.26
580.62	819.1
580.822	797.01
581.024	833.82
581.226	892.53
581.428	844.29
581.63	958.98
581.832	849.71
582.034	897.95
582.236	878.58
582.438	900.47
582.64	927.98
582.841	925.08
583.043	980.49
583.245	896.79
583.447	890.01
583.649	853.59
583.85	915.78
584.052	897.76
584.254	877.61
584.456	910.16
584.657	853
584.859	907.06
585.061	843.9
585.262	883.42
585.464	827.82
585.666	901.64
585.867	834.02
586.069	931.67
586.27	887.69
586.472	851.65
586.674	843.9
586.875	854.55
587.077	837.7
587.278	875.87
587.48	816.39
587.681	955.11
587.883	862.11
588.084	806.7
588.285	820.45
588.487	819.68
588.688	861.53
588.89	772.99
589.091	737.34
589.292	788.68
589.494	752.64
589.695	763.69
589.896	701.69
590.098	687.54
590.299	769.89
590.5	711.96
590.702	758.84
590.903	764.85
591.104	803.6
591.305	814.45
591.507	867.73
591.708	778.8
591.909	794.69
592.11	862.3
592.311	853.2
592.512	783.64
592.714	750.12
592.915	753.22
593.116	774.92
593.317	780.35
593.518	788.87
593.719	793.33
593.92	830.72
594.121	844.09
594.322	819.49
594.523	802.24
594.724	752.26
594.925	785.39
595.126	809.22
595.327	817.74
595.528	763.69
595.729	827.62
595.929	783.45
596.13	813.48
596.331	797.21
596.532	798.76
596.733	876.64
596.934	819.49
597.135	810.96
597.335	826.27
597.536	771.05
597.737	785.58
597.938	785.97
598.138	793.91
598.339	811.16
598.54	831.11
598.74	805.92
598.941	795.07
599.142	877.03
599.342	802.63
599.543	758.07
599.744	796.04
599.944	780.54
600.145	758.26
600.345	803.21
600.546	900.47
600.746	851.26
600.947	880.32
601.147	828.59
601.348	846.22
601.548	764.46
601.749	793.33
601.949	745.67
602.15	787.32
602.35	787.91
602.551	819.29
602.751	756.91
602.951	783.45
603.152	712.73
603.352	822.59
603.552	776.47
603.753	848.55
603.953	834.21
604.153	793.72
604.354	779.38
604.554	805.15
604.754	815.22
604.954	778.8
605.155	791.39
605.355	782.09
605.555	822.59
605.755	837.5
605.955	785.97
606.155	824.72
606.356	794.3
606.556	832.85
606.756	801.47
606.956	763.11
607.156	857.85
607.356	771.05
607.556	813.87
607.756	774.54
607.956	850.29
608.156	810.57
608.356	755.74
608.556	802.82
608.756	803.21
608.956	752.64
609.156	798.56
609.356	761.36
609.556	744.7
609.755	801.66
609.955	744.12
610.155	768.92
610.355	789.07
610.555	751.67
610.755	771.82
610.954	719.71
611.154	780.54
611.354	823.36
611.554	750.12
611.753	757.87
611.953	721.26
612.153	789.46
612.352	794.3
612.552	723.39
612.752	724.94
612.951	769.5
613.151	767.37
613.351	723.19
613.55	740.24
613.75	778.99
613.949	766.01
614.149	758.46
614.348	754.77
614.548	706.73
614.747	715.25
614.947	730.36
615.146	663.71
615.346	766.98
615.545	760.97
615.745	761.94
615.944	755.16
616.144	734.24
616.343	748.19
616.542	697.04
616.742	735.59
616.941	704.79
617.14	692.78
617.34	716.61
617.539	707.5
617.738	681.54
617.938	789.26
618.137	735.21
618.336	660.23
618.535	703.04
618.734	708.28
618.934	753.81
619.133	735.79
619.332	743.34
619.531	684.44
619.73	696.26
619.929	758.84
620.128	726.88
620.328	776.09
620.527	697.23
620.726	685.41
620.925	730.94
621.124	704.01
621.323	745.67
621.522	674.37
621.721	683.28
621.92	665.84
622.119	713.51
622.318	664.49
622.517	694.33
622.715	665.46
622.914	635.43
623.113	695.1
623.312	641.63
623.511	697.43
623.71	690.06
623.909	654.99
624.107	742.57
624.306	637.56
624.505	656.35
624.704	637.17
624.902	660.42
625.101	740.63
