Data from pine_FLMT105791__79__17-21-19-077.txt Node

Date: Mon Mar 20 17:21:19 GMT 2023
User: antho
Spectrometer: FLMT10579
Trigger mode: 0
Integration Time (sec): 1.000000E-1
Scans to average: 10
Electric dark correction enabled: true
Nonlinearity correction enabled: false
Boxcar width: 0
XAxis mode: Wavelengths
Number of Pixels in Spectrum: 3648
>>>>>Begin Spectral Data<<<<<
345.248	-168.25
345.464	-168.25
345.681	-168.25
345.898	-169.42
346.114	-151.78
346.331	-48.52
346.548	52.81
346.764	16.97
346.981	-1.44
347.197	-9.77
347.414	12.13
347.631	-18.68
347.847	37.7
348.064	-23.91
348.28	28.21
348.497	-32.24
348.713	-13.26
348.93	37.12
349.146	35.57
349.363	14.26
349.579	25.3
349.796	-0.08
350.012	-10.35
350.229	26.66
350.445	12.13
350.661	-24.3
350.878	-3.57
351.094	-0.27
351.311	1.47
351.527	1.47
351.743	-15.97
351.96	49.52
352.176	39.06
352.392	3.41
352.609	47.97
352.825	-11.51
353.041	31.5
353.257	18.13
353.474	-1.24
353.69	-1.05
353.906	7.48
354.122	-16.16
354.339	58.82
354.555	-18.49
354.771	-8.22
354.987	59.98
355.203	59.59
355.42	-9.96
355.636	-2.21
355.852	-21.97
356.068	5.73
356.284	-16.55
356.5	65.02
356.716	11.35
356.932	29.56
357.148	28.01
357.364	0.5
357.58	37.12
357.796	75.87
358.012	55.91
358.228	38.28
358.444	-38.25
358.66	65.79
358.876	4.57
359.092	-6.67
359.308	21.43
359.524	28.98
359.74	11.74
359.956	1.08
360.172	16.97
360.388	53.78
360.604	-0.86
360.819	68.12
361.035	5.54
361.251	28.59
361.467	-43.87
361.683	49.71
361.898	48.36
362.114	42.74
362.33	16.19
362.546	58.43
362.762	10.96
362.977	-2.99
363.193	-22.17
363.409	58.04
363.624	-28.17
363.84	-9.77
364.056	-2.79
364.271	12.51
364.487	20.46
364.703	-27.21
364.918	-1.82
365.134	5.73
365.35	9.41
365.565	112.1
365.781	1.08
365.996	55.14
366.212	56.69
366.427	7.86
366.643	2.05
366.858	12.32
367.074	-23.72
367.289	56.3
367.505	118.3
367.72	-37.67
367.936	-1.44
368.151	40.99
368.367	42.35
368.582	17.16
368.798	17.94
369.013	62.89
369.228	7.09
369.444	1.66
369.659	65.6
369.874	14.84
370.09	68.12
370.305	-46.39
370.52	-28.95
370.736	55.91
370.951	-2.99
371.166	70.83
371.381	78.39
371.597	35.18
371.812	-20.62
372.027	-41.35
372.242	18.91
372.458	76.45
372.673	-8.41
372.888	28.98
373.103	22.78
373.318	105.12
373.533	27.82
373.749	28.01
373.964	-28.95
374.179	46.22
374.394	-10.74
374.609	73.74
374.824	-23.72
375.039	56.3
375.254	-2.21
375.469	76.64
375.684	32.28
375.899	87.11
376.114	5.54
376.329	24.33
376.544	58.62
376.759	24.14
376.974	-8.8
377.189	20.46
377.404	5.93
377.619	54.75
377.834	-7.06
378.049	-22.36
378.264	-18.1
378.478	18.13
378.693	-14.61
378.908	52.23
379.123	-16.16
379.338	48.16
379.553	14.26
379.767	28.01
379.982	41.19
380.197	28.79
380.412	25.69
380.626	8.44
380.841	76.26
381.056	36.73
381.271	85.56
381.485	-9.57
381.7	-34.96
381.915	39.44
382.129	-9.96
382.344	41.19
382.559	9.8
382.773	48.94
382.988	-42.12
383.202	22.2
383.417	-9.57
383.632	108.81
383.846	28.21
384.061	30.73
384.275	10.19
384.49	51.26
384.704	48.16
384.919	17.74
385.133	7.48
385.348	54.17
385.562	-2.79
385.777	61.14
385.991	22.98
386.206	-12.87
386.42	-19.26
386.634	43.9
386.849	50.1
387.063	47.97
387.277	-17.13
387.492	2.05
387.706	-33.21
387.92	-20.04
388.135	60.56
388.349	30.92
388.563	-4.73
388.778	29.95
388.992	44.09
389.206	31.69
389.42	88.07
389.635	12.71
389.849	40.02
390.063	54.56
390.277	12.51
390.491	51.84
390.706	47.97
390.92	61.34
391.134	48.36
391.348	48.16
391.562	-34.96
391.776	18.13
391.99	-14.42
392.205	36.92
392.419	-19.07
392.633	25.11
392.847	48.16
393.061	0.31
393.275	97.57
393.489	23.36
393.703	32.66
393.917	74.9
394.131	2.83
394.345	44.67
394.559	39.06
394.773	14.26
394.986	43.71
395.2	25.11
395.414	49.32
395.628	8.25
395.842	21.81
396.056	-6.67
396.27	-48.52
396.484	46.22
396.697	22.78
396.911	79.36
397.125	43.12
397.339	72.19
397.553	53.2
397.766	80.71
397.98	53.2
398.194	67.54
398.408	13.48
398.621	30.14
398.835	38.47
399.049	23.36
399.262	57.27
399.476	64.63
399.69	77.03
399.903	112.87
400.117	8.83
400.331	56.11
400.544	-2.79
400.758	151.04
400.971	33.24
401.185	66.37
401.398	19.1
401.612	77.61
401.826	72.57
402.039	66.57
402.253	3.41
402.466	60.56
402.68	5.15
402.893	36.92
403.106	31.31
403.32	25.49
403.533	35.38
403.747	54.94
403.96	26.85
404.174	64.24
404.387	7.28
404.6	54.17
404.814	74.51
405.027	58.24
405.24	40.61
405.454	39.64
405.667	60.95
405.88	-1.63
406.094	49.91
406.307	67.34
406.52	40.41
406.733	30.14
406.947	-8.61
407.16	98.54
407.373	74.71
407.586	16.58
407.799	1.47
408.012	49.13
408.226	59.01
408.439	88.07
408.652	-23.33
408.865	66.18
409.078	83.04
409.291	56.49
409.504	-23.72
409.717	65.41
409.93	24.91
410.143	20.65
410.357	0.5
410.57	-8.8
410.783	6.89
410.996	43.32
411.209	26.66
411.421	68.7
411.634	31.5
411.847	-0.66
412.06	46.61
412.273	41.19
412.486	44.87
412.699	119.85
412.912	21.23
413.125	49.52
413.338	21.04
413.55	65.41
413.763	49.32
413.976	52.42
414.189	43.51
414.402	20.07
414.615	78.97
414.827	25.11
415.04	73.16
415.253	75.67
415.466	77.03
415.678	84.01
415.891	49.52
416.104	64.24
416.316	20.84
416.529	25.49
416.742	96.99
416.954	84.59
417.167	42.54
417.38	34.21
417.592	86.72
417.805	20.26
418.017	-9.19
418.23	90.01
418.442	16.19
418.655	41.96
418.868	76.26
419.08	80.13
419.293	98.73
419.505	66.96
419.718	78.39
419.93	94.47
420.142	33.05
420.355	85.75
420.567	101.06
420.78	72.96
420.992	52.81
421.205	111.71
421.417	-3.18
421.629	28.98
421.842	25.3
422.054	16
422.266	66.18
422.479	70.06
422.691	32.28
422.903	95.24
423.115	51.46
423.328	53.59
423.54	73.16
423.752	47.39
423.964	60.37
424.177	53.97
424.389	63.86
424.601	181.46
424.813	59.98
425.025	100.09
425.238	113.65
425.45	69.09
425.662	43.51
425.874	354.48
426.086	82.46
426.298	89.43
426.51	86.91
426.722	59.21
426.934	26.46
427.146	94.47
427.358	43.9
427.57	106.67
427.782	61.72
427.994	56.3
428.206	65.99
428.418	20.46
428.63	81.68
428.842	105.71
429.054	86.33
429.266	86.33
429.478	75.09
429.69	69.28
429.902	42.74
430.114	116.56
430.325	101.25
430.537	48.74
430.749	83.62
430.961	28.59
431.173	66.96
431.384	63.27
431.596	-0.47
431.808	66.96
432.02	70.06
432.231	98.54
432.443	99.89
432.655	78.39
432.867	63.66
433.078	95.24
433.29	121.98
433.502	131.28
433.713	127.6
433.925	108.61
434.136	131.09
434.348	42.35
434.56	55.33
434.771	209.75
434.983	43.32
435.194	96.02
435.406	76.84
435.617	129.34
435.829	152.79
436.04	112.29
436.252	140
436.463	141.55
436.675	127.4
436.886	135.15
437.098	126.05
437.309	162.67
437.521	110.94
437.732	140
437.943	111.52
438.155	125.47
438.366	63.86
438.578	174.68
438.789	113.07
439	130.7
439.211	118.11
439.423	143.49
439.634	135.54
439.845	159.76
440.057	132.64
440.268	154.72
440.479	98.34
440.69	121.59
440.902	130.5
441.113	110.94
441.324	135.35
441.535	137.09
441.746	192.7
441.957	100.47
442.168	115.39
442.38	165.19
442.591	162.86
442.802	115.01
443.013	144.07
443.224	157.05
443.435	131.09
443.646	140.97
443.857	145.42
444.068	117.72
444.279	130.12
444.49	212.65
444.701	172.94
444.912	244.82
445.123	193.67
445.334	196.77
445.545	180.49
445.756	171.58
445.967	142.52
446.178	163.25
446.388	210.52
446.599	184.56
446.81	222.92
447.021	132.64
447.232	207.42
447.443	234.16
447.653	140.19
447.864	193.09
448.075	173.9
448.286	197.35
448.496	204.32
448.707	205.68
448.918	183.79
449.129	268.84
449.339	166.93
449.55	191.15
449.761	182.62
449.971	258.38
450.182	181.85
450.393	211.68
450.603	172.94
450.814	204.52
451.024	220.4
451.235	235.9
451.446	241.13
451.656	232.22
451.867	178.75
452.077	207.81
452.288	244.04
452.498	265.55
452.709	193.67
452.919	239
453.13	166.35
453.34	294.22
453.55	173.71
453.761	228.93
453.971	249.66
454.182	240.36
454.392	255.28
454.602	287.25
454.813	245.4
455.023	266.71
455.233	182.04
455.444	237.84
455.654	159.57
455.864	253.34
456.075	211.88
456.285	214.98
456.495	222.34
456.705	247.72
456.916	292.09
457.126	297.32
457.336	235.13
457.546	144.65
457.756	209.36
457.967	283.18
458.177	229.7
458.387	240.55
458.597	200.06
458.807	213.23
459.017	211.3
459.227	225.63
459.437	219.82
459.647	273.49
459.857	277.37
460.068	232.03
460.278	284.73
460.488	249.66
460.698	312.43
460.908	217.88
461.117	184.56
461.327	225.05
461.537	232.61
461.747	257.99
461.957	257.6
462.167	369.59
462.377	286.86
462.587	227.96
462.797	292.87
463.007	274.65
463.216	282.4
463.426	324.25
463.636	266.9
463.846	230.67
464.056	237.26
464.265	318.05
464.475	225.05
464.685	262.25
464.895	292.28
465.104	254.89
465.314	316.5
465.524	266.52
465.733	234.55
465.943	349.83
466.153	312.82
466.362	318.05
466.572	315.53
466.782	289.38
466.991	282.79
467.201	364.55
467.41	253.15
467.62	282.02
467.829	277.75
468.039	303.91
468.249	274.07
468.458	280.85
468.668	325.8
468.877	317.08
469.086	320.38
469.296	341.3
469.505	307.59
469.715	350.02
469.924	293.83
470.134	345.56
470.343	339.36
470.552	300.81
470.762	300.61
470.971	263.42
471.18	304.88
471.39	308.36
471.599	302.75
471.808	327.35
472.018	283.18
472.227	341.5
472.436	361.65
472.645	313.21
472.855	314.18
473.064	382.57
473.273	352.54
473.482	381.02
473.691	385.67
473.901	374.05
474.11	314.95
474.319	426.94
474.528	360.29
474.737	399.23
474.946	390.13
475.155	382.96
475.364	413.18
475.573	382.18
475.783	384.7
475.992	388.38
476.201	430.43
476.41	362.03
476.619	339.56
476.828	362.42
477.037	385.86
477.245	380.05
477.454	432.75
477.663	383.73
477.872	389.74
478.081	446.31
478.29	371.33
478.499	443.21
478.708	407.95
478.917	482.74
479.125	407.56
479.334	402.91
479.543	397.68
479.752	425
479.961	415.51
480.169	462.59
480.378	407.56
480.587	541.83
480.796	439.34
481.004	428.88
481.213	463.94
481.422	448.25
481.63	449.8
481.839	465.69
482.048	525.75
482.256	449.8
482.465	470.92
482.674	471.69
482.882	492.62
483.091	546.09
483.299	479.06
483.508	504.05
483.716	463.94
483.925	504.63
484.134	471.89
484.342	505.02
484.551	527.3
484.759	518.39
484.967	531.37
485.176	548.81
485.384	527.88
485.593	531.76
485.801	497.66
486.01	493.39
486.218	516.64
486.426	426.55
486.635	439.92
486.843	452.71
487.051	471.5
487.26	464.91
487.468	498.62
487.676	543.38
487.885	473.63
488.093	476.15
488.301	509.67
488.509	533.31
488.717	573.99
488.926	507.73
489.134	517.61
489.342	503.08
489.55	501.53
489.758	552.87
489.967	535.05
490.175	639.09
490.383	531.76
490.591	622.04
490.799	506.96
491.007	604.41
491.215	583.29
491.423	545.71
491.631	580.19
491.839	567.6
492.047	615.26
492.255	531.56
492.463	531.17
492.671	572.83
492.879	587.94
493.087	566.24
493.295	626.89
493.503	596.08
493.711	612.16
493.919	631.73
494.127	624.37
494.334	651.88
494.542	581.16
494.75	641.42
494.958	594.34
495.166	655.17
495.374	663.5
495.581	645.87
495.789	658.85
495.997	700.7
496.205	617.59
496.412	627.27
496.62	639.67
496.828	650.52
497.035	632.89
497.243	675.71
497.451	646.65
497.658	643.55
497.866	633.09
498.074	694.5
498.281	670.67
498.489	721.82
498.696	664.67
498.904	655.56
499.112	612.16
499.319	692.18
499.527	651.68
499.734	708.45
499.942	611.19
500.149	660.02
500.357	666.02
500.564	633.67
500.771	694.12
500.979	654.4
501.186	607.12
501.394	693.34
501.601	706.71
501.808	685.59
502.016	636.77
502.223	664.47
502.43	679.39
502.638	667.57
502.845	642.58
503.052	740.61
503.26	664.67
503.467	769.68
503.674	694.12
503.881	697.99
504.089	766.96
504.296	736.55
504.503	660.79
504.71	680.36
504.917	658.66
505.125	723.18
505.332	723.18
505.539	723.18
505.746	777.23
505.953	760.76
506.16	735.19
506.367	803.58
506.574	785.56
506.781	817.34
506.988	706.52
507.195	777.23
507.402	741.97
507.609	784.79
507.816	748.17
508.023	738.68
508.23	738.68
508.437	697.6
508.644	760.38
508.851	831.87
509.058	799.9
509.265	798.16
509.472	778.59
509.679	882.05
509.885	778.4
510.092	801.26
510.299	773.36
510.506	807.65
510.713	803.78
510.92	787.11
511.126	848.73
511.333	832.06
511.54	860.54
511.746	852.41
511.953	880.31
512.16	900.65
512.367	801.84
512.573	835.74
512.78	815.01
512.987	822.57
513.193	809.2
513.4	784.6
513.606	832.84
513.813	852.02
514.02	830.71
514.226	909.18
514.433	913.82
514.639	826.83
514.846	842.72
515.052	843.11
515.259	884.96
515.465	894.64
515.672	873.91
515.878	940.17
516.085	863.26
516.291	886.12
516.497	859.38
516.704	857.44
516.91	821.02
517.117	810.75
517.323	775.1
517.529	796.22
517.736	810.56
517.942	809.4
518.148	806.3
518.354	826.44
518.561	872.75
518.767	845.63
518.973	864.42
519.179	905.69
519.386	881.86
519.592	848.14
519.798	865.39
520.004	970.01
520.21	916.34
520.417	969.82
520.623	978.54
520.829	977.18
521.035	972.92
521.241	934.36
521.447	1006.82
521.653	1060.49
521.859	963.62
522.065	1013.41
522.271	1119
522.477	1054.29
522.683	1072.31
522.889	1008.76
523.095	1034.92
523.301	1027.17
523.507	1039.76
523.713	1024.26
523.919	1008.95
524.125	1066.5
524.331	1046.74
524.537	1106.22
524.742	1069.6
524.948	1091.1
525.154	1096.33
525.36	1183.52
525.566	1093.62
525.772	1178.1
525.977	1081.42
526.183	1113.38
526.389	1141.48
526.595	1104.08
526.8	1085.1
527.006	1035.5
527.212	997.52
527.417	1001.2
527.623	1021.94
527.829	1070.57
528.034	1083.94
528.24	1067.47
528.446	1058.75
528.651	1170.73
528.857	1161.05
529.062	1205.22
529.268	1156.01
529.473	1191.85
529.679	1137.99
529.884	1216.07
530.09	1179.06
530.295	1233.51
530.501	1207.74
530.706	1217.23
530.912	1148.84
531.117	1229.44
531.323	1229.25
531.528	1256.56
531.733	1220.72
531.939	1189.91
532.144	1221.5
532.35	1208.13
532.555	1237.58
532.76	1232.15
532.966	1228.28
533.171	1233.51
533.376	1174.8
533.581	1193.98
533.787	1195.92
533.992	1274.39
534.197	1270.51
534.402	1221.5
534.607	1231.18
534.813	1344.53
535.018	1227.89
535.223	1260.44
535.428	1272.45
535.633	1290.08
535.838	1273.81
536.043	1264.12
536.249	1373.59
536.454	1255.79
536.659	1313.14
536.864	1249.98
537.069	1273.81
537.274	1288.34
537.479	1304.81
537.684	1286.01
537.889	1250.17
538.094	1387.92
538.299	1290.08
538.504	1309.07
538.708	1308.49
538.913	1361.38
539.118	1299.96
539.323	1294.34
539.528	1291.44
539.733	1296.86
539.938	1322.24
540.142	1318.18
540.347	1296.86
540.552	1230.99
540.757	1307.33
540.962	1260.05
541.166	1221.3
541.371	1250.17
541.576	1318.56
541.781	1176.93
541.985	1296.09
542.19	1297.25
542.395	1358.47
542.599	1416.21
542.804	1340.65
543.008	1367.19
543.213	1315.66
543.418	1263.73
543.622	1311.98
543.827	1281.75
544.031	1386.37
544.236	1371.84
544.44	1355.96
544.645	1401.68
544.849	1350.14
545.054	1396.45
545.258	1437.72
545.463	1397.03
545.667	1312.56
545.872	1382.89
546.076	1384.24
546.281	1357.7
546.485	1353.05
546.689	1398.97
546.894	1395.67
547.098	1381.14
547.302	1342.39
547.507	1373.2
547.711	1401.1
547.915	1432.49
548.119	1354.99
548.324	1372.04
548.528	1461.55
548.732	1365.45
548.936	1413.89
549.141	1417.76
549.345	1401.29
549.549	1416.6
549.753	1377.27
549.957	1472.2
550.161	1437.14
550.366	1406.91
550.57	1386.57
550.774	1420.86
550.978	1382.31
551.182	1395.87
551.386	1397.42
551.59	1379.01
551.794	1383.86
551.998	1418.73
552.202	1424.74
552.406	1384.44
552.61	1427.64
552.814	1442.37
553.018	1471.43
553.222	1418.34
553.426	1412.92
553.63	1487.32
553.833	1404.97
554.037	1353.63
554.241	1392.96
554.445	1414.86
554.649	1422.61
554.853	1399.16
555.056	1461.74
555.26	1457.09
555.464	1441.79
555.668	1455.54
555.871	1430.16
556.075	1454.19
556.279	1385.02
556.483	1351.31
556.686	1385.02
556.89	1403.42
557.094	1412.53
557.297	1365.06
557.501	1451.09
557.704	1320.69
557.908	1388.51
558.112	1355.57
558.315	1439.46
558.519	1384.24
558.722	1363.9
558.926	1356.15
559.129	1315.66
559.333	1258.31
559.536	1292.79
559.74	1307.91
559.943	1283.11
560.147	1303.64
560.35	1334.84
560.553	1326.12
560.757	1267.99
560.96	1411.56
561.164	1326.7
561.367	1395.29
561.57	1318.37
561.774	1344.53
561.977	1331.93
562.18	1324.57
562.384	1398
562.587	1337.16
562.79	1316.63
562.993	1333.48
563.197	1348.4
563.4	1418.73
563.603	1389.28
563.806	1418.54
564.009	1324.76
564.212	1347.04
564.416	1311.78
564.619	1365.26
564.822	1297.64
565.025	1366.81
565.228	1305.19
565.431	1325.34
565.634	1227.89
565.837	1281.36
566.04	1256.95
566.243	1276.13
566.446	1198.83
566.649	1315.27
566.852	1251.33
567.055	1265.48
567.258	1306.94
567.461	1345.3
567.664	1360.22
567.867	1224.01
568.07	1277.29
568.273	1293.18
568.475	1316.24
568.678	1249.78
568.881	1214.71
569.084	1227.11
569.287	1180.23
569.489	1206
569.692	1268.77
569.895	1282.53
570.098	1162.4
570.3	1178.68
570.503	1125.2
570.706	1150
570.909	1185.46
571.111	1123.27
571.314	1129.27
571.516	1170.73
571.719	1175.58
571.922	1146.13
572.124	1185.65
572.327	1181.58
572.529	1144.58
572.732	1140.12
572.935	1192.43
573.137	1256.37
573.34	1151.55
573.542	1198.25
573.745	1205.03
573.947	1209.68
574.15	1148.84
574.352	1085.87
574.554	1200.76
574.757	1109.32
574.959	1135.08
575.162	1109.9
575.364	1113.58
575.566	1253.66
575.769	1071.73
575.971	1149.81
576.173	1020.77
576.376	1097.69
576.578	1140.7
576.78	1207.74
576.982	1046.74
577.185	1094.2
577.387	1065.72
577.589	1073.67
577.791	1170.15
577.993	1102.92
578.196	1095.75
578.398	1137.8
578.6	1134.12
578.802	1058.17
579.004	1053.32
579.206	1075.02
579.408	1094.4
579.61	1068.24
579.812	1104.86
580.014	1085.87
580.216	1089.94
580.418	1077.54
580.62	1054.1
580.822	1046.74
581.024	1101.18
581.226	1116.29
581.428	1101.95
581.63	1168.8
581.832	1107.77
582.034	1153.1
582.236	1094.4
582.438	1131.21
582.64	1142.45
582.841	1156.59
583.043	1199.99
583.245	1130.43
583.447	1149.03
583.649	1115.13
583.85	1104.67
584.052	1137.99
584.254	1065.34
584.456	1144
584.657	1093.62
584.859	1139.54
585.061	1109.12
585.262	1121.72
585.464	1046.74
585.666	1138.77
585.867	1060.49
586.069	1148.45
586.27	1106.02
586.472	1107.18
586.674	1058.36
586.875	1067.08
587.077	1060.1
587.278	1096.92
587.48	1077.93
587.681	1198.63
587.883	1105.83
588.084	1031.62
588.285	1064.37
588.487	1025.23
588.688	1043.05
588.89	975.63
589.091	969.04
589.292	968.66
589.494	983.96
589.695	960.52
589.896	894.64
590.098	881.86
590.299	959.94
590.5	899.68
590.702	931.07
590.903	983.77
591.104	1048.09
591.305	1006.24
591.507	1060.49
591.708	1032.59
591.909	986.29
592.11	1037.63
592.311	1031.24
592.512	1004.69
592.714	957.81
592.915	974.27
593.116	948.51
593.317	997.14
593.518	1007.6
593.719	975.05
593.92	1028.72
594.121	1066.11
594.322	1011.47
594.523	976.79
594.724	964.39
594.925	975.05
595.126	1007.99
595.327	976.02
595.528	998.3
595.729	1004.5
595.929	999.85
596.13	945.99
596.331	1005.47
596.532	1005.66
596.733	1051.58
596.934	1015.15
597.135	1042.47
597.335	980.09
597.536	968.46
597.737	1020.97
597.938	948.7
598.138	988.81
598.339	967.88
598.54	994.42
598.74	991.32
598.941	979.31
599.142	1040.34
599.342	985.12
599.543	950.06
599.744	1006.05
599.944	988.22
600.145	950.25
600.345	997.72
600.546	1071.15
600.746	1032.59
600.947	1075.41
601.147	1016.32
601.348	1029.69
601.548	941.72
601.749	1011.28
601.949	982.22
602.15	972.14
602.35	970.79
602.551	1003.92
602.751	940.95
602.951	985.12
603.152	926.03
603.352	1018.64
603.552	999.27
603.753	1032.01
603.953	1007.4
604.153	1022.52
604.354	994.42
604.554	974.47
604.754	964.01
604.954	952.19
605.155	1017.87
605.355	966.33
605.555	1010.5
605.755	1036.85
605.955	1015.74
606.155	1032.4
606.356	1002.37
606.556	1004.3
606.756	973.31
606.956	917.31
607.156	1022.9
607.356	954.12
607.556	960.71
607.756	959.36
607.956	1011.67
608.156	997.72
608.356	941.72
608.556	1025.42
608.756	981.64
608.956	936.3
609.156	957.61
609.356	917.7
609.556	894.45
609.755	954.12
609.955	952.38
610.155	937.85
610.355	978.73
610.555	961.29
610.755	932.04
610.954	882.24
611.154	970.59
611.354	954.32
611.554	939.01
611.753	912.86
611.953	875.85
612.153	961.1
612.352	979.12
612.552	880.31
612.752	858.22
612.951	927.97
613.151	915.96
613.351	890.58
613.55	918.86
613.75	946.76
613.949	882.05
614.149	912.27
614.348	893.09
614.548	868.88
614.747	835.36
614.947	877.01
615.146	789.44
615.346	929.32
615.545	877.79
615.745	919.83
615.944	902.39
616.144	858.8
616.343	894.64
616.542	866.94
616.742	876.24
616.941	831.09
617.14	793.9
617.34	830.9
617.539	818.89
617.738	861.71
617.938	919.44
618.137	865.97
618.336	844.46
618.535	885.54
618.734	878.37
618.934	886.7
619.133	845.43
619.332	888.44
619.531	823.54
619.73	879.92
619.929	884.38
620.128	898.91
620.328	926.42
620.527	825.09
620.726	843.3
620.925	878.76
621.124	867.71
621.323	906.08
621.522	835.36
