Data from pine_FLMT105791__94__17-21-34-077.txt Node

Date: Mon Mar 20 17:21:34 GMT 2023
User: antho
Spectrometer: FLMT10579
Trigger mode: 0
Integration Time (sec): 1.000000E-1
Scans to average: 10
Electric dark correction enabled: true
Nonlinearity correction enabled: false
Boxcar width: 0
XAxis mode: Wavelengths
Number of Pixels in Spectrum: 3648
>>>>>Begin Spectral Data<<<<<
345.248	-152.14
345.464	-152.14
345.681	-152.14
345.898	-153.3
346.114	-158.73
346.331	-47.13
346.548	24.75
346.764	16.23
346.981	-18.65
347.197	-22.91
347.414	11.58
347.631	-41.12
347.847	68.15
348.064	28.82
348.28	23.01
348.497	-40.93
348.713	-1.79
348.93	34.83
349.146	23.59
349.363	13.9
349.579	8.86
349.796	-16.32
350.012	-10.32
350.229	29.59
350.445	24.75
350.661	3.05
350.878	11.77
351.094	2.08
351.311	15.84
351.527	27.46
351.743	-11.29
351.96	37.34
352.176	23.01
352.392	30.37
352.609	12.93
352.825	-22.14
353.041	-13.61
353.257	-22.91
353.474	12.55
353.69	40.25
353.906	5.38
354.122	-7.8
354.339	35.41
354.555	11
354.771	-12.84
354.987	58.85
355.203	74.16
355.42	-18.26
355.636	-9.54
355.852	5.38
356.068	21.07
356.284	-32.6
356.5	34.05
356.716	14.68
356.932	6.15
357.148	36.38
357.364	12.93
357.58	53.43
357.796	57.69
358.012	53.04
358.228	28.63
358.444	-66.5
358.66	66.41
358.876	-7.02
359.092	-8.57
359.308	33.66
359.524	12.55
359.74	16.23
359.956	-9.93
360.172	15.65
360.388	22.81
360.604	1.5
360.819	98.76
361.035	20.1
361.251	31.53
361.467	3.05
361.683	43.93
361.898	30.76
362.114	32.89
362.33	21.46
362.546	31.53
362.762	9.64
362.977	25.72
363.193	-10.12
363.409	53.04
363.624	-6.83
363.84	-12.84
364.056	-16.32
364.271	42.58
364.487	25.33
364.703	1.11
364.918	-32.02
365.134	-13.42
365.35	-2.76
365.565	87.14
365.781	15.26
365.996	46.06
366.212	74.93
366.427	31.73
366.643	-8.38
366.858	-10.7
367.074	-35.5
367.289	67.96
367.505	87.72
367.72	-12.25
367.936	-4.7
368.151	53.23
368.367	31.92
368.582	0.15
368.798	28.04
369.013	58.85
369.228	48.78
369.444	-7.99
369.659	78.61
369.874	24.94
370.09	59.04
370.305	-42.67
370.52	-4.12
370.736	38.51
370.951	8.09
371.166	66.6
371.381	53.81
371.597	34.24
371.812	-11.67
372.027	-27.37
372.242	15.26
372.458	63.69
372.673	6.93
372.888	9.83
373.103	29.59
373.318	96.05
373.533	30.76
373.749	34.05
373.964	-37.25
374.179	63.69
374.394	7.51
374.609	49.16
374.824	-6.05
375.039	64.47
375.254	-5.28
375.469	65.24
375.684	35.02
375.899	68.93
376.114	27.85
376.329	32.5
376.544	63.31
376.759	64.66
376.974	-15.74
377.189	20.1
377.404	-10.51
377.619	42.77
377.834	-48.68
378.049	-31.24
378.264	-16.52
378.478	32.11
378.693	0.15
378.908	61.37
379.123	9.64
379.338	66.79
379.553	34.24
379.767	28.04
379.982	34.05
380.197	41.61
380.412	3.63
380.626	29.4
380.841	100.31
381.056	32.5
381.271	82.88
381.485	-20.78
381.7	-8.19
381.915	12.74
382.129	12.93
382.344	45.09
382.559	12.35
382.773	60.01
382.988	-22.33
383.202	27.85
383.417	-8.77
383.632	123.76
383.846	23.78
384.061	37.73
384.275	12.16
384.49	48.78
384.704	54.98
384.919	2.47
385.133	45.09
385.348	57.11
385.562	-2.37
385.777	53.43
385.991	35.79
386.206	4.99
386.42	18.75
386.634	68.34
386.849	35.79
387.063	46.45
387.277	-25.82
387.492	-1.99
387.706	10.61
387.92	-12.64
388.135	49.55
388.349	38.89
388.563	-0.05
388.778	18.75
388.992	34.63
389.206	54.2
389.42	87.91
389.635	27.66
389.849	69.31
390.063	58.08
390.277	43.74
390.491	108.06
390.706	55.94
390.92	53.62
391.134	19.33
391.348	77.26
391.562	-1.99
391.776	23.2
391.99	10.61
392.205	63.11
392.419	20.49
392.633	22.23
392.847	78.81
393.061	0.15
393.275	103.8
393.489	25.91
393.703	48.97
393.917	77.26
394.131	25.53
394.345	62.14
394.559	53.23
394.773	22.23
394.986	53.81
395.2	29.59
395.414	46.84
395.628	6.15
395.842	10.22
396.056	4.02
396.27	-22.14
396.484	44.71
396.697	40.06
396.911	88.88
397.125	51.68
397.339	88.88
397.553	48.39
397.766	87.53
397.98	73.19
398.194	68.54
398.408	26.88
398.621	33.66
398.835	76.87
399.049	36.96
399.262	69.12
399.476	48
399.69	81.71
399.903	113.68
400.117	38.7
400.331	69.51
400.544	4.41
400.758	135.96
400.971	69.51
401.185	72.61
401.398	28.04
401.612	81.33
401.826	79.19
402.039	56.72
402.253	21.26
402.466	93.73
402.68	52.26
402.893	71.06
403.106	68.15
403.32	23.78
403.533	68.15
403.747	66.02
403.96	48.78
404.174	84.81
404.387	26.69
404.6	68.34
404.814	46.64
405.027	57.3
405.24	69.89
405.454	43.54
405.667	90.82
405.88	-0.24
406.094	64.28
406.307	86.75
406.52	47.81
406.733	23.78
406.947	-1.4
407.16	108.84
407.373	79.78
407.586	22.04
407.799	17.58
408.012	60.79
408.226	70.09
408.439	87.14
408.652	25.53
408.865	72.61
409.078	101.09
409.291	60.4
409.504	11.19
409.717	51.68
409.93	47.81
410.143	86.17
410.357	-3.54
410.57	32.31
410.783	48
410.996	82.1
411.209	70.28
411.421	107.68
411.634	50.33
411.847	35.6
412.06	62.73
412.273	42.19
412.486	68.54
412.699	153.59
412.912	48.19
413.125	92.56
413.338	55.56
413.55	88.69
413.763	57.88
413.976	83.07
414.189	46.06
414.402	40.64
414.615	84.81
414.827	36.38
415.04	89.85
415.253	60.59
415.466	80.16
415.678	136.16
415.891	59.43
416.104	74.54
416.316	60.98
416.529	34.05
416.742	115.23
416.954	109.42
417.167	44.32
417.38	72.41
417.592	123.17
417.805	29.59
418.017	23.01
418.23	72.03
418.442	65.05
418.655	50.52
418.868	90.82
419.08	103.41
419.293	78.61
419.505	70.67
419.718	62.92
419.93	92.56
420.142	76.87
420.355	118.52
420.567	126.86
420.78	95.66
420.992	53.62
421.205	118.91
421.417	36.18
421.629	59.04
421.842	40.64
422.054	42.19
422.266	82.49
422.479	123.37
422.691	65.44
422.903	118.33
423.115	46.84
423.328	84.23
423.54	98.38
423.752	73.77
423.964	60.79
424.177	97.02
424.389	63.5
424.601	193.89
424.813	111.74
425.025	161.54
425.238	119.3
425.45	89.46
425.662	89.85
425.874	380.86
426.086	119.69
426.298	116.01
426.51	111.36
426.722	82.1
426.934	77.06
427.146	134.41
427.358	66.79
427.57	116.2
427.782	106.9
427.994	120.46
428.206	91.79
428.418	57.69
428.63	130.92
428.842	139.06
429.054	99.54
429.266	107.29
429.478	65.24
429.69	129.57
429.902	67.38
430.114	137.12
430.325	115.62
430.537	84.62
430.749	117.56
430.961	51.49
431.173	86.36
431.384	128.41
431.596	42.96
431.808	133.64
432.02	135.19
432.231	157.47
432.443	151.66
432.655	130.54
432.867	87.72
433.078	142.36
433.29	181.88
433.502	146.23
433.713	178.39
433.925	147.78
434.136	190.99
434.348	104.96
434.56	67.57
434.771	234.77
434.983	124.92
435.194	99.93
435.406	141.77
435.617	193.31
435.829	194.86
436.04	162.12
436.252	186.92
436.463	204.74
436.675	198.35
436.886	162.31
437.098	159.99
437.309	200.09
437.521	181.49
437.732	179.56
437.943	162.7
438.155	154.76
438.366	133.44
438.578	204.74
438.789	179.36
439	205.71
439.211	145.46
439.423	206.29
439.634	193.7
439.845	188.27
440.057	208.62
440.268	201.06
440.479	180.72
440.69	163.09
440.902	167.35
441.113	180.52
441.324	208.42
441.535	194.86
441.746	256.47
441.957	164.64
442.168	212.69
442.38	213.46
442.591	228.57
442.802	175.68
443.013	165.61
443.224	249.11
443.435	195.64
443.646	194.86
443.857	201.25
444.068	185.56
444.279	191.96
444.49	253.76
444.701	205.13
444.912	308.59
445.123	260.74
445.334	233.61
445.545	227.99
445.756	246.01
445.967	193.12
446.178	225.67
446.388	265.97
446.599	279.14
446.81	248.53
447.021	224.5
447.232	278.37
447.443	269.65
447.653	184.79
447.864	281.08
448.075	234
448.286	294.83
448.496	243.3
448.707	296.58
448.918	241.75
449.129	328.93
449.339	214.62
449.55	280.3
449.761	237.29
449.971	290.96
450.182	217.14
450.393	319.83
450.603	246.4
450.814	290.38
451.024	277.4
451.235	296.19
451.446	334.94
451.656	339.2
451.867	228.38
452.077	296
452.288	351.41
452.498	330.29
452.709	269.07
452.919	322.54
453.13	274.69
453.34	338.23
453.55	248.14
453.761	316.73
453.971	295.61
454.182	330.48
454.392	304.91
454.602	366.33
454.813	324.09
455.023	330.29
455.233	254.34
455.444	282.63
455.654	248.34
455.864	274.3
456.075	307.04
456.285	294.06
456.495	269.84
456.705	287.08
456.916	356.06
457.126	397.33
457.336	313.05
457.546	275.85
457.756	294.83
457.967	359.55
458.177	305.88
458.387	328.93
458.597	291.15
458.807	309.95
459.017	301.03
459.227	290.96
459.437	307.23
459.647	351.41
459.857	351.99
460.068	297.74
460.278	336.68
460.488	326.22
460.698	393.06
460.908	314.4
461.117	280.89
461.327	296
461.537	322.54
461.747	304.72
461.957	351.6
462.167	427.94
462.377	362.26
462.587	319.44
462.797	404.88
463.007	351.99
463.216	371.95
463.426	379.7
463.636	373.3
463.846	314.98
464.056	322.54
464.265	390.74
464.475	346.37
464.685	322.73
464.895	372.14
465.104	355.67
465.314	368.27
465.524	358.38
465.733	345.4
465.943	401.78
466.153	431.04
466.362	401.4
466.572	371.17
466.782	370.98
466.991	405.27
467.201	428.33
467.41	324.67
467.62	412.63
467.829	380.08
468.039	385.31
468.249	384.93
468.458	394.23
468.668	423.48
468.877	422.13
469.086	442.28
469.296	437.43
469.505	382.21
469.715	474.05
469.924	408.37
470.134	449.45
470.343	465.33
470.552	387.83
470.762	409.53
470.971	367.3
471.18	407.79
471.39	405.46
471.599	375.24
471.808	442.47
472.018	394.42
472.227	465.14
472.436	466.88
472.645	415.73
472.855	416.12
473.064	465.72
473.273	423.1
473.482	434.91
473.691	509.7
473.901	448.48
474.11	434.53
474.319	533.73
474.528	485.29
474.737	486.26
474.946	484.32
475.155	474.05
475.364	531.79
475.573	496.14
475.783	502.92
475.992	507.96
476.201	542.06
476.41	457.58
476.619	466.11
476.828	489.55
477.037	474.05
477.245	490.71
477.454	502.92
477.663	508.15
477.872	512.41
478.081	566.08
478.29	499.04
478.499	590.49
478.708	553.1
478.917	601.54
479.125	534.5
479.334	538.96
479.543	550.97
479.752	525.98
479.961	556.39
480.169	588.56
480.378	534.31
480.587	660.63
480.796	593.98
481.004	568.21
481.213	584.49
481.422	575.38
481.63	571.51
481.839	640.09
482.048	634.28
482.256	617.04
482.465	594.17
482.674	630.6
482.882	627.31
483.091	676.9
483.299	668.77
483.508	649.39
483.716	645.9
483.925	612.19
484.134	617.23
484.342	613.16
484.551	694.92
484.759	692.99
484.967	662.18
485.176	683.3
485.384	672.45
485.593	705.58
485.801	662.57
486.01	656.17
486.218	630.41
486.426	519.19
486.635	610.45
486.843	594.37
487.051	639.7
487.26	595.14
487.468	647.07
487.676	661.02
487.885	644.74
488.093	657.34
488.301	681.75
488.509	688.34
488.717	722.05
488.926	668.38
489.134	691.24
489.342	697.83
489.55	662.57
489.758	686.4
489.967	685.62
490.175	801.87
490.383	711
490.591	793.35
490.799	713.91
491.007	770.48
491.215	772.42
491.423	744.91
491.631	765.83
491.839	743.94
492.047	774.36
492.255	711.97
492.463	694.15
492.671	757.12
492.879	778.82
493.087	764.09
493.295	806.52
493.503	769.9
493.711	839.26
493.919	831.51
494.127	843.33
494.334	833.45
494.542	764.87
494.75	814.46
494.958	833.45
495.166	872.4
495.374	809.62
495.581	842.36
495.789	811.56
495.997	899.52
496.205	803.42
496.412	826.09
496.62	808.07
496.828	846.43
497.035	823.38
497.243	860.58
497.451	839.26
497.658	852.05
497.866	849.73
498.074	874.72
498.281	830.16
498.489	918.31
498.696	872.98
498.904	827.06
499.112	822.8
499.319	926.06
499.527	846.43
499.734	907.85
499.942	835.39
500.149	845.66
500.357	877.82
500.564	816.98
500.771	874.91
500.979	813.3
501.186	845.66
501.394	850.31
501.601	871.62
501.808	880.73
502.016	831.51
502.223	838.3
502.43	866.2
502.638	865.23
502.845	814.08
503.052	924.71
503.26	864.84
503.467	941.76
503.674	877.63
503.881	903.78
504.089	1006.08
504.296	919.86
504.503	871.23
504.71	910.37
504.917	879.95
505.125	905.53
505.332	892.35
505.539	962.49
505.746	997.94
505.953	986.12
506.16	982.25
506.367	984.19
506.574	1024.87
506.781	1024.68
506.988	924.9
507.195	970.43
507.402	947.38
507.609	1017.71
507.816	930.91
508.023	922.96
508.23	955.51
508.437	912.89
508.644	987.87
508.851	1045.22
509.058	1009.96
509.265	1002.98
509.472	1024.29
509.679	1100.44
509.885	1010.92
510.092	1026.23
510.299	1007.05
510.506	1006.08
510.713	1028.56
510.92	1030.69
511.126	1050.64
511.333	1076.02
511.54	1066.14
511.746	1131.82
511.953	1100.05
512.16	1132.21
512.367	1061.11
512.573	1046.77
512.78	1089.59
512.987	1050.84
513.193	1057.42
513.4	979.93
513.606	1037.66
513.813	1060.72
514.02	1073.5
514.226	1153.91
514.433	1108.96
514.639	1073.5
514.846	1092.88
515.052	1067.5
515.259	1111.09
515.465	1079.32
515.672	1095.98
515.878	1173.67
516.085	1070.99
516.291	1151.59
516.497	1079.32
516.704	1068.66
516.91	1051.61
517.117	990.77
517.323	956.87
517.529	1039.99
517.736	1005.5
517.942	1023.91
518.148	1031.66
518.354	1053.94
518.561	1100.05
518.767	1098.3
518.973	1115.16
519.179	1161.08
519.386	1075.25
519.592	1114.97
519.798	1083.97
520.004	1180.84
520.21	1124.07
520.417	1199.25
520.623	1186.07
520.829	1196.92
521.035	1224.43
521.241	1228.5
521.447	1248.26
521.653	1343.78
521.859	1262.8
522.065	1255.24
522.271	1340.1
522.477	1261.44
522.683	1291.47
522.889	1263.76
523.095	1294.57
523.301	1261.05
523.507	1271.9
523.713	1298.06
523.919	1259.31
524.125	1325.96
524.331	1299.41
524.537	1391.83
524.742	1382.14
524.948	1368.58
525.154	1383.69
525.36	1484.64
525.566	1365.68
525.772	1417.02
525.977	1315.11
526.183	1416.05
526.389	1437.17
526.595	1357.54
526.8	1339.13
527.006	1264.73
527.212	1250.01
527.417	1232.38
527.623	1249.23
527.829	1318.6
528.034	1326.15
528.24	1383.5
528.446	1349.21
528.651	1420.12
528.857	1423.61
529.062	1470.3
529.268	1448.99
529.473	1456.93
529.679	1467.59
529.884	1498.39
530.09	1458.48
530.295	1500.52
530.501	1466.23
530.706	1452.47
530.912	1453.25
531.117	1493.36
531.323	1467.01
531.528	1535.4
531.733	1524.35
531.939	1518.93
532.144	1532.69
532.35	1529.59
532.555	1552.45
532.76	1553.42
532.966	1549.74
533.171	1502.27
533.376	1484.83
533.581	1439.88
533.787	1515.83
533.992	1514.86
534.197	1567.56
534.402	1466.23
534.607	1509.05
534.813	1624.91
535.018	1538.5
535.223	1527.07
535.428	1545.09
535.633	1588.49
535.838	1570.08
536.043	1612.12
536.249	1665.6
536.454	1581.12
536.659	1603.21
536.864	1555.35
537.069	1584.03
537.274	1613.48
537.479	1576.09
537.684	1578.99
537.889	1575.31
538.094	1638.28
538.299	1595.85
538.504	1578.6
538.708	1595.65
538.913	1619.87
539.118	1600.11
539.323	1616.77
539.528	1560.78
539.733	1573.18
539.938	1594.68
540.142	1606.31
540.347	1590.04
540.552	1554.77
540.757	1560.59
540.962	1566.59
541.166	1502.46
541.371	1496.84
541.576	1527.45
541.781	1485.99
541.985	1600.3
542.19	1561.75
542.395	1662.3
542.599	1675.87
542.804	1635.57
543.008	1707.64
543.213	1581.9
543.418	1558.65
543.622	1615.42
543.827	1584.8
544.031	1665.79
544.236	1671.22
544.44	1643.51
544.645	1683.23
544.849	1629.37
545.054	1682.26
545.258	1753.17
545.463	1683.61
545.667	1624.13
545.872	1667.73
546.076	1671.8
546.281	1667.34
546.485	1628.4
546.689	1664.63
546.894	1701.63
547.098	1709.38
547.302	1625.88
547.507	1669.86
547.711	1677.42
547.915	1679.35
548.119	1649.32
548.324	1637.5
548.528	1718.88
548.732	1679.93
548.936	1728.18
549.141	1758.98
549.345	1704.35
549.549	1671.02
549.753	1698.73
549.957	1805.09
550.161	1805.09
550.366	1711.13
550.57	1699.5
550.774	1712.68
550.978	1707.64
551.182	1738.64
551.386	1704.93
551.59	1649.32
551.794	1672.18
551.998	1712.87
552.202	1701.83
552.406	1707.83
552.61	1735.35
552.814	1741.16
553.018	1768.28
553.222	1698.53
553.426	1677.61
553.63	1777.78
553.833	1699.31
554.037	1699.5
554.241	1770.41
554.445	1714.42
554.649	1712.87
554.853	1696.98
555.056	1758.79
555.26	1762.66
555.464	1722.95
555.668	1678
555.871	1776.42
556.075	1799.48
556.279	1694.46
556.483	1692.14
556.686	1671.99
556.89	1722.95
557.094	1738.83
557.297	1646.42
557.501	1748.91
557.704	1625.3
557.908	1689.62
558.112	1660.37
558.315	1697.37
558.519	1640.99
558.722	1694.66
558.926	1645.45
559.129	1599.53
559.333	1606.5
559.536	1599.14
559.74	1638.67
559.943	1585.77
560.147	1597.59
560.35	1595.65
560.553	1588.68
560.757	1599.14
560.96	1662.3
561.164	1631.88
561.367	1694.85
561.57	1611.54
561.774	1672.57
561.977	1619.1
562.18	1603.21
562.384	1725.46
562.587	1603.79
562.79	1643.9
562.993	1591.39
563.197	1634.79
563.4	1689.23
563.603	1681.87
563.806	1730.89
564.009	1613.48
564.212	1618.32
564.416	1558.07
564.619	1621.03
564.822	1577.64
565.025	1653.39
565.228	1580.35
565.431	1634.21
565.634	1496.84
565.837	1548.57
566.04	1551.67
566.243	1506.72
566.446	1480.57
566.649	1568.92
566.852	1530.17
567.055	1513.89
567.258	1544.7
567.461	1612.51
567.664	1604.76
567.867	1506.72
568.07	1568.14
568.273	1548.96
568.475	1568.53
568.678	1532.69
568.881	1514.47
569.084	1523.58
569.287	1442.01
569.489	1453.64
569.692	1494.71
569.895	1522.61
570.098	1431.94
570.3	1474.95
570.503	1413.73
570.706	1401.13
570.909	1403.84
571.111	1333.71
571.314	1360.06
571.516	1405.59
571.719	1434.84
571.922	1389.89
572.124	1420.12
572.327	1441.62
572.529	1401.91
572.732	1421.47
572.935	1423.99
573.137	1483.67
573.34	1428.84
573.542	1459.06
573.745	1450.92
573.947	1427.29
574.15	1401.13
574.352	1390.09
574.554	1450.92
574.757	1366.84
574.959	1386.99
575.162	1374.78
575.364	1367.81
575.566	1459.26
575.769	1347.85
575.971	1397.64
576.173	1296.7
576.376	1332.35
576.578	1406.56
576.78	1412.76
576.982	1299.41
577.185	1337.58
577.387	1310.85
577.589	1317.63
577.791	1384.28
577.993	1388.34
578.196	1310.85
578.398	1360.64
578.6	1363.93
578.802	1275
579.004	1292.44
579.206	1303.87
579.408	1337.78
579.61	1287.98
579.812	1390.28
580.014	1306.58
580.216	1274.03
580.418	1311.43
580.62	1327.9
580.822	1279.26
581.024	1343.59
581.226	1399.97
581.428	1316.85
581.63	1375.75
581.832	1305.23
582.034	1388.93
582.236	1361.22
582.438	1389.31
582.64	1372.84
582.841	1418.76
583.043	1454.41
583.245	1361.22
583.447	1374.98
583.649	1371.49
583.85	1358.7
584.052	1397.64
584.254	1340.49
584.456	1435.23
584.657	1312.59
584.859	1354.24
585.061	1352.5
585.262	1320.53
585.464	1277.33
585.666	1357.93
585.867	1272.68
586.069	1384.28
586.27	1301.16
586.472	1302.9
586.674	1310.85
586.875	1285.85
587.077	1297.67
587.278	1326.73
587.48	1303.29
587.681	1378.08
587.883	1289.73
588.084	1279.26
588.285	1301.55
588.487	1289.53
588.688	1300.19
588.89	1180.26
589.091	1163.21
589.292	1206.22
589.494	1163.98
589.695	1125.62
589.896	1098.5
590.098	1084.74
590.299	1164.37
590.5	1111.87
590.702	1151.97
590.903	1168.44
591.104	1254.27
591.305	1162.82
591.507	1257.76
591.708	1256.01
591.909	1202.93
592.11	1298.06
592.311	1220.17
592.512	1190.53
592.714	1144.22
592.915	1204.67
593.116	1190.14
593.317	1202.93
593.518	1219.2
593.719	1209.71
593.92	1224.24
594.121	1238.19
594.322	1180.07
594.523	1213.97
594.724	1129.69
594.925	1212.03
595.126	1212.03
595.327	1194.6
595.528	1189.95
595.729	1232.38
595.929	1192.66
596.13	1200.8
596.331	1230.25
596.532	1219.98
596.733	1273.26
596.934	1244.39
597.135	1231.99
597.335	1205.64
597.536	1204.48
597.737	1227.15
597.938	1174.83
598.138	1189.17
598.339	1224.63
598.54	1194.4
598.74	1194.6
598.941	1181.42
599.142	1251.75
599.342	1210.48
599.543	1172.32
599.744	1195.76
599.944	1195.18
600.145	1177.16
600.345	1215.72
600.546	1295.93
600.746	1277.52
600.947	1306.97
601.147	1221.92
601.348	1246.13
601.548	1151.39
601.749	1190.72
601.949	1152.55
602.15	1189.56
602.35	1190.72
602.551	1246.13
602.751	1179.87
602.951	1191.88
603.152	1126.59
603.352	1200.02
603.552	1222.69
603.753	1212.62
603.953	1223.66
604.153	1234.51
604.354	1193.82
604.554	1217.85
604.754	1196.15
604.954	1171.93
605.155	1206.42
605.355	1199.25
605.555	1214.94
605.755	1241.68
605.955	1205.45
606.155	1211.65
606.356	1234.9
606.556	1182.97
606.756	1204.48
606.956	1154.69
607.156	1254.46
607.356	1173.87
607.556	1227.53
607.756	1230.44
607.956	1236.45
608.156	1213
608.356	1135.12
608.556	1224.43
608.756	1174.83
608.956	1176.58
609.156	1194.4
609.356	1141.12
609.556	1127.17
609.755	1195.57
609.955	1143.25
610.155	1172.32
610.355	1182.39
610.555	1101.6
610.755	1132.21
610.954	1120.39
611.154	1180.65
611.354	1169.6
611.554	1112.45
611.753	1137.83
611.953	1117.68
612.153	1183.55
612.352	1166.7
612.552	1134.92
612.752	1081.64
612.951	1139.77
613.151	1127.56
613.351	1102.57
613.55	1151.97
613.75	1133.18
613.949	1119.04
614.149	1136.67
614.348	1136.86
614.548	1079.51
614.747	1046.77
614.947	1087.65
615.146	1030.3
615.346	1133.18
615.545	1108.77
615.745	1103.92
615.944	1111.29
616.144	1056.65
616.343	1100.63
616.542	1095.4
616.742	1098.5
616.941	1067.89
617.14	1016.93
617.34	1103.54
617.539	1061.49
617.738	1053.74
617.938	1124.07
618.137	1081.06
618.336	1040.37
618.535	1097.34
618.734	1074.47
