Data from pine_FLMT105791__188__17-23-42-073.txt Node

Date: Mon Mar 20 17:23:42 GMT 2023
User: antho
Spectrometer: FLMT10579
Trigger mode: 0
Integration Time (sec): 1.000000E-1
Scans to average: 10
Electric dark correction enabled: true
Nonlinearity correction enabled: false
Boxcar width: 0
XAxis mode: Wavelengths
Number of Pixels in Spectrum: 3648
>>>>>Begin Spectral Data<<<<<
345.248	-187.22
345.464	-187.22
345.681	-187.22
345.898	-177.34
346.114	-178.51
346.331	-34.55
346.548	26.48
346.764	-14.98
346.981	-14.6
347.197	-23.9
347.414	15.05
347.631	-1.23
347.847	62.52
348.064	-4.33
348.28	42.37
348.497	-61.48
348.713	8.65
348.93	20.47
349.146	18.34
349.363	-38.23
349.579	21.05
349.796	-2.2
350.012	-9.56
350.229	35.2
350.445	-0.65
350.661	-11.69
350.878	-2.2
351.094	24.54
351.311	2.84
351.527	25.32
351.743	1.1
351.96	36.55
352.176	22.02
352.392	24.74
352.609	8.27
352.825	-8.78
353.041	20.09
353.257	-33.97
353.474	-5.1
353.69	-5.1
353.906	25.7
354.122	-41.72
354.339	15.44
354.555	7.49
354.771	-17.31
354.987	48.37
355.203	63.68
355.42	-7.81
355.636	-17.11
355.852	-18.47
356.068	4.59
356.284	-29.32
356.5	41.4
356.716	20.28
356.932	-1.61
357.148	57.87
357.364	-2.2
357.58	55.73
357.796	47.79
358.012	40.43
358.228	5.36
358.444	-42.11
358.66	31.52
358.876	17.37
359.092	-10.33
359.308	4.39
359.524	17.57
359.74	-16.92
359.956	-16.15
360.172	5.36
360.388	37.33
360.604	-19.63
360.819	94.29
361.035	16.6
361.251	24.74
361.467	-22.15
361.683	46.82
361.898	3.04
362.114	-4.52
362.33	17.95
362.546	25.32
362.762	0.13
362.977	21.05
363.193	-30.48
363.409	54.77
363.624	-37.07
363.84	-19.25
364.056	-18.47
364.271	22.02
364.487	16.79
364.703	-0.26
364.918	-19.83
365.134	-35.52
365.35	-12.66
365.565	84.41
365.781	28.61
365.996	24.74
366.212	61.16
366.427	-1.81
366.643	-20.8
366.858	-2.39
367.074	-30.29
367.289	49.92
367.505	109.4
367.72	-43.27
367.936	-4.91
368.151	45.85
368.367	17.95
368.582	9.43
368.798	-1.03
369.013	53.8
369.228	-10.33
369.444	16.79
369.659	41.98
369.874	15.63
370.09	57.48
370.305	-71.17
370.52	-29.51
370.736	49.53
370.951	-2.97
371.166	78.98
371.381	42.95
371.597	38.49
371.812	-30.68
372.027	-18.66
372.242	15.44
372.458	74.33
372.673	1.1
372.888	-8.01
373.103	23.38
373.318	114.83
373.533	12.92
373.749	33.65
373.964	-59.54
374.179	39.27
374.394	-29.9
374.609	40.82
374.824	-8.4
375.039	44.3
375.254	-9.36
375.469	75.11
375.684	0.13
375.899	45.08
376.114	-1.03
376.329	40.43
376.544	38.49
376.759	24.54
376.974	-20.6
377.189	-21.96
377.404	-31.65
377.619	51.86
377.834	-13.63
378.049	-43.85
378.264	7.49
378.478	7.69
378.693	-14.6
378.908	29.19
379.123	0.9
379.338	48.18
379.553	19.89
379.767	19.31
379.982	26.67
380.197	22.02
380.412	-4.13
380.626	62.32
380.841	94.1
381.056	30.74
381.271	67.17
381.485	-28.55
381.7	-8.2
381.915	12.92
382.129	-12.66
382.344	24.54
382.559	3.42
382.773	58.06
382.988	-53.93
383.202	21.44
383.417	-11.69
383.632	99.72
383.846	-8.2
384.061	47.02
384.275	-14.21
384.49	26.29
384.704	39.46
384.919	22.02
385.133	8.46
385.348	45.85
385.562	-18.86
385.777	49.34
385.991	-2.78
386.206	5.75
386.42	3.81
386.634	45.47
386.849	21.05
387.063	34.42
387.277	-7.43
387.492	-20.21
387.706	-45.79
387.92	-26.03
388.135	25.7
388.349	-10.14
388.563	1.1
388.778	9.24
388.992	24.54
389.206	38.1
389.42	63.48
389.635	34.42
389.849	47.4
390.063	35.97
390.277	35.97
390.491	80.53
390.706	38.68
390.92	45.66
391.134	12.72
391.348	24.74
391.562	-38.81
391.776	11.37
391.99	11.17
392.205	22.02
392.419	-35.52
392.633	19.5
392.847	36.75
393.061	-21.96
393.275	52.05
393.489	7.69
393.703	28.61
393.917	35.58
394.131	-6.07
394.345	48.76
394.559	31.9
394.773	-11.11
394.986	29.19
395.2	11.56
395.414	34.23
395.628	-24.67
395.842	17.95
396.056	-2.58
396.27	-31.65
396.484	33.26
396.697	14.47
396.911	44.69
397.125	32.68
397.339	22.02
397.553	24.15
397.766	78.79
397.98	49.34
398.194	45.47
398.408	6.14
398.621	19.31
398.835	37.13
399.049	28.42
399.262	43.33
399.476	46.24
399.69	16.21
399.903	80.92
400.117	-6.46
400.331	22.22
400.544	10.4
400.758	109.02
400.971	32.29
401.185	37.13
401.398	5.17
401.612	57.09
401.826	24.35
402.039	23.19
402.253	7.1
402.466	31.9
402.68	14.27
402.893	57.48
403.106	-5.88
403.32	17.76
403.533	25.12
403.747	18.15
403.96	7.88
404.174	54.18
404.387	-30.29
404.6	10.98
404.814	48.95
405.027	23.96
405.24	14.47
405.454	-17.31
405.667	79.57
405.88	-55.67
406.094	-1.81
406.307	55.15
406.52	31.13
406.733	10.4
406.947	-41.72
407.16	64.65
407.373	47.4
407.586	-29.71
407.799	-0.84
408.012	40.82
408.226	30.55
408.439	66.39
408.652	-2.78
408.865	32.29
409.078	66.39
409.291	18.34
409.504	-16.34
409.717	35.78
409.93	46.63
410.143	7.49
410.357	-29.13
410.57	-4.52
410.783	28.42
410.996	31.9
411.209	7.88
411.421	54.96
411.634	25.32
411.847	-21.38
412.06	23.57
412.273	16.79
412.486	-7.62
412.699	81.89
412.912	10.79
413.125	56.9
413.338	9.62
413.55	39.85
413.763	22.99
413.976	45.27
414.189	-26.8
414.402	-29.71
414.615	55.15
414.827	-14.79
415.04	73.17
415.253	13.3
415.466	54.77
415.678	87.51
415.891	10.59
416.104	8.85
416.316	-13.43
416.529	8.85
416.742	53.6
416.954	48.95
417.167	18.92
417.38	-2.39
417.592	66.97
417.805	-14.01
418.017	-37.65
418.23	47.4
418.442	-1.61
418.655	-2.97
418.868	24.93
419.08	55.93
419.293	68.13
419.505	14.47
419.718	54.57
419.93	51.67
420.142	4.97
420.355	30.35
420.567	87.7
420.78	5.36
420.992	20.47
421.205	73.17
421.417	-40.75
421.629	-11.5
421.842	-27
422.054	-26.41
422.266	24.35
422.479	70.65
422.691	24.15
422.903	34.03
423.115	-9.95
423.328	29.77
423.54	24.93
423.752	8.85
423.964	-0.06
424.177	25.32
424.389	-2.78
424.601	120.45
424.813	25.51
425.025	65.03
425.238	7.49
425.45	-16.15
425.662	37.52
425.874	287.84
426.086	35
426.298	38.68
426.51	37.91
426.722	23.77
426.934	-2.39
427.146	26.48
427.358	14.27
427.57	62.13
427.782	3.62
427.994	29
428.206	15.44
428.418	-34.94
428.63	29.19
428.842	43.14
429.054	31.13
429.266	66.39
429.478	13.89
429.69	24.15
429.902	4.97
430.114	56.51
430.325	36.94
430.537	24.74
430.749	43.14
430.961	-10.72
431.173	32.68
431.384	83.44
431.596	-47.15
431.808	-5.88
432.02	29.77
432.231	47.21
432.443	51.67
432.655	43.14
432.867	-15.95
433.078	40.62
433.29	98.36
433.502	46.43
433.713	32.48
433.925	9.04
434.136	48.76
434.348	-7.23
434.56	-30.68
434.771	111.34
434.983	-28.16
435.194	1.68
435.406	-15.18
435.617	73.37
435.829	62.71
436.04	52.83
436.252	66.39
436.463	48.76
436.675	73.17
436.886	18.92
437.098	19.31
437.309	81.31
437.521	21.05
437.732	68.52
437.943	60
438.155	10.98
438.366	-36.3
438.578	63.87
438.789	33.45
439	76.27
439.211	35.58
439.423	48.37
439.634	50.12
439.845	54.57
440.057	34.03
440.268	58.64
440.479	-6.26
440.69	42.56
440.902	-4.91
441.113	34.62
441.324	20.47
441.535	30.93
441.746	81.12
441.957	-1.42
442.168	5.75
442.38	58.25
442.591	49.73
442.802	-20.8
443.013	-5.88
443.224	32.29
443.435	10.59
443.646	13.89
443.857	35.39
444.068	-7.81
444.279	9.62
444.49	100.49
444.701	22.99
444.912	110.57
445.123	52.83
445.334	72.59
445.545	31.13
445.756	23.96
445.967	2.07
446.178	49.15
446.388	97
446.599	54.18
446.81	67.94
447.021	31.52
447.232	73.37
447.443	69.3
447.653	23.19
447.864	58.64
448.075	11.75
448.286	64.84
448.496	29.19
448.707	49.53
448.918	41.59
449.129	119.48
449.339	27.45
449.55	44.11
449.761	25.7
449.971	86.15
450.182	15.63
450.393	58.83
450.603	-0.26
450.814	58.83
451.024	46.05
451.235	56.9
451.446	80.15
451.656	91.58
451.867	28.61
452.077	70.46
452.288	111.53
452.498	99.72
452.709	42.17
452.919	83.25
453.13	31.9
453.34	66.58
453.55	9.04
453.761	76.85
453.971	51.67
454.182	69.3
454.392	54.38
454.602	119.28
454.813	58.45
455.023	73.17
455.233	5.17
455.444	50.31
455.654	7.49
455.864	63.48
456.075	52.44
456.285	28.22
456.495	58.64
456.705	61.35
456.916	90.22
457.126	82.08
457.336	34.23
457.546	2.84
457.756	16.79
457.967	102.43
458.177	42.17
458.387	67.17
458.597	-2.78
458.807	35.58
459.017	35.78
459.227	66.58
459.437	47.4
459.647	82.86
459.857	68.13
460.068	41.98
460.278	87.51
460.488	75.88
460.698	134.01
460.908	50.7
461.117	22.41
461.327	39.27
461.537	65.23
461.747	53.8
461.957	40.43
462.167	172.37
462.377	78.98
462.587	47.4
462.797	71.62
463.007	77.24
463.216	72.01
463.426	111.34
463.636	82.67
463.846	-4.52
464.056	40.62
464.265	94.87
464.475	37.72
464.685	54.77
464.895	33.84
465.104	57.48
465.314	69.68
465.524	57.09
465.733	30.74
465.943	129.75
466.153	122.38
466.362	99.33
466.572	70.27
466.782	58.06
466.991	53.6
467.201	124.51
467.41	23.77
467.62	47.21
467.829	70.07
468.039	68.91
468.249	47.4
468.458	52.25
468.668	94.1
468.877	89.45
469.086	97.39
469.296	93.71
469.505	61.16
469.715	143.11
469.924	55.73
470.134	89.64
470.343	144.66
470.552	69.49
470.762	68.52
470.971	61.35
471.18	84.02
471.39	64.84
471.599	47.79
471.808	104.37
472.018	58.83
472.227	101.46
472.436	106.5
472.645	66.97
472.855	39.85
473.064	119.09
473.273	71.82
473.482	96.03
473.691	108.43
473.901	103.2
474.11	79.18
474.319	164.81
474.528	74.53
474.737	120.06
474.946	87.32
475.155	104.56
475.364	106.5
475.573	89.64
475.783	91
475.992	113.47
476.201	126.84
476.41	83.63
476.619	45.27
476.828	89.45
477.037	70.07
477.245	59.42
477.454	105.92
477.663	66.2
477.872	62.32
478.081	123.35
478.29	22.8
478.499	152.8
478.708	96.03
478.917	104.95
479.125	95.84
479.334	102.62
479.543	44.69
479.752	90.61
479.961	76.85
480.169	108.24
480.378	73.37
480.587	195.04
480.796	119.48
481.004	52.83
481.213	110.18
481.422	90.22
481.63	58.64
481.839	114.25
482.048	145.25
482.256	109.02
482.465	104.95
482.674	105.92
482.882	140.4
483.091	154.55
483.299	103.01
483.508	113.67
483.716	99.72
483.925	99.72
484.134	86.35
484.342	72.78
484.551	163.85
484.759	114.44
484.967	110.37
485.176	124.9
485.384	134.59
485.593	156.68
485.801	160.55
486.01	113.47
486.218	143.11
486.426	51.86
486.635	114.83
486.843	98.94
487.051	131.1
487.26	122.77
487.468	131.88
487.676	148.93
487.885	104.56
488.093	119.09
488.301	90.22
488.509	117.35
488.717	143.7
488.926	126.26
489.134	96.03
489.342	107.66
489.55	91.58
489.758	109.6
489.967	84.6
490.175	233.21
490.383	72.59
490.591	151.45
490.799	76.47
491.007	159.97
491.215	115.02
491.423	97.78
491.631	120.83
491.839	157.26
492.047	155.9
492.255	107.47
492.463	62.52
492.671	116.38
492.879	156.1
493.087	126.45
493.295	107.27
493.503	132.65
493.711	157.45
493.919	175.66
494.127	155.71
494.334	165.2
494.542	100.68
494.75	131.3
494.958	125.1
495.166	178.57
495.374	140.6
495.581	140.98
495.789	133.81
495.997	183.8
496.205	160.94
496.412	143.11
496.62	112.12
496.828	158.42
497.035	109.21
497.243	141.56
497.451	134.4
497.658	151.25
497.866	167.33
498.074	197.56
498.281	88.87
498.489	197.56
498.696	175.08
498.904	116.76
499.112	147.96
499.319	199.69
499.527	115.8
499.734	172.18
499.942	123.35
500.149	134.98
500.357	137.11
500.564	126.65
500.771	158.81
500.979	120.25
501.186	120.64
501.394	149.9
501.601	144.47
501.808	178.38
502.016	137.3
502.223	156.87
502.43	152.61
502.638	166.36
502.845	124.9
503.052	193.1
503.26	142.73
503.467	208.99
503.674	134.59
503.881	181.28
504.089	225.46
504.296	182.06
504.503	148.15
504.71	154.16
504.917	137.88
505.125	139.82
505.332	165.01
505.539	165.4
505.746	208.79
505.953	165.2
506.16	170.82
506.367	205.11
506.574	190.97
506.781	184.96
506.988	158.42
507.195	183.8
507.402	146.8
507.609	214.99
507.816	157.45
508.023	147.76
508.23	180.7
508.437	106.5
508.644	191.75
508.851	228.94
509.058	204.92
509.265	160.16
509.472	174.11
509.679	255.68
509.885	138.46
510.092	164.81
510.299	179.93
510.506	182.06
510.713	199.3
510.92	179.73
511.126	202.21
511.333	219.64
511.54	223.13
511.746	228.56
511.953	218.48
512.16	220.61
512.367	159.39
512.573	201.82
512.78	191.75
512.987	200.27
513.193	198.33
513.4	120.83
513.606	192.71
513.813	203.37
514.02	233.21
514.226	281.84
514.433	228.75
514.639	180.31
514.846	194.85
515.052	187.87
515.259	198.53
515.465	184
515.672	190.78
515.878	284.36
516.085	191.94
516.291	232.24
516.497	189.23
516.704	154.55
516.91	178.96
517.117	156.68
517.323	147.96
517.529	203.37
517.736	185.74
517.942	225.26
518.148	185.16
518.354	195.43
518.561	192.71
518.767	223.33
518.973	245.22
519.179	233.21
519.386	190.97
519.592	184
519.798	186.51
520.004	224.1
520.21	182.06
520.417	200.66
520.623	229.33
520.829	232.24
521.035	225.84
521.241	240.57
521.447	253.36
521.653	298.11
521.859	225.26
522.065	229.91
522.271	314.77
522.477	224.68
522.683	296.95
522.889	293.46
523.095	243.86
523.301	259.17
523.507	220.81
523.713	251.03
523.919	214.61
524.125	281.06
524.331	214.22
524.537	294.04
524.742	227.98
524.948	273.89
525.154	261.88
525.36	369.22
525.566	296.95
525.772	305.47
525.977	231.66
526.183	311.09
526.389	292.11
526.595	245.22
526.8	285.33
527.006	254.52
527.212	229.91
527.417	213.64
527.623	238.24
527.829	276.22
528.034	257.23
528.24	306.83
528.446	234.95
528.651	326.59
528.857	277.58
529.062	324.07
529.268	273.31
529.473	252.78
529.679	250.06
529.884	332.79
530.09	291.33
530.295	327.37
530.501	302.37
530.706	286.29
530.912	215.77
531.117	269.44
531.323	276.99
531.528	281.06
531.733	274.67
531.939	275.25
532.144	289.59
532.35	287.07
532.555	344.42
532.76	342.29
532.966	345.58
533.171	342.29
533.376	283.19
533.581	270.21
533.787	280.09
533.992	320.59
534.197	345.39
534.402	289.39
534.607	285.13
534.813	398.67
535.018	275.83
535.223	267.89
535.428	324.85
535.633	319.04
535.838	295.4
536.043	294.04
536.249	372.32
536.454	284.74
536.659	342.29
536.864	256.65
537.069	281.26
537.274	299.66
537.479	322.52
537.684	332.41
537.889	270.79
538.094	397.5
538.299	328.92
538.504	314.58
538.708	326.79
538.913	330.27
539.118	280.87
539.323	345.19
539.528	306.25
539.733	304.12
539.938	351.39
540.142	363.41
540.347	310.9
540.552	343.26
540.757	341.32
540.962	323.88
541.166	282.81
541.371	286.68
541.576	326.79
541.781	237.66
541.985	312.45
542.19	339.57
542.395	332.41
542.599	387.82
542.804	355.46
543.008	379.1
543.213	302.96
543.418	277.38
543.622	344.61
543.827	291.72
544.031	403.12
544.236	396.54
544.44	310.12
544.645	391.69
544.849	316.13
545.054	346.55
545.258	403.51
545.463	385.88
545.667	327.17
545.872	356.24
546.076	356.04
546.281	349.46
546.485	329.69
546.689	362.44
546.894	382.39
547.098	369.99
547.302	308.19
547.507	338.61
547.711	374.84
547.915	406.03
548.119	319.42
548.324	336.09
548.528	393.24
548.732	351.59
548.936	392.47
549.141	401.38
549.345	337.44
549.549	345.77
549.753	328.92
549.957	439.94
550.161	412.04
550.366	341.9
550.57	322.91
550.774	340.93
550.978	324.66
551.182	374.64
551.386	365.54
551.59	326.01
551.794	327.56
551.998	375.22
552.202	334.73
552.406	328.14
552.61	354.88
552.814	339.96
553.018	393.05
553.222	356.24
553.426	320.01
553.63	434.9
553.833	306.83
554.037	326.21
554.241	367.86
554.445	326.21
554.649	340.35
554.853	337.06
555.056	352.36
555.26	383.17
555.464	375.81
555.668	375.03
555.871	407.19
556.075	388.98
556.279	324.66
556.483	315.55
556.686	363.41
556.89	359.53
557.094	373.48
557.297	308.38
557.501	411.07
557.704	319.62
557.908	393.24
558.112	341.51
558.315	414.94
558.519	352.75
558.722	380.65
558.926	365.92
559.129	308.77
559.333	315.74
559.536	316.91
559.74	329.69
559.943	336.09
560.147	301.79
560.35	357.01
560.553	334.92
560.757	254.33
560.96	390.92
561.164	325.24
561.367	395.37
561.57	300.63
561.774	371.74
561.977	334.92
562.18	355.85
562.384	417.07
562.587	324.27
562.79	313.22
562.993	328.53
563.197	358.95
563.4	397.12
563.603	401.77
563.806	427.73
564.009	298.31
564.212	359.72
564.416	296.37
564.619	369.41
564.822	319.62
565.025	364.37
565.228	348.68
565.431	325.82
565.634	260.91
565.837	327.17
566.04	301.6
566.243	351.97
566.446	263.24
566.649	350.23
566.852	304.31
567.055	328.53
567.258	343.84
567.461	399.83
567.664	404.09
567.867	261.88
568.07	363.21
568.273	328.53
568.475	382.2
568.678	307.22
568.881	326.79
569.084	349.84
569.287	257.62
569.489	313.03
569.692	363.79
569.895	363.99
570.098	277.58
570.3	275.83
570.503	249.87
570.706	263.63
570.909	284.55
571.111	278.54
571.314	287.65
571.516	297.92
571.719	306.06
571.922	268.47
572.124	268.66
572.327	311.09
572.529	235.53
572.732	231.08
572.935	278.54
573.137	331.24
573.34	273.12
573.542	305.67
573.745	310.9
573.947	312.26
574.15	286.88
574.352	244.44
574.554	337.44
574.757	235.73
574.959	264.59
575.162	262.85
575.364	266.14
575.566	400.8
575.769	226.81
575.971	295.21
576.173	205.5
576.376	295.98
576.578	312.26
576.78	346.16
576.982	186.13
577.185	267.89
577.387	239.99
577.589	202.79
577.791	302.18
577.993	307.8
578.196	270.41
578.398	326.79
578.6	337.44
578.802	264.98
579.004	243.09
579.206	256.65
579.408	287.26
579.61	253.74
579.812	302.18
580.014	258.78
580.216	258.2
580.418	270.6
580.62	271.38
580.822	207.63
581.024	263.24
581.226	284.16
581.428	246.38
581.63	320.78
581.832	235.34
582.034	314
582.236	244.44
582.438	274.86
582.64	314.19
582.841	319.62
583.043	348.29
583.245	295.4
583.447	298.11
583.649	251.81
583.85	300.63
584.052	308.38
584.254	263.43
584.456	290.94
584.657	220.81
584.859	261.88
585.061	251.42
585.262	249.09
585.464	222.94
585.666	286.88
585.867	250.45
586.069	340.16
586.27	295.4
586.472	284.36
586.674	256.26
586.875	258.2
587.077	261.88
587.278	274.86
587.48	247.54
587.681	368.83
587.883	286.68
588.084	229.53
588.285	260.33
588.487	253.74
588.688	270.21
588.89	231.85
589.091	225.26
589.292	260.53
589.494	252
589.695	266.34
589.896	182.45
590.098	193.3
590.299	245.99
590.5	216.93
590.702	203.18
590.903	241.73
591.104	272.34
591.305	246.19
591.507	288.43
591.708	281.84
591.909	240.96
592.11	322.91
592.311	279.32
592.512	243.67
592.714	203.95
592.915	195.43
593.116	235.34
593.317	229.33
593.518	226.62
593.719	230.69
593.92	277.58
594.121	312.45
594.322	272.73
594.523	262.66
594.724	204.92
594.925	249.68
595.126	261.11
595.327	281.45
595.528	239.99
595.729	242.7
595.929	251.03
596.13	273.12
596.331	236.69
596.532	236.5
596.733	282.81
596.934	293.07
597.135	264.79
597.335	280.09
597.536	213.44
597.737	238.24
597.938	219.64
598.138	272.54
598.339	264.21
598.54	274.67
598.74	236.31
598.941	266.53
599.142	299.08
599.342	265.76
599.543	196.98
599.744	247.54
599.944	223.33
600.145	224.68
600.345	234.37
600.546	324.27
600.746	312.26
600.947	305.67
601.147	304.31
601.348	280.09
601.548	209.76
601.749	248.9
601.949	218.87
602.15	227.39
602.35	271.76
602.551	292.49
602.751	237.66
602.951	236.5
603.152	170.82
603.352	292.3
603.552	235.73
603.753	260.14
603.953	255.29
604.153	247.35
604.354	230.11
604.554	235.92
604.754	238.44
604.954	198.72
605.155	250.45
605.355	220.23
605.555	291.33
605.755	309.35
605.955	244.83
606.155	285.33
606.356	250.84
606.556	260.72
606.756	298.11
606.956	185.74
607.156	271.96
607.356	212.48
607.556	283
607.756	246.19
607.956	267.89
608.156	270.41
608.356	208.02
608.556	292.69
608.756	268.47
608.956	205.11
609.156	256.65
609.356	240.76
609.556	193.68
609.755	227.2
609.955	232.24
610.155	239.6
610.355	236.31
610.555	238.63
610.755	252.78
610.954	193.88
611.154	245.8
611.354	291.14
611.554	240.38
611.753	197.75
611.953	190
612.153	256.84
612.352	231.85
612.552	218.09
612.752	174.7
612.951	232.63
613.151	277.96
613.351	189.42
613.55	246.58
613.75	263.82
613.949	261.49
614.149	259.75
614.348	249.29
614.548	228.56
614.747	180.51
614.947	234.37
615.146	146.21
615.346	266.92
615.545	251.42
615.745	244.25
615.944	248.9
616.144	247.35
616.343	270.6
616.542	213.06
616.742	235.34
616.941	217.71
617.14	196.98
617.34	258.2
617.539	253.74
617.738	217.51
617.938	264.79
618.137	221.19
618.336	193.88
618.535	224.88
618.734	198.33
618.934	247.74
619.133	225.84
619.332	239.41
619.531	177.8
619.73	220.61
619.929	269.05
620.128	229.91
620.328	281.26
620.527	198.72
620.726	192.33
620.925	218.48
621.124	165.59
621.323	239.79
621.522	180.51
621.721	180.31
621.92	175.28
622.119	248.9
622.318	209.38
622.517	181.09
622.715	206.66
622.914	160.94
623.113	229.53
623.312	174.89
623.511	219.26
623.71	205.11
623.909	175.47
624.107	252.97
624.306	164.62
624.505	156.1
624.704	211.51
624.902	201.82
625.101	241.54
625.3	232.63
625.499	198.72
625.697	200.27
625.896	216.74
626.095	238.05
626.293	180.12
626.492	175.08
626.69	225.65
626.889	177.21
627.088	248.13
627.286	168.69
627.485	176.05
627.683	198.91
627.882	206.86
628.08	156.68
628.279	189.42
628.477	271.38
628.676	170.82
628.874	225.26
629.073	176.83
