Data from pine_FLMT105791__182__17-23-36-073.txt Node

Date: Mon Mar 20 17:23:36 GMT 2023
User: antho
Spectrometer: FLMT10579
Trigger mode: 0
Integration Time (sec): 1.000000E-1
Scans to average: 10
Electric dark correction enabled: true
Nonlinearity correction enabled: false
Boxcar width: 0
XAxis mode: Wavelengths
Number of Pixels in Spectrum: 3648
>>>>>Begin Spectral Data<<<<<
345.248	-164.17
345.464	-164.17
345.681	-164.17
345.898	-166.49
346.114	-193.42
346.331	-48.5
346.548	26.29
346.764	-5.49
346.981	-20.99
347.197	-14.79
347.414	19.12
347.631	-19.05
347.847	71.62
348.064	-1.23
348.28	36.75
348.497	-29.51
348.713	-14.21
348.93	32.68
349.146	5.94
349.363	19.7
349.579	11.95
349.796	13.69
350.012	3.04
350.229	22.6
350.445	16.4
350.661	-28.55
350.878	2.65
351.094	3.81
351.311	-10.91
351.527	25.7
351.743	-5.68
351.96	16.02
352.176	52.25
352.392	30.35
352.609	24.93
352.825	-3.16
353.041	5.94
353.257	-17.31
353.474	11.17
353.69	30.55
353.906	-2
354.122	-28.35
354.339	60.77
354.555	6.33
354.771	-8.4
354.987	83.25
355.203	53.22
355.42	-6.65
355.636	-8.2
355.852	-19.05
356.068	-12.85
356.284	-29.13
356.5	39.85
356.716	16.21
356.932	10.01
357.148	15.24
357.364	-28.16
357.58	50.5
357.796	60.19
358.012	36.55
358.228	23.38
358.444	-78.34
358.66	48.76
358.876	17.57
359.092	-38.62
359.308	-1.23
359.524	13.89
359.74	-26.22
359.956	-37.85
360.172	8.07
360.388	29.97
360.604	-11.3
360.819	98.17
361.035	9.04
361.251	7.1
361.467	-10.72
361.683	18.73
361.898	10.01
362.114	17.76
362.33	-1.61
362.546	44.69
362.762	6.33
362.977	16.79
363.193	-21.76
363.409	19.7
363.624	-39.78
363.84	-0.45
364.056	-3.36
364.271	6.91
364.487	24.93
364.703	3.04
364.918	-31.65
365.134	-18.86
365.35	14.27
365.565	99.52
365.781	34.23
365.996	37.52
366.212	52.05
366.427	13.3
366.643	-18.28
366.858	-4.71
367.074	-15.18
367.289	50.31
367.505	104.56
367.72	-38.81
367.936	-21.76
368.151	16.21
368.367	5.94
368.582	-7.23
368.798	-5.88
369.013	30.93
369.228	10.01
369.444	25.12
369.659	49.53
369.874	34.23
370.09	71.82
370.305	-52.38
370.52	-22.73
370.736	47.4
370.951	-14.01
371.166	46.24
371.381	72.2
371.597	47.6
371.812	-24.48
372.027	-20.8
372.242	-18.08
372.458	89.64
372.673	6.72
372.888	7.49
373.103	42.17
373.318	105.33
373.533	34.23
373.749	20.86
373.964	-55.09
374.179	60.19
374.394	-16.92
374.609	76.27
374.824	-26.41
375.039	42.37
375.254	-2.97
375.469	44.69
375.684	10.59
375.899	39.65
376.114	0.52
376.329	-22.73
376.544	49.92
376.759	37.33
376.974	-4.71
377.189	-8.59
377.404	6.72
377.619	53.6
377.834	-54.31
378.049	-31.06
378.264	-26.22
378.478	-5.3
378.693	-26.61
378.908	28.03
379.123	-5.49
379.338	62.9
379.553	39.85
379.767	11.75
379.982	53.02
380.197	37.91
380.412	7.49
380.626	30.74
380.841	106.69
381.056	36.17
381.271	37.13
381.485	-15.76
381.7	-35.33
381.915	15.24
382.129	-11.5
382.344	-9.75
382.559	-9.56
382.773	43.33
382.988	-37.85
383.202	20.86
383.417	3.42
383.632	108.24
383.846	-4.33
384.061	11.37
384.275	1.49
384.49	44.88
384.704	36.75
384.919	4
385.133	-1.03
385.348	41.4
385.562	-54.7
385.777	26.09
385.991	28.22
386.206	7.49
386.42	-6.26
386.634	48.76
386.849	29.97
387.063	9.04
387.277	-28.16
387.492	-10.53
387.706	-14.79
387.92	-4.71
388.135	82.28
388.349	9.43
388.563	-16.92
388.778	16.6
388.992	47.6
389.206	30.74
389.42	84.41
389.635	2.26
389.849	46.82
390.063	52.44
390.277	-3.55
390.491	45.47
390.706	29.19
390.92	18.54
391.134	-12.85
391.348	42.75
391.562	-23.51
391.776	-23.31
391.99	-11.3
392.205	31.32
392.419	-40.36
392.633	19.7
392.847	65.03
393.061	6.91
393.275	54.18
393.489	25.51
393.703	20.09
393.917	61.74
394.131	-9.17
394.345	39.27
394.559	55.35
394.773	9.24
394.986	33.84
395.2	36.75
395.414	47.4
395.628	-36.68
395.842	20.09
396.056	-11.11
396.27	-31.84
396.484	6.72
396.697	11.95
396.911	63.87
397.125	22.99
397.339	71.82
397.553	37.72
397.766	83.44
397.98	64.07
398.194	26.87
398.408	-6.85
398.621	26.29
398.835	29
399.049	15.44
399.262	76.27
399.476	27.45
399.69	50.12
399.903	80.34
400.117	22.02
400.331	47.79
400.544	-1.42
400.758	116.76
400.971	28.61
401.185	57.67
401.398	-17.5
401.612	47.02
401.826	34.62
402.039	49.15
402.253	-14.01
402.466	1.68
402.68	1.29
402.893	38.1
403.106	3.62
403.32	34.03
403.533	45.27
403.747	19.31
403.96	12.53
404.174	29.97
404.387	-11.69
404.6	-0.06
404.814	53.99
405.027	22.6
405.24	14.85
405.454	16.21
405.667	54.57
405.88	-41.53
406.094	40.23
406.307	76.66
406.52	43.33
406.733	-1.03
406.947	-36.1
407.16	74.14
407.373	74.33
407.586	-17.11
407.799	-24.28
408.012	64.65
408.226	20.86
408.439	49.15
408.652	-20.21
408.865	34.03
409.078	44.69
409.291	25.9
409.504	-20.41
409.717	2.26
409.93	13.89
410.143	4.97
410.357	-25.64
410.57	-26.03
410.783	26.48
410.996	26.87
411.209	43.14
411.421	53.41
411.634	9.04
411.847	-10.91
412.06	29.38
412.273	5.94
412.486	9.04
412.699	108.63
412.912	0.52
413.125	51.08
413.338	30.74
413.55	38.1
413.763	35.58
413.976	28.03
414.189	-12.85
414.402	-14.4
414.615	71.82
414.827	-24.86
415.04	50.12
415.253	35.39
415.466	54.96
415.678	85.18
415.891	29
416.104	16.99
416.316	16.4
416.529	9.24
416.742	22.6
416.954	56.32
417.167	-6.65
417.38	17.37
417.592	49.73
417.805	-11.3
418.017	-28.55
418.23	40.82
418.442	7.49
418.655	25.7
418.868	8.46
419.08	52.44
419.293	43.53
419.505	31.52
419.718	37.52
419.93	31.9
420.142	-2.58
420.355	60.77
420.567	80.15
420.78	40.04
420.992	40.62
421.205	88.48
421.417	-32.23
421.629	14.85
421.842	-17.31
422.054	-16.34
422.266	47.4
422.479	51.67
422.691	29
422.903	47.79
423.115	18.54
423.328	6.72
423.54	27.06
423.752	28.42
423.964	35
424.177	35.97
424.389	5.36
424.601	124.51
424.813	56.7
425.025	46.63
425.238	42.95
425.45	10.59
425.662	7.88
425.874	310.32
426.086	24.74
426.298	29
426.51	36.55
426.722	21.05
426.934	3.23
427.146	71.04
427.358	10.2
427.57	59.03
427.782	5.75
427.994	42.56
428.206	22.02
428.418	-26.41
428.63	19.12
428.842	25.32
429.054	57.28
429.266	62.13
429.478	-10.14
429.69	8.46
429.902	-45.4
430.114	57.09
430.325	24.15
430.537	9.82
430.749	25.51
430.961	-4.71
431.173	34.03
431.384	66.2
431.596	-44.63
431.808	17.57
432.02	9.43
432.231	45.08
432.443	61.55
432.655	25.9
432.867	6.14
433.078	56.7
433.29	85.57
433.502	52.63
433.713	52.44
433.925	-3.36
434.136	65.42
434.348	12.53
434.56	-39.2
434.771	118.9
434.983	-11.3
435.194	-16.73
435.406	9.24
435.617	63.48
435.829	76.66
436.04	42.37
436.252	55.54
436.463	73.95
436.675	32.87
436.886	51.86
437.098	34.81
437.309	63.48
437.521	22.02
437.732	33.65
437.943	17.57
438.155	51.67
438.366	-21.57
438.578	80.53
438.789	30.74
439	71.82
439.211	27.06
439.423	51.28
439.634	50.31
439.845	47.79
440.057	38.1
440.268	33.84
440.479	10.59
440.69	15.05
440.902	14.66
441.113	52.83
441.324	19.31
441.535	38.3
441.746	76.47
441.957	27.64
442.168	16.79
442.38	46.24
442.591	51.86
442.802	3.04
443.013	-27.19
443.224	46.82
443.435	11.75
443.646	40.43
443.857	41.59
444.068	5.17
444.279	5.36
444.49	68.13
444.701	32.29
444.912	110.76
445.123	33.45
445.334	46.43
445.545	29
445.756	11.37
445.967	14.08
446.178	33.45
446.388	71.82
446.599	61.55
446.81	63.87
447.021	36.94
447.232	94.87
447.443	75.5
447.653	-15.56
447.864	33.45
448.075	42.95
448.286	61.93
448.496	49.15
448.707	67.55
448.918	23.96
449.129	117.73
449.339	-0.65
449.55	46.63
449.761	9.24
449.971	100.3
450.182	26.48
450.393	81.12
450.603	26.67
450.814	72.78
451.024	48.95
451.235	65.03
451.446	85.18
451.656	84.22
451.867	23.77
452.077	84.6
452.288	78.98
452.498	91.77
452.709	21.05
452.919	88.09
453.13	16.99
453.34	68.91
453.55	4
453.761	79.95
453.971	60.97
454.182	94.48
454.392	64.07
454.602	122
454.813	52.83
455.023	89.83
455.233	28.8
455.444	51.86
455.654	11.75
455.864	50.89
456.075	36.55
456.285	17.57
456.495	36.75
456.705	66.58
456.916	109.98
457.126	83.63
457.336	40.43
457.546	-22.15
457.756	31.9
457.967	112.7
458.177	34.23
458.387	37.52
458.597	46.43
458.807	51.86
459.017	53.99
459.227	37.13
459.437	46.82
459.647	78.21
459.857	91
460.068	31.32
460.278	82.08
460.488	80.34
460.698	101.46
460.908	63.68
461.117	3.42
461.327	20.09
461.537	62.71
461.747	29.19
461.957	70.46
462.167	122.96
462.377	71.23
462.587	35.97
462.797	96.81
463.007	48.76
463.216	70.27
463.426	93.71
463.636	56.12
463.846	21.83
464.056	57.09
464.265	103.01
464.475	18.34
464.685	57.87
464.895	79.95
465.104	38.3
465.314	103.2
465.524	31.32
465.733	20.86
465.943	107.47
466.153	117.73
466.362	93.71
466.572	59.8
466.782	68.52
466.991	70.46
467.201	119.09
467.41	16.6
467.62	59.8
467.829	52.63
468.039	97
468.249	48.18
468.458	40.04
468.668	75.5
468.877	68.33
469.086	115.99
469.296	100.88
469.505	2.26
469.715	149.12
469.924	91.19
470.134	129.75
470.343	129.55
470.552	72.98
470.762	90.03
470.971	33.45
471.18	69.49
471.39	50.89
471.599	41.98
471.808	109.4
472.018	28.03
472.227	96.81
472.436	48.76
472.645	28.22
472.855	43.53
473.064	99.91
473.273	89.06
473.482	74.14
473.691	95.45
473.901	97.58
474.11	51.08
474.319	145.25
474.528	71.43
474.737	129.55
474.946	95.65
475.155	71.82
475.364	132.07
475.573	67.55
475.783	61.74
475.992	99.33
476.201	128
476.41	63.29
476.619	36.55
476.828	78.6
477.037	54.57
477.245	92.93
477.454	77.43
477.663	60.19
477.872	34.62
478.081	126.06
478.29	56.51
478.499	134.98
478.708	65.03
478.917	128.58
479.125	88.67
479.334	108.05
479.543	89.25
479.752	73.75
479.961	96.81
480.169	111.92
480.378	68.33
480.587	194.46
480.796	102.82
481.004	69.1
481.213	95.84
481.422	79.76
481.63	80.53
481.839	97.2
482.048	158.23
482.256	117.73
482.465	86.73
482.674	112.7
482.882	127.42
483.091	167.53
483.299	126.65
483.508	119.09
483.716	83.25
483.925	91.97
484.134	78.21
484.342	73.95
484.551	145.83
484.759	147.96
484.967	125.29
485.176	129.55
485.384	155.32
485.593	141.56
485.801	120.83
486.01	111.15
486.218	125.1
486.426	63.1
486.635	128.58
486.843	107.47
487.051	141.18
487.26	104.17
487.468	125.68
487.676	147.18
487.885	102.82
488.093	111.92
488.301	102.62
488.509	123.16
488.717	125.1
488.926	113.28
489.134	84.6
489.342	132.26
489.55	82.47
489.758	125.68
489.967	72.98
490.175	204.34
490.383	74.72
490.591	166.75
490.799	74.72
491.007	132.65
491.215	115.22
491.423	98.36
491.631	108.05
491.839	128.39
492.047	157.06
492.255	91.38
492.463	80.92
492.671	125.48
492.879	140.4
493.087	109.21
493.295	126.06
493.503	145.25
493.711	130.52
493.919	171.21
494.127	141.37
494.334	166.36
494.542	72.59
494.75	94.1
494.958	119.67
495.166	147.76
495.374	118.12
495.581	127.03
495.789	111.34
495.997	167.53
496.205	125.1
496.412	127.23
496.62	90.61
496.828	143.89
497.035	103.78
497.243	133.62
497.451	109.98
497.658	125.68
497.866	113.86
498.074	179.35
498.281	121.8
498.489	200.66
498.696	117.54
498.904	121.22
499.112	140.98
499.319	188.45
499.527	116.96
499.734	165.59
499.942	107.85
500.149	130.33
500.357	119.48
500.564	96.81
500.771	143.11
500.979	95.07
501.186	137.88
501.394	146.02
501.601	161.91
501.808	169.85
502.016	122.38
502.223	137.11
502.43	143.5
502.638	158.23
502.845	139.63
503.052	181.86
503.26	120.83
503.467	233.98
503.674	119.48
503.881	157.45
504.089	229.91
504.296	202.98
504.503	102.82
504.71	161.52
504.917	84.6
505.125	169.27
505.332	159.78
505.539	167.14
505.746	223.33
505.953	174.31
506.16	127.03
506.367	200.66
506.574	222.55
506.781	180.31
506.988	137.3
507.195	169.66
507.402	122
507.609	203.18
507.816	146.8
508.023	138.66
508.23	154.35
508.437	130.13
508.644	176.63
508.851	196.01
509.058	199.69
509.265	141.76
509.472	169.27
509.679	244.83
509.885	170.43
510.092	155.9
510.299	133.23
510.506	180.12
510.713	182.45
510.92	171.98
511.126	192.13
511.333	224.29
511.54	210.73
511.746	226.23
511.953	218.09
512.16	222.16
512.367	148.93
512.573	168.3
512.78	183.03
512.987	144.28
513.193	201.24
513.4	112.7
513.606	163.46
513.813	176.05
514.02	160.94
514.226	243.28
514.433	217.13
514.639	142.53
514.846	170.63
515.052	114.83
515.259	170.82
515.465	206.28
515.672	162.1
515.878	261.69
516.085	176.05
516.291	192.71
516.497	143.11
516.704	172.76
516.91	139.05
517.117	153.38
517.323	130.71
517.529	195.81
517.736	202.4
517.942	168.88
518.148	154.55
518.354	186.9
518.561	187.1
518.767	201.63
518.973	222.16
519.179	229.33
519.386	171.6
519.592	155.9
519.798	151.64
520.004	197.36
520.21	150.86
520.417	197.95
520.623	200.08
520.829	220.61
521.035	199.69
521.241	210.34
521.447	202.21
521.653	295.21
521.859	185.93
522.065	194.85
522.271	276.61
522.477	236.69
522.683	250.26
522.889	229.53
523.095	236.11
523.301	235.53
523.507	181.09
523.713	233.01
523.919	173.53
524.125	233.4
524.331	233.59
524.537	269.63
524.742	235.34
524.948	237.86
525.154	210.93
525.36	322.52
525.566	233.59
525.772	291.33
525.977	185.16
526.183	251.81
526.389	257.81
526.595	238.05
526.8	214.8
527.006	200.85
527.212	212.48
527.417	192.91
527.623	198.72
527.829	267.89
528.034	264.01
528.24	216.74
528.446	191.94
528.651	265.18
528.857	275.44
529.062	312.06
529.268	228.36
529.473	222.55
529.679	208.79
529.884	275.25
530.09	263.24
530.295	303.34
530.501	268.47
530.706	247.35
530.912	226.62
531.117	220.03
531.323	240.18
531.528	260.14
531.733	259.75
531.939	233.21
532.144	263.82
532.35	233.01
532.555	290.17
532.76	273.89
532.966	282.23
533.171	269.05
533.376	255.29
533.581	233.01
533.787	226.04
533.992	277.38
534.197	307.22
534.402	251.23
534.607	269.83
534.813	345.39
535.018	239.02
535.223	252.78
535.428	248.51
535.633	291.52
535.838	295.21
536.043	250.64
536.249	318.07
536.454	251.23
536.659	290.94
536.864	228.36
537.069	250.45
537.274	301.99
537.479	296.95
537.684	295.21
537.889	253.16
538.094	360.11
538.299	282.61
538.504	262.46
538.708	303.34
538.913	284.55
539.118	230.11
539.323	296.76
539.528	272.34
539.733	277.58
539.938	292.3
540.142	299.47
540.347	266.53
540.552	239.41
540.757	289.78
540.962	278.54
541.166	251.61
541.371	246.38
541.576	256.65
541.781	164.23
541.985	249.29
542.19	285.52
542.395	321.36
542.599	341.12
542.804	318.84
543.008	315.94
543.213	270.41
543.418	269.83
543.622	305.67
543.827	238.05
544.031	338.99
544.236	332.02
544.44	265.37
544.645	336.47
544.849	267.69
545.054	309.93
545.258	341.9
545.463	353.91
545.667	257.23
545.872	295.01
546.076	296.76
546.281	292.88
546.485	296.76
546.689	313.81
546.894	324.27
547.098	263.63
547.302	248.13
547.507	277.96
547.711	288.23
547.915	349.46
548.119	276.22
548.324	283.97
548.528	345.97
548.732	306.64
548.936	316.91
549.141	328.53
549.345	289.98
549.549	303.54
549.753	281.06
549.957	361.08
550.161	357.79
550.366	296.17
550.57	262.27
550.774	307.8
550.978	281.26
551.182	317.49
551.386	292.3
551.59	294.43
551.794	271.57
551.998	327.37
552.202	277.38
552.406	271.57
552.61	276.61
552.814	297.72
553.018	358.17
553.222	318.84
553.426	288.43
553.63	351.2
553.833	278.35
554.037	253.74
554.241	317.68
554.445	309.16
554.649	297.34
554.853	279.13
555.056	320.97
555.26	338.8
555.464	283.19
555.668	322.72
555.871	343.84
556.075	335.31
556.279	271.57
556.483	234.37
556.686	282.61
556.89	310.51
557.094	352.36
557.297	273.12
557.501	369.61
557.704	288.43
557.908	355.07
558.112	286.1
558.315	372.71
558.519	285.52
558.722	340.16
558.926	292.11
559.129	279.71
559.333	232.82
559.536	294.04
559.74	267.89
559.943	275.44
560.147	251.81
560.35	336.47
560.553	266.53
560.757	251.23
560.96	335.12
561.164	261.69
561.367	363.02
561.57	295.59
561.774	314.97
561.977	287.84
562.18	272.54
562.384	380.84
562.587	300.24
562.79	268.47
562.993	291.72
563.197	330.08
563.4	332.6
563.603	316.71
563.806	375.61
564.009	262.08
564.212	311.87
564.416	244.64
564.619	324.46
564.822	236.5
565.025	345.39
565.228	305.67
565.431	302.57
565.634	221.97
565.837	298.69
566.04	288.43
566.243	285.52
566.446	201.24
566.649	303.73
566.852	272.15
567.055	288.04
567.258	325.04
567.461	369.41
567.664	307.8
567.867	227.01
568.07	320.01
568.273	283.97
568.475	327.95
568.678	274.28
568.881	264.4
569.084	280.29
569.287	228.17
569.489	221.78
569.692	327.37
569.895	315.36
570.098	233.59
570.3	261.3
570.503	204.92
570.706	240.38
570.909	248.71
571.111	245.22
571.314	228.56
571.516	242.31
571.719	276.03
571.922	269.83
572.124	255.49
572.327	260.14
572.529	206.08
572.732	201.82
572.935	239.79
573.137	302.76
573.34	235.53
573.542	264.01
573.745	273.31
573.947	250.45
574.15	238.63
574.352	229.53
574.554	315.36
574.757	256.46
574.959	236.11
575.162	204.92
575.364	226.62
575.566	325.24
575.769	213.83
575.971	245.99
576.173	165.78
576.376	256.07
576.578	276.8
576.78	320.59
576.982	171.98
577.185	243.67
577.387	211.51
577.589	203.76
577.791	256.26
577.993	233.98
578.196	223.33
578.398	265.37
578.6	283.58
578.802	206.66
579.004	211.12
579.206	213.64
579.408	236.89
579.61	232.63
579.812	246.58
580.014	216.74
580.216	185.35
580.418	222.16
580.62	201.82
580.822	142.73
581.024	218.09
581.226	268.08
581.428	203.56
581.63	298.31
581.832	199.5
582.034	254.71
582.236	214.99
582.438	234.95
582.64	273.12
582.841	289.01
583.043	314.77
583.245	242.7
583.447	253.94
583.649	244.06
583.85	232.24
584.052	280.09
584.254	216.35
584.456	317.49
584.657	185.74
584.859	242.7
585.061	219.64
585.262	185.74
585.464	177.8
585.666	273.7
585.867	245.41
586.069	299.66
586.27	243.48
586.472	236.5
586.674	223.33
586.875	234.76
587.077	217.71
587.278	239.21
587.48	211.31
587.681	306.83
587.883	249.09
588.084	191.75
588.285	208.99
588.487	253.74
588.688	252.58
588.89	226.43
589.091	198.33
589.292	218.68
589.494	230.49
589.695	219.84
589.896	146.8
590.098	158.81
590.299	231.85
590.5	177.8
590.702	186.51
590.903	222.16
591.104	251.61
591.305	225.84
591.507	275.44
591.708	245.41
591.909	225.07
592.11	270.6
592.311	229.72
592.512	193.68
592.714	199.11
592.915	184.58
593.116	193.49
593.317	202.79
593.518	200.46
593.719	193.3
593.92	213.83
594.121	258.39
594.322	216.16
594.523	216.74
594.724	189.61
594.925	198.14
595.126	231.27
595.327	232.24
595.528	229.72
595.729	215.38
595.929	237.08
596.13	204.73
596.331	193.88
596.532	206.86
596.733	247.16
596.934	262.46
597.135	235.14
597.335	231.27
597.536	183.22
597.737	220.42
597.938	191.16
598.138	239.41
598.339	192.91
598.54	249.48
598.74	227.59
598.941	225.07
599.142	269.63
599.342	246.77
599.543	184.38
599.744	215.19
599.944	180.12
600.145	169.85
600.345	199.5
600.546	276.61
600.746	268.47
600.947	264.79
601.147	238.63
601.348	241.15
601.548	200.46
601.749	221.78
601.949	209.57
602.15	202.01
602.35	223.52
602.551	253.94
602.751	185.35
602.951	190.97
603.152	147.96
603.352	232.24
603.552	222.94
603.753	242.51
603.953	248.9
604.153	224.68
604.354	196.59
604.554	205.69
604.754	230.11
604.954	163.65
605.155	202.98
605.355	192.52
605.555	260.91
605.755	274.67
605.955	206.66
606.155	261.88
606.356	218.48
606.556	267.89
606.756	216.93
606.956	149.9
607.156	285.33
607.356	180.7
607.556	229.72
607.756	216.35
607.956	274.28
608.156	254.33
608.356	189.61
608.556	226.62
608.756	206.08
608.956	194.85
609.156	229.14
609.356	192.33
609.556	169.85
609.755	225.65
609.955	212.86
610.155	223.33
610.355	242.12
610.555	184.38
610.755	235.73
610.954	148.93
611.154	224.88
611.354	247.35
611.554	188.06
611.753	196.01
611.953	129.94
612.153	252.78
612.352	228.56
612.552	166.17
612.752	133.04
612.951	202.79
613.151	230.11
613.351	163.07
613.55	199.11
613.75	210.73
613.949	221.58
614.149	212.86
614.348	216.35
614.548	178.76
614.747	161.13
614.947	194.85
615.146	139.63
615.346	242.12
615.545	211.12
615.745	207.83
615.944	224.1
616.144	227.78
616.343	242.31
616.542	177.99
616.742	199.3
616.941	206.86
617.14	148.15
617.34	211.12
617.539	205.5
617.738	147.57
617.938	275.06
618.137	202.01
618.336	167.91
618.535	218.87
618.734	202.6
618.934	206.47
619.133	181.67
619.332	220.03
619.531	181.86
619.73	196.98
619.929	229.14
620.128	227.2
620.328	220.03
620.527	195.04
620.726	184.19
620.925	217.51
621.124	177.02
621.323	194.85
621.522	156.29
621.721	141.76
621.92	163.85
622.119	194.07
622.318	168.69
622.517	171.01
622.715	165.4
622.914	138.85
623.113	157.65
623.312	139.43
623.511	230.3
623.71	160.94
623.909	181.67
624.107	254.91
624.306	149.9
624.505	167.91
624.704	166.17
624.902	163.26
625.101	230.69
625.3	175.47
625.499	162.68
625.697	153
625.896	161.33
626.095	202.4
626.293	150.86
626.492	147.57
626.69	200.27
626.889	158.03
627.088	200.08
627.286	150.86
627.485	155.32
627.683	169.85
627.882	218.68
628.08	95.26
628.279	184.96
628.477	237.86
628.676	157.65
628.874	183.22
629.073	145.05
629.271	137.11
629.469	183.8
