Data from pine_FLMT105791__159__17-23-13-074.txt Node

Date: Mon Mar 20 17:23:13 GMT 2023
User: antho
Spectrometer: FLMT10579
Trigger mode: 0
Integration Time (sec): 1.000000E-1
Scans to average: 10
Electric dark correction enabled: true
Nonlinearity correction enabled: false
Boxcar width: 0
XAxis mode: Wavelengths
Number of Pixels in Spectrum: 3648
>>>>>Begin Spectral Data<<<<<
345.248	-153.03
345.464	-153.03
345.681	-153.03
345.898	-180.73
346.114	-158.45
346.331	-15.66
346.548	9.53
346.764	-2.49
346.981	-6.94
347.197	-13.53
347.414	45.76
347.631	-37.17
347.847	43.24
348.064	-2.29
348.28	43.43
348.497	-56.93
348.713	-6.94
348.93	43.04
349.146	26.19
349.363	-10.43
349.579	18.63
349.796	-12.76
350.012	-24.19
350.229	40.53
350.445	2.74
350.661	-16.05
350.878	-0.16
351.094	10.49
351.311	33.94
351.527	20.57
351.743	-20.5
351.96	65.91
352.176	51.96
352.392	25.8
352.609	38.39
352.825	6.04
353.041	1.78
353.257	-6.56
353.474	-7.14
353.69	21.93
353.906	10.49
354.122	-36.59
354.339	66.88
354.555	28.71
354.771	-10.43
354.987	43.82
355.203	30.84
355.42	-26.12
355.636	-16.44
355.852	-14.11
356.068	-6.75
356.284	-39.88
356.5	72.69
356.716	34.91
356.932	7.59
357.148	29.09
357.364	-5.2
357.58	24.44
357.796	48.28
358.012	69.59
358.228	18.05
358.444	-48.21
358.66	52.54
358.876	31.61
359.092	-16.05
359.308	23.48
359.524	21.73
359.74	-7.72
359.956	10.11
360.172	9.72
360.388	31.42
360.604	-1.71
360.819	69.59
361.035	34.13
361.251	38.59
361.467	-17.79
361.683	34.13
361.898	32.58
362.114	43.82
362.33	9.72
362.546	44.59
362.762	12.24
362.977	8.17
363.193	-24.19
363.409	29.29
363.624	-25.35
363.84	-17.21
364.056	-19.92
364.271	30.64
364.487	5.46
364.703	-3.46
364.918	-8.3
365.134	-19.15
365.35	-15.47
365.565	86.06
365.781	9.53
365.996	26.19
366.212	56.99
366.427	2.16
366.643	-0.74
366.858	-5.97
367.074	-23.8
367.289	48.28
367.505	94.58
367.72	-45.11
367.936	-14.31
368.151	24.25
368.367	10.11
368.582	3.71
368.798	-10.62
369.013	76.76
369.228	-1.52
369.444	34.91
369.659	67.84
369.874	21.73
370.09	58.35
370.305	-53.44
370.52	-18.37
370.736	50.79
370.951	6.04
371.166	60.29
371.381	45.76
371.597	28.71
371.812	-44.34
372.027	-42.98
372.242	25.22
372.458	49.05
372.673	29.09
372.888	-11.98
373.103	31.03
373.318	90.32
373.533	38.98
373.749	39.36
373.964	-15.47
374.179	63.19
374.394	-23.02
374.609	46.34
374.824	15.92
375.039	58.74
375.254	-11.59
375.469	69.39
375.684	15.14
375.899	52.93
376.114	27.35
376.329	29.48
376.544	58.35
376.759	49.05
376.974	13.4
377.189	3.33
377.404	-9.85
377.619	37.81
377.834	-41.82
378.049	-21.09
378.264	3.52
378.478	19.79
378.693	-2.1
378.908	17.47
379.123	21.15
379.338	69.39
379.553	19.6
379.767	63.78
379.982	27.93
380.197	52.54
380.412	17.47
380.626	20.96
380.841	109.31
381.056	52.15
381.271	87.8
381.485	-4.42
381.7	-11.98
381.915	35.88
382.129	11.85
382.344	38.2
382.559	5.07
382.773	32.39
382.988	-44.53
383.202	19.21
383.417	-10.24
383.632	105.62
383.846	13.59
384.061	45.37
384.275	13.59
384.49	46.34
384.704	32
384.919	44.79
385.133	25.99
385.348	49.05
385.562	-37.17
385.777	49.63
385.991	9.72
386.206	13.98
386.42	11.27
386.634	63.39
386.849	26.96
387.063	18.63
387.277	-13.92
387.492	-10.62
387.706	-8.11
387.92	-24.77
388.135	23.09
388.349	1.19
388.563	36.46
388.778	10.88
388.992	32.97
389.206	46.14
389.42	91.48
389.635	4.68
389.849	36.46
390.063	37.81
390.277	12.04
390.491	65.71
390.706	35.68
390.92	50.21
391.134	38.59
391.348	47.69
391.562	-16.63
391.776	-13.72
391.99	-15.08
392.205	57.96
392.419	-2.49
392.633	0.61
392.847	75.79
393.061	5.26
393.275	74.62
393.489	26.38
393.703	31.23
393.917	75.79
394.131	-18.37
394.345	32.78
394.559	50.21
394.773	12.82
394.986	27.74
395.2	10.49
395.414	48.47
395.628	-6.94
395.842	30.45
396.056	21.93
396.27	-36.39
396.484	42.85
396.697	32
396.911	75.21
397.125	35.49
397.339	71.33
397.553	41.69
397.766	66.1
397.98	44.4
398.194	55.83
398.408	9.14
398.621	38.2
398.835	39.94
399.049	25.03
399.262	56.03
399.476	55.44
399.69	51.76
399.903	97.29
400.117	29.68
400.331	22.89
400.544	27.54
400.758	127.13
400.971	13.4
401.185	24.25
401.398	25.03
401.612	98.65
401.826	36.65
402.039	45.76
402.253	8.56
402.466	47.5
402.68	30.26
402.893	28.71
403.106	50.6
403.32	27.35
403.533	47.89
403.747	45.95
403.96	38.98
404.174	61.45
404.387	16.89
404.6	35.68
404.814	58.16
405.027	32.58
405.24	47.11
405.454	34.91
405.667	86.83
405.88	-44.14
406.094	39.17
406.307	64.16
406.52	36.65
406.733	-7.72
406.947	0.03
407.16	99.81
407.373	63.39
407.586	9.53
407.799	17.28
408.012	39.94
408.226	60.87
408.439	70.75
408.652	-11.01
408.865	37.43
409.078	63
409.291	65.52
409.504	5.46
409.717	25.99
409.93	35.29
410.143	36.65
410.357	-4.81
410.57	0.03
410.783	33.94
410.996	26.38
411.209	17.86
411.421	71.14
411.634	35.29
411.847	-14.5
412.06	46.92
412.273	39.94
412.486	34.33
412.699	122.87
412.912	30.26
413.125	54.09
413.338	60.09
413.55	77.14
413.763	38.98
413.976	69.01
414.189	10.88
414.402	15.92
414.615	85.09
414.827	-6.94
415.04	75.21
415.253	78.89
415.466	58.74
415.678	101.17
415.891	21.15
416.104	56.8
416.316	37.81
416.529	-10.82
416.742	54.28
416.954	71.14
417.167	23.48
417.38	26.19
417.592	78.89
417.805	24.25
418.017	-7.52
418.23	59.9
418.442	7.2
418.655	22.31
418.868	42.85
419.08	67.46
419.293	67.84
419.505	37.04
419.718	54.86
419.93	67.65
420.142	42.27
420.355	87.41
420.567	87.8
420.78	42.46
420.992	56.22
421.205	107.76
421.417	-22.83
421.629	13.4
421.842	-10.04
422.054	-14.69
422.266	69.98
422.479	56.41
422.691	23.09
422.903	85.86
423.115	34.71
423.328	37.81
423.54	76.56
423.752	46.53
423.964	7.01
424.177	46.34
424.389	34.52
424.601	143.41
424.813	34.13
425.025	59.51
425.238	39.36
425.45	46.92
425.662	31.03
425.874	338.7
426.086	50.02
426.298	45.37
426.51	62.61
426.722	50.99
426.934	26.96
427.146	54.28
427.358	9.33
427.57	73.46
427.782	16.89
427.994	36.26
428.206	24.25
428.418	2.36
428.63	55.83
428.842	83.54
429.054	59.13
429.266	71.14
429.478	5.07
429.69	60.87
429.902	-2.68
430.114	80.44
430.325	52.73
430.537	37.62
430.749	51.38
430.961	31.61
431.173	43.04
431.384	89.54
431.596	-4.23
431.808	29.09
432.02	56.99
432.231	70.36
432.443	63.19
432.655	33.74
432.867	10.69
433.078	51.96
433.29	123.64
433.502	85.86
433.713	102.72
433.925	77.92
434.136	69.01
434.348	61.26
434.56	2.36
434.771	130.23
434.983	9.91
435.194	45.95
435.406	42.85
435.617	74.04
435.829	119.19
436.04	79.47
436.252	93.03
436.463	89.35
436.675	71.14
436.886	79.86
437.098	66.1
437.309	118.02
437.521	49.83
437.732	76.56
437.943	68.43
438.155	38.98
438.366	-1.71
438.578	117.64
438.789	88.38
439	83.15
439.211	57.19
439.423	52.15
439.634	78.69
439.845	62.42
440.057	83.34
440.268	76.76
440.479	33.16
440.69	70.94
440.902	32.78
441.113	98.65
441.324	46.14
441.535	65.33
441.746	102.91
441.957	41.69
442.168	57.77
442.38	71.53
442.591	116.86
442.802	30.84
443.013	45.18
443.224	90.9
443.435	50.02
443.646	74.24
443.857	61.06
444.068	65.13
444.279	36.84
444.49	139.53
444.701	48.08
444.912	174.6
445.123	107.76
445.334	86.64
445.545	91.87
445.756	90.51
445.967	61.06
446.178	87.8
446.388	107.17
446.599	108.92
446.81	104.66
447.021	75.4
447.232	94.39
447.443	151.93
447.653	26.58
447.864	98.65
448.075	81.79
448.286	86.25
448.496	93.22
448.707	149.02
448.918	64.74
449.129	162.39
449.339	35.49
449.55	103.49
449.761	45.18
449.971	129.07
450.182	57.77
450.393	84.89
450.603	96.32
450.814	94.58
451.024	93.22
451.235	119.38
451.446	132.94
451.656	156.39
451.867	69.78
452.077	120.74
452.288	154.45
452.498	135.46
452.709	76.17
452.919	111.05
453.13	59.13
453.34	136.82
453.55	67.07
453.761	144.18
453.971	107.95
454.182	137.4
454.392	120.54
454.602	156.19
454.813	103.3
455.023	107.76
455.233	89.16
455.444	124.22
455.654	47.69
455.864	87.22
456.075	83.54
456.285	82.37
456.495	69.2
456.705	117.83
456.916	141.66
457.126	156.58
457.336	87.8
457.546	59.9
457.756	55.25
457.967	139.14
458.177	86.83
458.387	124.81
458.597	87.61
458.807	70.56
459.017	96.71
459.227	96.52
459.437	111.82
459.647	129.26
459.857	117.25
460.068	86.64
460.278	155.61
460.488	112.6
460.698	160.65
460.908	72.88
461.117	67.07
461.327	81.41
461.537	114.15
461.747	116.28
461.957	105.43
462.167	205.6
462.377	160.07
462.587	100.39
462.797	150.77
463.007	132.56
463.216	132.36
463.426	154.06
463.636	140.69
463.846	77.72
464.056	84.51
464.265	152.9
464.475	93.03
464.685	128.49
464.895	135.46
465.104	112.21
465.314	120.35
465.524	127.13
465.733	94.58
465.943	196.49
466.153	180.99
466.362	158.71
466.572	139.34
466.782	104.85
466.991	134.69
467.201	169.17
467.41	65.13
467.62	128.49
467.829	111.63
468.039	144.96
468.249	135.07
468.458	112.6
468.668	136.82
468.877	162
469.086	182.93
469.296	146.51
469.505	100.59
469.715	187.19
469.924	169.17
470.134	174.79
470.343	200.37
470.552	120.54
470.762	132.36
470.971	96.13
471.18	159.29
471.39	131.39
471.599	128.49
471.808	171.89
472.018	113.96
472.227	172.66
472.436	171.3
472.645	112.21
472.855	97.87
473.064	168.2
473.273	149.8
473.482	151.54
473.691	183.7
473.901	176.92
474.11	145.34
474.319	206.37
474.528	138.76
474.737	190.68
474.946	166.46
475.155	131.01
475.364	174.02
475.573	137.4
475.783	173.05
475.992	153.48
476.201	178.67
476.41	139.92
476.619	123.84
476.828	170.34
477.037	142.63
477.245	168.59
477.454	183.51
477.663	157.94
477.872	125.39
478.081	224.78
478.29	105.24
478.499	235.44
478.708	158.71
478.917	223.23
479.125	148.83
479.334	183.12
479.543	155.61
479.752	167.24
479.961	153.67
480.169	200.95
480.378	129.46
480.587	251.32
480.796	195.72
481.004	177.89
481.213	174.4
481.422	176.34
481.63	162.59
481.839	200.37
482.048	238.54
482.256	196.88
482.465	183.7
482.674	208.12
482.882	192.04
483.091	262.17
483.299	194.94
483.508	227.49
483.716	163.55
483.925	191.26
484.134	186.42
484.342	170.14
484.551	228.07
484.759	222.26
484.967	200.37
485.176	233.5
485.384	215.87
485.593	243.19
485.801	236.02
486.01	213.35
486.218	199.98
486.426	168.79
486.635	187.19
486.843	211.22
487.051	215.67
487.26	193.39
487.468	212.38
487.676	219.74
487.885	205.99
488.093	191.07
488.301	208.89
488.509	225.55
488.717	246.29
488.926	212.19
489.134	197.07
489.342	195.33
489.55	188.16
489.758	228.85
489.967	177.89
490.175	327.08
490.383	183.32
490.591	253.45
490.799	171.3
491.007	249.58
491.215	207.73
491.423	219.94
491.631	219.94
491.839	204.44
492.047	257.52
492.255	175.95
492.463	183.7
492.671	204.44
492.879	261.4
493.087	198.82
493.295	239.5
493.503	253.84
493.711	272.05
493.919	260.82
494.127	276.12
494.334	267.98
494.542	208.7
494.75	210.44
494.958	195.33
495.166	282.71
495.374	254.03
495.581	251.71
495.789	250.55
495.997	304.99
496.205	232.53
496.412	240.28
496.62	201.72
496.828	260.04
497.035	237.57
497.243	269.15
497.451	261.98
497.658	241.64
497.866	234.08
498.074	320.49
498.281	224.97
498.489	343.16
498.696	267.79
498.904	264.3
499.112	236.79
499.319	321.27
499.527	244.54
499.734	293.95
499.942	227.1
500.149	220.9
500.357	236.21
500.564	237.57
500.771	280.97
500.979	211.6
501.186	242.6
501.394	274.18
501.601	272.25
501.808	292.01
502.016	263.72
502.223	269.73
502.43	263.92
502.638	274.18
502.845	216.84
503.052	334.05
503.26	250.16
503.467	314.68
503.674	267.4
503.881	269.53
504.089	342.38
504.296	287.55
504.503	250.55
504.71	288.13
504.917	215.67
505.125	274.96
505.332	260.23
505.539	266.24
505.746	298.21
505.953	327.85
506.16	292.98
506.367	330.95
506.574	338.9
506.781	340.25
506.988	265.85
507.195	295.88
507.402	292.59
507.609	320.3
507.816	249
508.023	293.37
508.23	264.5
508.437	242.8
508.644	280.58
508.851	359.43
509.058	303.63
509.265	290.07
509.472	301.89
509.679	401.67
509.885	285.42
510.092	309.25
510.299	327.66
510.506	316.62
510.713	307.51
510.92	292.98
511.126	313.9
511.333	326.88
511.54	329.98
511.746	346.26
511.953	358.27
512.16	346.06
512.367	297.82
512.573	287.36
512.78	282.32
512.987	325.72
513.193	315.65
513.4	238.15
513.606	321.07
513.813	307.32
514.02	331.34
514.226	403.61
514.433	361.76
514.639	275.73
514.846	332.31
515.052	310.8
515.259	330.18
515.465	305.38
515.672	332.31
515.878	405.55
516.085	302.28
516.291	366.21
516.497	275.73
516.704	317.78
516.91	280.38
517.117	296.66
517.323	261.59
517.529	321.85
517.736	301.7
517.942	299.76
518.148	272.25
518.354	309.25
518.561	335.99
518.767	329.98
518.973	332.89
519.179	342.19
519.386	335.02
519.592	293.75
519.798	323.59
520.004	369.7
520.21	276.32
520.417	363.11
520.623	350.52
520.829	363.89
521.035	345.48
521.241	342.38
521.447	369.31
521.653	441.58
521.859	318.75
522.065	362.53
522.271	455.92
522.477	374.35
522.683	421.43
522.889	404.96
523.095	403.8
523.301	355.17
523.507	354.78
523.713	404
523.919	347.42
524.125	403.61
524.331	347.42
524.537	420.46
524.742	388.5
524.948	413.68
525.154	402.25
525.36	491.96
525.566	443.33
525.772	436.16
525.977	334.63
526.183	412.52
526.389	443.13
526.595	394.89
526.8	392.37
527.006	367.76
527.212	363.31
527.417	349.55
527.623	341.22
527.829	401.28
528.034	399.93
528.24	377.84
528.446	352.85
528.651	417.95
528.857	422.21
529.062	450.69
529.268	394.7
529.473	404.77
529.679	369.51
529.884	453.21
530.09	397.6
530.295	480.91
530.501	421.05
530.706	437.13
530.912	373
531.117	420.46
531.323	378.42
531.528	415.43
531.733	415.81
531.939	434.41
532.144	443.71
532.35	415.23
532.555	469.48
532.76	475.49
532.966	490.02
533.171	464.64
533.376	406.13
533.581	410
533.787	417.56
533.992	444.68
534.197	480.91
534.402	427.24
534.607	439.45
534.813	536.32
535.018	446.62
535.223	400.9
535.428	437.9
535.633	488.66
535.838	465.8
536.043	481.3
536.249	514.82
536.454	397.99
536.659	457.86
536.864	411.55
537.069	433.25
537.274	489.24
537.479	455.14
537.684	472.78
537.889	408.65
538.094	509.59
538.299	465.03
538.504	480.91
538.708	481.11
538.913	466.77
539.118	435.96
539.323	471.42
539.528	437.32
539.733	447.59
539.938	485.76
540.142	485.95
540.347	478.2
540.552	444.68
540.757	486.34
540.962	459.02
541.166	417.75
541.371	421.63
541.576	449.72
541.781	361.76
541.985	485.18
542.19	462.51
542.395	489.24
542.599	528.57
542.804	493.89
543.008	530.9
543.213	496.03
543.418	458.83
543.622	512.49
543.827	452.04
544.031	525.28
544.236	530.71
544.44	468.71
544.645	535.94
544.849	455.14
545.054	522.57
545.258	557.06
545.463	509.97
545.667	494.09
545.872	488.08
546.076	500.87
546.281	480.53
546.485	474.52
546.689	480.33
546.894	510.56
547.098	450.11
547.302	426.47
547.507	499.13
547.711	499.32
547.915	525.86
548.119	461.54
548.324	499.51
548.528	559.19
548.732	492.73
548.936	535.36
549.141	533.22
549.345	471.03
549.549	479.17
549.753	453.01
549.957	547.17
550.161	555.7
550.366	492.73
550.57	464.64
550.774	489.63
550.978	458.63
551.182	503.97
551.386	484.79
551.59	484.59
551.794	469.87
551.998	487.11
552.202	478.01
552.406	457.66
552.61	490.41
552.814	496.03
553.018	555.51
553.222	515.79
553.426	492.93
553.63	560.16
553.833	499.32
554.037	473.74
554.241	528.77
554.445	501.84
554.649	476.65
554.853	497.58
555.056	543.11
555.26	515.4
555.464	490.41
555.668	518.5
555.871	535.94
556.075	550.86
556.279	459.79
556.483	444.29
556.686	493.51
556.89	496.8
557.094	518.89
557.297	447.59
557.501	548.72
557.704	454.95
557.908	520.63
558.112	444.29
558.315	570.81
558.519	499.51
558.722	527.99
558.926	491.38
559.129	438.29
559.333	421.24
559.536	468.51
559.74	455.14
559.943	435.96
560.147	408.45
560.35	500.87
560.553	447.39
560.757	389.08
560.96	518.11
561.164	434.61
561.367	521.6
561.57	458.83
561.774	492.93
561.977	499.71
562.18	456.69
562.384	552.99
562.587	462.31
562.79	445.46
562.993	462.31
563.197	499.32
563.4	564.42
563.603	533.42
563.806	563.06
564.009	430.73
564.212	476.26
564.416	453.98
564.619	480.33
564.822	455.53
565.025	511.14
565.228	477.62
565.431	451.46
565.634	422.59
565.837	458.63
566.04	442.74
566.243	458.83
566.446	384.04
566.649	484.79
566.852	409.81
567.055	438.68
567.258	503.97
567.461	531.09
567.664	475.1
567.867	380.75
568.07	480.53
568.273	478.59
568.475	500.48
568.678	446.43
568.881	439.45
569.084	457.47
569.287	374.74
569.489	384.04
569.692	483.04
569.895	469.68
570.098	408.45
570.3	407.48
570.503	387.91
570.706	408.84
570.909	395.66
571.111	385.2
571.314	389.08
571.516	425.31
571.719	444.1
571.922	410.58
572.124	396.25
572.327	431.89
572.529	384.43
572.732	372.22
572.935	446.23
573.137	502.81
573.34	395.86
573.542	446.23
573.745	428.79
573.947	438.87
574.15	408.26
574.352	390.43
574.554	444.29
574.757	386.56
574.959	396.63
575.162	388.88
575.364	417.75
575.566	497.77
575.769	392.76
575.971	449.14
576.173	328.05
576.376	398.76
576.578	418.72
576.78	490.6
576.982	331.34
577.185	393.53
577.387	347.81
577.589	352.65
577.791	406.71
577.993	428.79
578.196	383.46
578.398	436.16
578.6	431.12
578.802	374.55
579.004	362.92
579.206	364.47
579.408	388.11
579.61	396.25
579.812	401.09
580.014	378.42
580.216	366.8
580.418	369.12
580.62	376.87
580.822	304.22
581.024	394.5
581.226	421.24
581.428	352.85
581.63	459.41
581.832	359.24
582.034	425.31
582.236	371.45
582.438	400.51
582.64	429.76
582.841	453.98
583.043	488.47
583.245	434.99
583.447	385.4
583.649	393.53
583.85	399.73
584.052	432.28
584.254	385.98
584.456	451.27
584.657	351.68
584.859	412.71
585.061	383.85
585.262	364.66
585.464	368.15
585.666	449.91
585.867	385.2
586.069	429.38
586.27	400.12
586.472	376.87
586.674	368.35
586.875	373.19
587.077	370.48
587.278	384.23
587.48	379.58
587.681	481.69
587.883	416.01
588.084	330.76
588.285	379.58
588.487	371.06
588.688	383.26
588.89	336.96
589.091	354.78
589.292	400.12
589.494	369.9
589.695	342.96
589.896	298.98
590.098	270.12
590.299	371.45
590.5	295.5
590.702	311.97
590.903	335.6
591.104	381.33
591.305	349.16
591.507	418.14
591.708	399.73
591.909	335.21
592.11	430.73
592.311	388.11
592.512	368.35
592.714	330.18
592.915	314.87
593.116	360.01
593.317	323.4
593.518	337.35
593.719	339.48
593.92	385.4
594.121	403.8
594.322	401.28
594.523	373.19
594.724	327.08
594.925	358.66
595.126	401.28
595.327	409.23
595.528	374.74
595.729	366.02
595.929	366.02
596.13	367.38
596.331	359.43
596.532	398.38
596.733	419.5
596.934	365.44
597.135	365.44
597.335	375.71
597.536	332.89
597.737	374.74
597.938	327.27
598.138	376.1
598.339	364.47
598.54	357.3
598.74	405.74
598.941	384.81
599.142	396.25
599.342	358.66
599.543	324.75
599.744	360.21
599.944	378.23
600.145	316.81
600.345	363.89
600.546	422.59
600.746	429.18
600.947	412.71
601.147	407.29
601.348	410
601.548	339.67
601.749	363.7
601.949	335.41
602.15	347.42
602.35	368.35
602.551	401.48
602.751	323.98
602.951	322.82
603.152	286.78
603.352	356.91
603.552	384.04
603.753	381.33
603.953	399.73
604.153	354.78
604.354	368.15
604.554	324.37
604.754	357.69
604.954	329.79
605.155	371.06
605.355	336.96
605.555	385.98
605.755	430.15
605.955	360.01
606.155	403.41
606.356	371.25
606.556	369.12
606.756	386.17
606.956	299.18
607.156	404.96
607.356	325.53
607.556	377.26
607.756	368.35
607.956	413.3
608.156	338.12
608.356	348.78
608.556	404.58
608.756	366.02
608.956	317.78
609.156	365.83
609.356	302.47
609.556	307.7
609.755	362.34
609.955	341.22
610.155	361.56
610.355	382.88
610.555	324.56
610.755	362.15
610.954	316.62
611.154	363.89
611.354	382.68
611.554	338.7
611.753	327.47
611.953	315.07
612.153	377.06
612.352	371.64
612.552	300.92
612.752	273.99
612.951	335.6
613.151	372.61
613.351	323.01
613.55	310.22
613.75	371.45
613.949	357.88
614.149	362.15
614.348	345.1
614.548	302.08
614.747	312.16
614.947	299.76
615.146	257.33
615.346	357.11
615.545	358.85
615.745	342
615.944	369.51
616.144	335.8
616.343	361.56
616.542	331.53
616.742	327.27
616.941	351.1
617.14	307.12
617.34	319.91
617.539	306.73
617.738	327.85
617.938	387.14
618.137	316.81
618.336	296.66
618.535	342.77
618.734	287.36
618.934	339.28
619.133	341.22
619.332	343.93
619.531	300.34
619.73	299.76
619.929	339.48
620.128	373.58
620.328	407.48
620.527	329.02
620.726	303.44
620.925	330.76
621.124	312.16
621.323	324.56
621.522	302.86
621.721	276.9
621.92	292.59
622.119	323.2
622.318	311.19
622.517	316.03
622.715	328.63
622.914	257.33
623.113	314.48
623.312	283.87
623.511	333.47
623.71	306.73
623.909	300.34
624.107	386.17
624.306	259.65
624.505	267.98
624.704	306.35
624.902	296.66
625.101	353.23
625.3	308.28
625.499	286.78
625.697	310.03
625.896	302.08
626.095	328.05
626.293	270.5
626.492	276.32
626.69	319.33
626.889	279.42
627.088	324.17
627.286	250.16
627.485	283.1
