Data from pine_FLMT105791__17__17-19-51-080.txt Node

Date: Mon Mar 20 17:19:51 GMT 2023
User: antho
Spectrometer: FLMT10579
Trigger mode: 0
Integration Time (sec): 1.000000E-1
Scans to average: 10
Electric dark correction enabled: true
Nonlinearity correction enabled: false
Boxcar width: 0
XAxis mode: Wavelengths
Number of Pixels in Spectrum: 3648
>>>>>Begin Spectral Data<<<<<
345.248	-174.16
345.464	-174.16
345.681	-174.16
345.898	-174.74
346.114	-181.91
346.331	-42.41
346.548	8.93
346.764	-2.7
346.981	-17.61
347.197	-14.51
347.414	9.12
347.631	-3.86
347.847	61.82
348.064	-5.41
348.28	52.91
348.497	-44.35
348.713	-1.92
348.93	21.13
349.146	9.51
349.363	8.35
349.579	23.46
349.796	-7.35
350.012	-21.49
350.229	29.66
350.445	14.74
350.661	-22.26
350.878	9.12
351.094	4.08
351.311	23.46
351.527	20.94
351.743	-8.7
351.96	19
352.176	37.22
352.392	27.92
352.609	6.02
352.825	-1.92
353.041	13.58
353.257	-0.18
353.474	6.8
353.69	1.37
353.906	4.08
354.122	-11.61
354.339	42.83
354.555	3.5
354.771	-8.7
354.987	53.3
355.203	54.07
355.42	-7.54
355.636	-23.43
355.852	-8.51
356.068	25.78
356.284	-26.72
356.5	83.52
356.716	28.69
356.932	13.38
357.148	47.68
357.364	-12.38
357.58	61.05
357.796	70.35
358.012	40.12
358.228	12.03
358.444	-33.7
358.66	56.01
358.876	31.4
359.092	-13.35
359.308	23.27
359.524	19.78
359.74	-17.61
359.956	-17.03
360.172	13
360.388	54.07
360.604	-1.15
360.819	63.76
361.035	28.3
361.251	34.89
361.467	-1.92
361.683	41.09
361.898	30.24
362.114	28.5
362.33	16.1
362.546	37.99
362.762	15.52
362.977	-18.58
363.193	-32.92
363.409	42.06
363.624	-37.76
363.84	-28.66
364.056	-9.67
364.271	42.83
364.487	22.3
364.703	-30.79
364.918	-6.18
365.134	-10.25
365.35	10.67
365.565	118.78
365.781	23.65
365.996	33.53
366.212	82.55
366.427	38.96
366.643	-19.55
366.858	20.17
367.074	-12.38
367.289	49.42
367.505	112
367.72	-39.51
367.936	-6.38
368.151	54.65
368.367	37.99
368.582	21.13
368.798	-6.96
369.013	43.22
369.228	6.6
369.444	29.08
369.659	76.74
369.874	54.07
370.09	58.72
370.305	-43.77
370.52	-13.16
370.736	61.82
370.951	1.57
371.166	48.45
371.381	70.73
371.597	26.95
371.812	-25.17
372.027	-1.73
372.242	-7.93
372.458	77.32
372.673	11.83
372.888	-2.89
373.103	49.03
373.318	116.07
373.533	64.15
373.749	18.23
373.964	-46.1
374.179	80.03
374.394	-23.23
374.609	48.45
374.824	-27.11
375.039	70.73
375.254	-5.41
375.469	71.51
375.684	32.76
375.899	59.88
376.114	24.23
376.329	22.1
376.544	46.71
376.759	56.01
376.974	-2.5
377.189	28.3
377.404	17.65
377.619	25.4
377.834	-30.79
378.049	-43.58
378.264	-20.33
378.478	33.73
378.693	-19.75
378.908	50.97
379.123	-3.28
379.338	74.22
379.553	36.44
379.767	53.88
379.982	44.77
380.197	46.13
380.412	27.72
380.626	34.5
380.841	92.82
381.056	32.18
381.271	94.76
381.485	-11.03
381.7	-5.41
381.915	19.78
382.129	17.26
382.344	42.06
382.559	-5.41
382.773	68.8
382.988	-7.15
383.202	44.97
383.417	-2.7
383.632	130.41
383.846	37.22
384.061	25.59
384.275	25.59
384.49	44.97
384.704	50.97
384.919	26.17
385.133	24.04
385.348	39.54
385.562	-8.9
385.777	61.24
385.991	24.82
386.206	2.53
386.42	3.31
386.634	63.57
386.849	49.81
387.063	26.37
387.277	-4.83
387.492	-9.09
387.706	14.93
387.92	2.92
388.135	39.93
388.349	29.66
388.563	39.35
388.778	57.95
388.992	70.93
389.206	36.63
389.42	105.41
389.635	19.39
389.849	52.52
390.063	73.64
390.277	46.9
390.491	84.3
390.706	68.41
390.92	54.65
391.134	34.12
391.348	68.02
391.562	7.96
391.776	12.42
391.99	12.03
392.205	28.88
392.419	-0.76
392.633	5.25
392.847	108.51
393.061	-5.6
393.275	68.02
393.489	24.82
393.703	50.39
393.917	76.93
394.131	8.15
394.345	54.46
394.559	46.71
394.773	24.62
394.986	50.97
395.2	30.43
395.414	68.99
395.628	-15.68
395.842	55.43
396.056	35.47
396.27	-29.05
396.484	38.57
396.697	51.17
396.911	71.12
397.125	87.01
397.339	72.09
397.553	63.18
397.766	79.84
397.98	71.9
398.194	71.9
398.408	27.92
398.621	43.22
398.835	48.26
399.049	79.45
399.262	94.76
399.476	85.26
399.69	69.57
399.903	130.8
400.117	53.1
400.331	77.71
400.544	37.22
400.758	166.25
400.971	74.03
401.185	92.24
401.398	17.07
401.612	123.24
401.826	54.85
402.039	88.56
402.253	42.64
402.466	72.48
402.68	57.75
402.893	55.43
403.106	80.03
403.32	52.91
403.533	83.52
403.747	71.9
403.96	56.78
404.174	76.35
404.387	-5.8
404.6	81.97
404.814	99.02
405.027	72.28
405.24	70.15
405.454	43.22
405.667	96.89
405.88	2.53
406.094	73.06
406.307	99.02
406.52	89.53
406.733	46.9
406.947	8.35
407.16	122.85
407.373	130.21
407.586	47.1
407.799	13.19
408.012	78.68
408.226	79.07
408.439	123.82
408.652	10.28
408.865	88.75
409.078	96.11
409.291	75.77
409.504	22.88
409.717	70.93
409.93	116.26
410.143	56.4
410.357	35.28
410.57	24.43
410.783	39.73
410.996	87.59
411.209	52.33
411.421	92.24
411.634	77.32
411.847	30.05
412.06	49.81
412.273	91.27
412.486	91.66
412.699	155.98
412.912	89.14
413.125	113.94
413.338	82.16
413.55	93.98
413.763	92.63
413.976	110.65
414.189	53.68
414.402	78.48
414.615	134.48
414.827	53.88
415.04	103.28
415.253	93.98
415.466	136.22
415.678	147.07
415.891	71.12
416.104	70.54
416.316	76.35
416.529	38.77
416.742	90.69
416.954	126.15
417.167	87.01
417.38	54.46
417.592	144.16
417.805	85.65
418.017	48.84
418.23	127.89
418.442	85.85
418.655	81.39
418.868	106
419.08	119.36
419.293	141.45
419.505	113.16
419.718	115.3
419.93	139.13
420.142	82.16
420.355	132.73
420.567	163.35
420.78	128.28
420.992	85.65
421.205	178.26
421.417	63.76
421.629	74.42
421.842	60.08
422.054	45.74
422.266	130.99
422.479	132.54
422.691	105.41
422.903	136.22
423.115	82.94
423.328	130.02
423.54	125.95
423.752	88.36
423.964	102.51
424.177	133.31
424.389	90.69
424.601	224.57
424.813	117.23
425.025	120.33
425.238	122.46
425.45	107.93
425.662	84.88
425.874	389.84
426.086	139.51
426.298	145.52
426.51	136.61
426.722	118.2
426.934	118.78
427.146	123.43
427.358	64.15
427.57	160.05
427.782	123.05
427.994	123.24
428.206	99.6
428.418	72.28
428.63	143.58
428.842	155.6
429.054	127.7
429.266	157.53
429.478	100.38
429.69	150.36
429.902	110.84
430.114	134.28
430.325	145.71
430.537	105.22
430.749	115.1
430.961	63.95
431.173	104.64
431.384	107.55
431.596	33.92
431.808	118.01
432.02	148.04
432.231	169.35
432.443	189.69
432.655	145.71
432.867	111.03
433.078	164.9
433.29	219.34
433.502	180.2
433.713	208.68
433.925	167.22
434.136	210.81
434.348	105.41
434.56	102.31
434.771	247.63
434.983	129.63
435.194	135.64
435.406	168.58
435.617	212.94
435.829	232.13
436.04	202.29
436.252	226.31
436.463	241.04
436.675	199.19
436.886	206.55
437.098	225.34
437.309	259.83
437.521	196.86
437.732	206.36
437.943	195.51
438.155	208.49
438.366	138.16
438.578	253.83
438.789	205.58
439	203.84
439.211	189.89
439.423	211.01
439.634	231.35
439.845	238.13
440.057	236.97
440.268	243.17
440.479	199.77
440.69	207.91
440.902	203.45
441.113	223.79
441.324	207.13
441.535	240.46
441.746	266.61
441.957	185.63
442.168	193.57
442.38	239.29
442.591	243.56
442.802	212.17
443.013	242.39
443.224	228.25
443.435	227.48
443.646	227.86
443.857	243.56
444.068	212.56
444.279	217.59
444.49	306.14
444.701	238.52
444.912	358.84
445.123	276.11
445.334	280.76
445.545	257.31
445.756	243.56
445.967	238.52
446.178	285.99
446.388	274.36
446.599	283.27
446.81	262.16
447.021	223.6
447.232	284.44
447.443	310.59
447.653	217.21
447.864	311.56
448.075	295.67
448.286	296.84
448.496	287.92
448.707	316.99
448.918	268.94
449.129	341.79
449.339	256.34
449.55	315.44
449.761	259.25
449.971	323.77
450.182	259.44
450.393	309.04
450.603	300.91
450.814	319.12
451.024	285.21
451.235	320.47
451.446	363.87
451.656	357.87
451.867	295.48
452.077	316.02
452.288	382.09
452.498	361.35
452.709	295.67
452.919	336.75
453.13	307.88
453.34	330.74
453.55	226.51
453.761	356.7
453.971	313.5
454.182	331.91
454.392	314.47
454.602	397
454.813	352.25
455.023	377.44
455.233	291.22
455.444	341.21
455.654	269.71
455.864	320.09
456.075	299.16
456.285	296.84
456.495	292.19
456.705	346.05
456.916	365.42
457.126	349.73
457.336	348.37
457.546	273.39
457.756	337.72
457.967	382.09
458.177	337.91
458.387	365.23
458.597	291.8
458.807	328.03
459.017	331.91
459.227	329.77
459.437	334.04
459.647	404.56
459.857	358.64
460.068	306.14
460.278	385.77
460.488	346.82
460.698	413.86
460.908	336.56
461.117	312.14
461.327	300.13
461.537	376.47
461.747	337.52
461.957	341.98
462.167	467.33
462.377	383.44
462.587	372.2
462.797	396.81
463.007	390.42
463.216	391.58
463.426	419.67
463.636	405.14
463.846	304.39
464.056	361.94
464.265	420.06
464.475	358.45
464.685	388.48
464.895	392.16
465.104	342.95
465.314	411.73
465.524	381.5
465.733	379.37
465.943	450.67
466.153	451.64
466.362	426.65
466.572	393.52
466.782	351.86
466.991	418.51
467.201	486.9
467.41	335.39
467.62	408.24
467.829	398.55
468.039	409.02
468.249	383.05
468.458	416.38
468.668	435.75
468.877	437.5
469.086	480.9
469.296	461.52
469.505	409.02
469.715	483.03
469.924	433.82
470.134	460.75
470.343	460.17
470.552	425.49
470.762	433.43
470.971	411.34
471.18	425.49
471.39	438.66
471.599	414.83
471.808	460.17
472.018	385.57
472.227	485.55
472.436	498.92
472.645	457.07
472.855	440.79
473.064	503.18
473.273	474.5
473.482	504.92
473.691	545.61
473.901	508.41
474.11	482.06
474.319	560.72
474.528	492.52
474.737	537.86
474.946	509.77
475.155	512.28
475.364	544.45
475.573	514.42
475.783	515.19
475.992	528.56
476.201	569.44
476.41	513.83
476.619	489.23
476.828	521.2
477.037	493.88
477.245	512.67
477.454	559.95
477.663	555.49
477.872	531.46
478.081	614.58
478.29	495.62
478.499	650.23
478.708	588.04
478.917	617.1
479.125	551.23
479.334	588.04
479.543	565.76
479.752	586.49
479.961	585.33
480.169	616.71
480.378	560.33
480.587	716.3
480.796	624.85
481.004	583.97
481.213	621.17
481.422	617.68
481.63	613.81
481.839	647.91
482.048	679.88
482.256	633.38
482.465	633.18
482.674	678.33
482.882	672.71
483.091	716.49
483.299	656.82
483.508	702.93
483.716	655.66
483.925	645
484.134	655.66
484.342	692.66
484.551	702.74
484.759	702.16
484.967	699.44
485.176	730.64
485.384	705.84
485.593	707
485.801	715.72
486.01	692.47
486.218	641.51
486.426	586.49
486.635	626.59
486.843	629.31
487.051	647.71
487.26	622.53
487.468	687.43
487.676	681.43
487.885	654.11
488.093	703.9
488.301	725.99
488.509	714.17
488.717	754.66
488.926	728.89
489.134	705.84
489.342	745.36
489.55	683.56
489.758	743.04
489.967	736.26
490.175	834.68
490.383	741.29
490.591	850.18
490.799	736.84
491.007	791.67
491.215	775.59
491.423	761.83
491.631	781.79
491.839	793.6
492.047	806.59
492.255	758.92
492.463	732.77
492.671	723.08
492.879	820.92
493.087	796.9
493.295	825.19
493.503	822.28
493.711	844.75
493.919	859.67
494.127	849.99
494.334	858.51
494.542	791.67
494.75	817.44
494.958	824.99
495.166	879.43
495.374	857.15
495.581	877.5
495.789	866.07
495.997	916.05
496.205	856.38
496.412	850.57
496.62	851.34
496.828	898.42
497.035	851.92
497.243	895.9
497.451	863.16
497.658	860.64
497.866	862.97
498.074	942.4
498.281	843.98
498.489	940.27
498.696	883.89
498.904	845.14
499.112	869.94
499.319	930.58
499.527	867.62
499.734	940.47
499.942	834.68
500.149	877.69
500.357	887.38
500.564	856.57
500.771	884.28
500.979	843.79
501.186	862
501.394	865.68
501.601	887.77
501.808	910.43
502.016	892.61
502.223	851.34
502.43	932.91
502.638	876.92
502.845	901.13
503.052	966.43
503.26	895.32
503.467	976.31
503.674	926.9
503.881	928.07
504.089	991.42
504.296	959.26
504.503	853.28
504.71	930.2
504.917	857.74
505.125	955.96
505.332	945.31
505.539	941.24
505.746	1017
505.953	1011.96
506.16	1012.93
506.367	1013.51
506.574	1040.44
506.781	1023.2
506.988	967.01
507.195	990.45
507.402	978.83
507.609	1029.98
507.816	959.84
508.023	957.32
508.23	960.42
508.437	966.81
508.644	1030.56
508.851	1033.46
509.058	1043.34
509.265	1004.98
509.472	1069.69
509.679	1106.51
509.885	1053.03
510.092	1027.26
510.299	1032.3
510.506	1029.78
510.713	1073.18
510.92	1028.23
511.126	1093.14
511.333	1090.43
511.54	1061.17
511.746	1104.18
511.953	1110.58
512.16	1113.29
512.367	1073.96
512.573	1066.4
512.78	1079.96
512.987	1050.32
513.193	1073.57
513.4	981.15
513.606	1050.9
513.813	1099.53
514.02	1081.9
514.226	1151.46
514.433	1149.91
514.639	1035.4
514.846	1084.23
515.052	1072.41
515.259	1088.49
515.465	1103.21
515.672	1083.84
515.878	1183.42
516.085	1110.77
516.291	1138.47
516.497	1115.42
516.704	1079.96
516.91	1049.93
517.117	1014.28
517.323	993.75
517.529	1034.05
517.736	1009.44
517.942	1011.57
518.148	1023.78
518.354	1066.59
518.561	1045.67
518.767	1063.3
518.973	1131.31
519.179	1118.52
519.386	1120.26
519.592	1078.61
519.798	1075.12
520.004	1197.96
520.21	1127.63
520.417	1167.34
520.623	1207.84
520.829	1255.3
521.035	1238.06
521.241	1226.82
521.447	1214.04
521.653	1317.69
521.859	1220.62
522.065	1241.35
522.271	1333.38
522.477	1282.82
522.683	1310.52
522.889	1251.62
523.095	1258.4
523.301	1260.73
523.507	1261.12
523.713	1289.4
523.919	1213.46
524.125	1308
524.331	1302.19
524.537	1338.03
524.742	1347.72
524.948	1352.95
525.154	1366.71
525.36	1444.6
525.566	1353.15
525.772	1363.8
525.977	1325.25
526.183	1396.55
526.389	1399.84
526.595	1320.98
526.8	1302.39
527.006	1245.42
527.212	1199.7
527.417	1216.94
527.623	1226.24
527.829	1306.26
528.034	1303.93
528.24	1314.98
528.446	1310.33
528.651	1392.86
528.857	1376.98
529.062	1420.96
529.268	1406.62
529.473	1425.03
529.679	1423.09
529.884	1510.66
530.09	1452.73
530.295	1481.79
530.501	1474.24
530.706	1437.43
530.912	1427.74
531.117	1428.9
531.323	1483.15
531.528	1496.13
531.733	1494.78
531.939	1415.15
532.144	1510.86
532.35	1428.13
532.555	1507.76
532.76	1441.3
532.966	1451.96
533.171	1444.98
533.376	1403.33
533.581	1427.55
533.787	1462.03
533.992	1501.36
534.197	1470.95
534.402	1465.91
534.607	1438.4
534.813	1523.64
535.018	1435.1
535.223	1465.13
535.428	1479.86
535.633	1532.75
535.838	1561.43
536.043	1508.53
536.249	1616.45
536.454	1543.79
536.659	1589.71
536.864	1517.64
537.069	1536.63
537.274	1529.46
537.479	1525.58
537.684	1555.23
537.889	1503.69
538.094	1639.31
538.299	1531.59
538.504	1583.9
538.708	1573.05
538.913	1588.16
539.118	1540.69
539.323	1580.41
539.528	1511.24
539.733	1525.39
539.938	1543.99
540.142	1597.85
540.347	1525.19
540.552	1497.1
540.757	1536.63
540.962	1522.09
541.166	1477.15
541.371	1494.78
541.576	1532.56
541.781	1440.72
541.985	1574.79
542.19	1553.68
542.395	1565.11
542.599	1625.56
542.804	1571.89
543.008	1625.75
543.213	1516.09
543.418	1517.25
543.622	1596.88
543.827	1502.53
544.031	1620.52
544.236	1642.61
544.44	1583.9
544.645	1679.8
544.849	1597.66
545.054	1628.07
545.258	1701.31
545.463	1637.37
545.667	1543.02
545.872	1639.31
546.076	1600.17
546.281	1589.71
546.485	1587.97
546.689	1643.38
546.894	1654.81
547.098	1635.82
547.302	1602.5
547.507	1614.32
547.711	1619.36
547.915	1690.85
548.119	1575.57
548.324	1607.92
548.528	1674.77
548.732	1612.57
548.936	1654.81
549.141	1698.6
549.345	1621.49
549.549	1638.92
549.753	1630.98
549.957	1708.87
550.161	1750.33
550.366	1667.6
550.57	1631.56
550.774	1660.82
550.978	1668.57
551.182	1657.72
551.386	1604.44
551.59	1611.99
551.794	1613.16
551.998	1686
552.202	1677.09
552.406	1615.67
552.61	1672.64
552.814	1700.73
553.018	1714.29
553.222	1660.04
553.426	1649
553.63	1744.13
553.833	1675.74
554.037	1600.56
554.241	1668.18
554.445	1691.43
554.649	1675.93
554.853	1644.54
555.056	1679.03
555.26	1688.52
555.464	1686.78
555.668	1664.3
555.871	1689.88
556.075	1685.81
556.279	1626.14
556.483	1604.24
556.686	1661.4
556.89	1661.2
557.094	1663.14
557.297	1597.85
557.501	1683.68
557.704	1544.57
557.908	1685.62
558.112	1597.46
558.315	1686.78
558.519	1598.62
558.722	1637.37
558.926	1597.66
559.129	1550.38
559.333	1500.98
559.536	1547.48
559.74	1531.01
559.943	1506.01
560.147	1517.64
560.35	1556.58
560.553	1553.09
560.757	1503.11
560.96	1635.44
561.164	1576.54
561.367	1642.99
561.57	1551.35
561.774	1626.52
561.977	1570.72
562.18	1540.89
562.384	1620.91
562.587	1549.99
562.79	1565.3
562.993	1579.44
563.197	1593.97
563.4	1616.84
563.603	1629.43
563.806	1683.87
564.009	1540.31
564.212	1556.78
564.416	1491.68
564.619	1539.34
564.822	1495.16
565.025	1592.62
565.228	1506.21
565.431	1541.47
565.634	1447.7
565.837	1488.58
566.04	1483.54
566.243	1488.58
566.446	1413.21
566.649	1536.63
566.852	1430.26
567.055	1475.6
567.258	1521.9
567.461	1576.92
567.664	1558.13
567.867	1466.49
568.07	1500.2
568.273	1514.15
568.475	1519.77
568.678	1452.73
568.881	1461.84
569.084	1485.67
569.287	1356.05
569.489	1404.68
569.692	1517.44
569.895	1449.25
570.098	1406.04
570.3	1374.85
570.503	1367.1
570.706	1374.07
570.909	1385.31
571.111	1352.95
571.314	1343.07
571.516	1389.77
571.719	1400.23
571.922	1372.91
572.124	1368.84
572.327	1395.58
572.529	1320.79
572.732	1324.86
572.935	1407.01
573.137	1465.52
573.34	1356.05
573.542	1421.54
573.745	1358.18
573.947	1392.28
574.15	1363.42
574.352	1333
574.554	1388.02
574.757	1322.34
574.959	1309.94
575.162	1292.31
575.364	1305.29
575.566	1420.18
575.769	1293.67
575.971	1345.78
576.173	1243.29
576.376	1333.19
576.578	1375.82
576.78	1426.96
576.982	1223.72
577.185	1359.35
577.387	1305.87
577.589	1272.94
577.791	1364.77
577.993	1334.55
578.196	1292.5
578.398	1294.64
578.6	1363.42
578.802	1254.53
579.004	1265.77
579.206	1271.97
579.408	1308.58
579.61	1247.94
579.812	1320.79
580.014	1305.87
580.216	1289.6
580.418	1315.56
580.62	1272.16
580.822	1231.67
581.024	1294.25
581.226	1306.07
581.428	1272.94
581.63	1383.76
581.832	1258.99
582.034	1366.9
582.236	1282.04
582.438	1313.43
582.64	1346.95
582.841	1379.3
583.043	1356.63
583.245	1351.02
583.447	1359.35
583.649	1340.94
583.85	1302.77
584.052	1344.43
584.254	1284.75
584.456	1388.22
584.657	1281.46
584.859	1327.18
585.061	1295.6
585.262	1271.77
585.464	1235.93
585.666	1330.28
585.867	1253.56
586.069	1335.9
586.27	1300.06
586.472	1307.81
586.674	1261.7
586.875	1266.35
587.077	1272.16
587.278	1311.49
587.48	1243.1
587.681	1388.8
587.883	1295.41
588.084	1199.7
588.285	1273.32
588.487	1243.1
588.688	1258.79
588.89	1183.04
589.091	1145.84
589.292	1187.3
589.494	1159.98
589.695	1142.93
589.896	1067.56
590.098	1068.73
590.299	1147.58
590.5	1093.72
590.702	1123.56
590.903	1142.93
591.104	1219.07
591.305	1178.58
591.507	1229.73
591.708	1191.95
591.909	1179.74
592.11	1225.47
592.311	1188.46
592.512	1164.24
592.714	1112.71
592.915	1150.29
593.116	1124.91
593.317	1175.09
593.518	1150.68
593.719	1151.26
593.92	1190.01
594.121	1231.86
594.322	1213.46
594.523	1180.32
594.724	1131.31
594.925	1141.57
595.126	1155.91
595.327	1166.96
595.528	1183.04
595.729	1170.83
595.929	1161.92
596.13	1177.81
596.331	1189.04
596.532	1166.57
596.733	1227.02
596.934	1203.77
597.135	1206.87
597.335	1172.19
597.536	1152.04
597.737	1172.38
597.938	1150.29
598.138	1215.01
598.339	1128.01
598.54	1183.81
598.74	1153.2
598.941	1178.19
599.142	1227.6
599.342	1195.82
599.543	1176.26
599.744	1168.12
599.944	1149.52
600.145	1142.74
600.345	1186.72
600.546	1239.61
600.746	1203.77
600.947	1234.77
601.147	1189.04
601.348	1244.45
601.548	1130.53
601.749	1191.17
601.949	1126.85
602.15	1184.78
602.35	1169.86
602.551	1195.44
602.751	1137.7
602.951	1174.51
603.152	1105.93
603.352	1196.21
603.552	1162.31
603.753	1198.73
603.953	1177.81
604.153	1183.04
604.354	1143.9
604.554	1153.97
604.754	1166.96
604.954	1138.47
605.155	1191.17
605.355	1184.39
605.555	1203.19
605.755	1230.5
605.955	1186.72
606.155	1198.54
606.356	1155.14
606.556	1192.14
606.756	1220.43
606.956	1131.69
607.156	1213.26
607.356	1107.67
607.556	1211.13
607.756	1164.24
607.956	1222.17
608.156	1171.02
608.356	1162.89
608.556	1191.17
608.756	1164.44
608.956	1116.78
609.156	1170.25
609.356	1121.62
609.556	1077.44
609.755	1177.81
609.955	1120.46
610.155	1125.69
610.355	1152.62
610.555	1124.72
610.755	1104.38
610.954	1053.03
611.154	1116
611.354	1146.22
611.554	1106.7
611.753	1084.81
611.953	1076.28
612.153	1145.84
612.352	1134.99
612.552	1067.95
612.752	1016.41
612.951	1088.68
613.151	1105.34
613.351	1081.32
613.55	1071.63
613.75	1078.41
613.949	1080.74
614.149	1070.28
614.348	1086.36
614.548	1049.74
614.747	990.65
614.947	1051.87
615.146	1001.11
615.346	1074.73
615.545	1093.91
615.745	1069.69
615.944	1090.81
616.144	1046.25
616.343	1081.13
616.542	1060.01
616.742	1043.15
616.941	1050.13
617.14	965.85
617.34	1078.8
617.539	991.61
617.738	1006.34
617.938	1062.33
618.137	1037.34
618.336	1014.48
