Data from pine_FLMT105791__175__17-23-29-073.txt Node

Date: Mon Mar 20 17:23:29 GMT 2023
User: antho
Spectrometer: FLMT10579
Trigger mode: 0
Integration Time (sec): 1.000000E-1
Scans to average: 10
Electric dark correction enabled: true
Nonlinearity correction enabled: false
Boxcar width: 0
XAxis mode: Wavelengths
Number of Pixels in Spectrum: 3648
>>>>>Begin Spectral Data<<<<<
345.248	-155.79
345.464	-155.79
345.681	-155.79
345.898	-183.69
346.114	-158.5
346.331	-44.77
346.548	44.35
346.764	-2.73
346.981	-11.06
347.197	10.45
347.414	14.32
347.631	-25.78
347.847	51.33
348.064	6.38
348.28	4.05
348.497	-42.45
348.713	-4.08
348.93	41.64
349.146	26.33
349.363	-6.8
349.579	1.34
349.796	-0.02
350.012	-18.62
350.229	41.45
350.445	18.39
350.661	-29.27
350.878	15.29
351.094	-5.83
351.311	17.81
351.527	31.18
351.743	-16.48
351.96	52.68
352.176	31.56
352.392	12.19
352.609	19.75
352.825	5.41
353.041	25.36
353.257	16.06
353.474	-10.28
353.69	14.13
353.906	-6.6
354.122	-0.21
354.339	59.08
354.555	-10.28
354.771	-9.7
354.987	53.85
355.203	44.16
355.42	-25.2
355.636	-17.84
355.852	-22.88
356.068	4.63
356.284	-46.71
356.5	82.91
356.716	19.94
356.932	-19.58
357.148	30.01
357.364	17.23
357.58	40.67
357.796	50.94
358.012	21.3
358.228	45.71
358.444	-56.4
358.66	51.52
358.876	11.41
359.092	-22.3
359.308	13.55
359.524	25.95
359.74	-5.83
359.956	-13.97
360.172	1.34
360.388	36.6
360.604	5.22
360.819	81.55
361.035	35.63
361.251	26.14
361.467	-15.9
361.683	47.06
361.898	6.57
362.114	21.1
362.33	21.68
362.546	47.45
362.762	15.48
362.977	-2.92
363.193	-18.03
363.409	40.09
363.624	-14.35
363.84	-40.12
364.056	0.18
364.271	23.23
364.487	8.51
364.703	1.34
364.918	-36.83
365.134	-20.17
365.35	12
365.565	70.31
365.781	6.18
365.996	18.39
366.212	93.37
366.427	-3.89
366.643	1.15
366.858	-25.98
367.074	-35.28
367.289	52.3
367.505	103.44
367.72	-28.3
367.936	8.7
368.151	31.37
368.367	26.72
368.582	14.9
368.798	10.25
369.013	78.06
369.228	8.12
369.444	9.09
369.659	40.86
369.874	30.01
370.09	66.63
370.305	-60.08
370.52	-13.77
370.736	41.06
370.951	15.87
371.166	64.11
371.381	57.33
371.597	19.55
371.812	-51.36
372.027	-34.7
372.242	-3.7
372.458	77.29
372.673	21.3
372.888	11.41
373.103	24.2
373.318	98.6
373.533	39.51
373.749	40.67
373.964	-15.13
374.179	54.81
374.394	-7.57
374.609	59.27
374.824	-21.33
375.039	38.73
375.254	-5.25
375.469	55.98
375.684	0.18
375.899	43.19
376.114	37.38
376.329	3.86
376.544	59.85
376.759	32.15
376.974	-19.58
377.189	-5.63
377.404	-5.05
377.619	37.38
377.834	-33.53
378.049	-22.88
378.264	-29.47
378.478	-4.28
378.693	7.35
378.908	20.91
379.123	12.77
379.338	47.45
379.553	40.28
379.767	44.55
379.982	31.76
380.197	24.78
380.412	2.7
380.626	42.8
380.841	90.46
381.056	24.78
381.271	47.06
381.485	-13.58
381.7	-8.93
381.915	13.74
382.129	19.16
382.344	26.53
382.559	25.36
382.773	52.1
382.988	-44.19
383.202	29.05
383.417	-12.22
383.632	111
383.846	25.75
384.061	22.85
384.275	25.75
384.49	32.73
384.704	7.35
384.919	22.65
385.133	-14.93
385.348	35.25
385.562	-22.1
385.777	42.03
385.991	9.09
386.206	-17.07
386.42	-4.47
386.634	41.64
386.849	19.36
387.063	24.01
387.277	-51.75
387.492	6.38
387.706	-25.59
387.92	-33.34
388.135	19.55
388.349	25.56
388.563	22.07
388.778	13.16
388.992	23.81
389.206	50.16
389.42	92.4
389.635	12.96
389.849	32.73
390.063	26.91
390.277	36.02
390.491	84.65
390.706	48.42
390.92	33.11
391.134	28.46
391.348	45.51
391.562	-24.62
391.776	0.76
391.99	-17.26
392.205	34.47
392.419	10.64
392.633	-10.09
392.847	52.88
393.061	-21.52
393.275	57.14
393.489	4.25
393.703	17.03
393.917	75.16
394.131	-2.34
394.345	39.7
394.559	53.26
394.773	-2.53
394.986	24.01
395.2	18
395.414	34.47
395.628	-15.13
395.842	30.4
396.056	-4.67
396.27	-16.48
396.484	29.82
396.697	52.88
396.911	54.62
397.125	69.73
397.339	48.03
397.553	37.18
397.766	54.43
397.98	58.5
398.194	31.37
398.408	27.11
398.621	45.32
398.835	53.26
399.049	25.17
399.262	80.97
399.476	82.91
399.69	46.48
399.903	89.69
400.117	24.4
400.331	29.24
400.544	3.67
400.758	111.78
400.971	51.91
401.185	73.61
401.398	-1.57
401.612	51.13
401.826	64.89
402.039	54.62
402.253	8.31
402.466	28.27
402.68	25.36
402.893	38.93
403.106	3.08
403.32	50.55
403.533	79.03
403.747	37.76
403.96	50.16
404.174	44.55
404.387	3.67
404.6	41.45
404.814	63.73
405.027	49.58
405.24	63.34
405.454	22.46
405.667	68.57
405.88	-33.34
406.094	46.87
406.307	89.3
406.52	41.06
406.733	27.69
406.947	-18.62
407.16	113.91
407.373	104.22
407.586	-9.9
407.799	-19.2
408.012	75.35
408.226	38.73
408.439	91.43
408.652	-23.07
408.865	20.33
409.078	74.19
409.291	50.75
409.504	22.85
409.717	53.46
409.93	62.37
410.143	51.91
410.357	-0.21
410.57	15.48
410.783	23.81
410.996	43
411.209	54.43
411.421	93.37
411.634	39.51
411.847	12.96
412.06	49.58
412.273	51.13
412.486	31.76
412.699	146.84
412.912	26.72
413.125	86.01
413.338	31.18
413.55	76.32
413.763	30.98
413.976	61.21
414.189	29.43
414.402	29.82
414.615	84.26
414.827	11.8
415.04	67.02
415.253	52.49
415.466	100.34
415.678	110.42
415.891	47.65
416.104	30.98
416.316	49
416.529	12.19
416.742	58.3
416.954	92.79
417.167	30.21
417.38	54.43
417.592	98.21
417.805	44.74
418.017	-21.33
418.23	55.98
418.442	22.26
418.655	17.81
418.868	46.68
419.08	76.9
419.293	96.86
419.505	87.17
419.718	74.96
419.93	102.86
420.142	40.67
420.355	109.06
420.567	81.36
420.78	74.58
420.992	53.07
421.205	130.57
421.417	7.73
421.629	51.33
421.842	14.71
422.054	-6.41
422.266	94.34
422.479	94.53
422.691	48.81
422.903	81.94
423.115	31.18
423.328	64.5
423.54	73.8
423.752	54.43
423.964	38.93
424.177	51.91
424.389	63.34
424.601	174.36
424.813	77.29
425.025	94.73
425.238	100.34
425.45	64.31
425.662	45.71
425.874	388.45
426.086	43.38
426.298	51.52
426.51	59.85
426.722	91.82
426.934	47.45
427.146	89.69
427.358	39.9
427.57	109.45
427.782	94.15
427.994	82.13
428.206	52.88
428.418	38.93
428.63	57.91
428.842	91.05
429.054	63.34
429.266	99.57
429.478	56.95
429.69	73.41
429.902	19.55
430.114	106.16
430.325	89.11
430.537	64.31
430.749	60.63
430.961	4.05
431.173	73.8
431.384	117.98
431.596	-9.7
431.808	56.36
432.02	89.69
432.231	89.3
432.443	88.72
432.655	108.29
432.867	63.34
433.078	102.67
433.29	145.29
433.502	93.37
433.713	121.46
433.925	86.01
434.136	130.76
434.348	70.31
434.56	27.88
434.771	163.31
434.983	67.02
435.194	51.52
435.406	81.75
435.617	109.26
435.829	150.72
436.04	130.38
436.252	90.66
436.463	138.9
436.675	137.74
436.886	110.81
437.098	130.18
437.309	188.5
437.521	95.11
437.732	99.38
437.943	146.07
438.155	119.33
438.366	76.32
438.578	157.11
438.789	92.21
439	125.73
439.211	117.98
439.423	147.04
439.634	152.27
439.845	155.18
440.057	114.68
440.268	158.28
440.479	117.2
440.69	143.74
440.902	149.75
441.113	120.88
441.324	129.6
441.535	177.65
441.746	212.33
441.957	74.19
442.168	115.84
442.38	163.89
442.591	167.77
442.802	134.06
443.013	125.14
443.224	130.96
443.435	142
443.646	153.43
443.857	138.13
444.068	116.23
444.279	107.71
444.49	195.09
444.701	144.91
444.912	257.28
445.123	177.65
445.334	185.01
445.545	126.11
445.756	171.64
445.967	109.26
446.178	163.31
446.388	200.51
446.599	187.72
446.81	192.96
447.021	146.26
447.232	206.91
447.443	230.74
447.653	140.84
447.864	200.9
448.075	176.29
448.286	181.53
448.496	185.21
448.707	210.78
448.918	146.65
449.129	260.57
449.339	144.71
449.55	192.37
449.761	186.56
449.971	216.21
450.182	170.09
450.393	210.01
450.603	173.58
450.814	243.14
451.024	191.79
451.235	230.93
451.446	268.91
451.656	267.16
451.867	179.01
452.077	225.12
452.288	234.22
452.498	253.79
452.709	180.17
452.919	222.21
453.13	213.49
453.34	238.1
453.55	142
453.761	235.97
453.971	207.68
454.182	239.26
454.392	216.79
454.602	246.82
454.813	220.08
455.023	252.24
455.233	176.88
455.444	252.24
455.654	164.09
455.864	214.85
456.075	189.08
456.285	187.53
456.495	202.45
456.705	222.99
456.916	268.71
457.126	263.29
457.336	240.81
457.546	184.24
457.756	206.32
457.967	268.13
458.177	191.6
458.387	242.75
458.597	205.36
458.807	209.04
459.017	207.68
459.227	229.19
459.437	232.09
459.647	270.45
459.857	280.14
460.068	205.94
460.278	298.35
460.488	279.56
460.698	290.8
460.908	241.78
461.117	210.2
461.327	258.44
461.537	213.49
461.747	261.74
461.957	243.14
462.167	345.44
462.377	292.74
462.587	259.99
462.797	309.79
463.007	255.15
463.216	262.51
463.426	310.95
463.636	298.74
463.846	231.32
464.056	259.61
464.265	284.99
464.475	216.98
464.685	273.94
464.895	306.3
465.104	271.23
465.314	275.3
465.524	252.44
465.733	230.74
465.943	382.44
466.153	336.91
466.362	310.95
466.572	284.4
466.782	274.33
466.991	272.2
467.201	318.89
467.41	232.29
467.62	277.24
467.829	287.89
468.039	323.35
468.249	306.88
468.458	284.02
468.668	327.8
468.877	325.09
469.086	348.15
469.296	324.51
469.505	267.55
469.715	381.86
469.924	305.33
470.134	335.75
470.343	363.07
470.552	289.83
470.762	321.41
470.971	269.1
471.18	300.87
471.39	313.08
471.599	278.4
471.808	326.06
472.018	284.02
472.227	379.15
472.436	372.17
472.645	323.35
472.855	273.17
473.064	367.91
473.273	340.98
473.482	355.9
473.691	402.59
473.901	383.99
474.11	340.2
474.319	427.97
474.528	369.27
474.737	395.81
474.946	377.79
475.155	373.33
475.364	411.7
475.573	348.73
475.783	377.4
475.992	402.98
476.201	395.81
476.41	368.68
476.619	328
476.828	402.01
477.037	360.55
477.245	376.24
477.454	430.49
477.663	372.56
477.872	376.24
478.081	472.73
478.29	366.17
478.499	472.15
478.708	413.44
478.917	489.39
479.125	436.11
479.334	415.38
479.543	401.43
479.752	432.04
479.961	406.27
480.169	481.45
480.378	413.83
480.587	552.94
480.796	442.5
481.004	458
481.213	465.75
481.422	463.62
481.63	461.3
481.839	492.1
482.048	515.74
482.256	473.31
482.465	520.97
482.674	511.28
482.882	503.34
483.091	573.86
483.299	499.27
483.508	526.01
483.716	500.82
483.925	498.11
484.134	480.28
484.342	499.85
484.551	504.5
484.759	524.65
484.967	529.5
485.176	545.19
485.384	543.25
485.593	560.88
485.801	541.51
486.01	503.34
486.218	516.13
486.426	406.66
486.635	460.71
486.843	458.2
487.051	485.51
487.26	472.73
487.468	484.35
487.676	559.91
487.885	475.63
488.093	539.38
488.301	532.01
488.509	522.13
488.717	565.92
488.926	561.08
489.134	521.55
489.342	571.15
489.55	502.95
489.758	552.74
489.967	540.34
490.175	677.52
490.383	563.01
490.591	672.09
490.799	562.63
491.007	614.36
491.215	597.31
491.423	582.39
491.631	582.39
491.839	571.34
492.047	652.52
492.255	570.18
492.463	536.28
492.671	572.51
492.879	630.24
493.087	602.73
493.295	624.24
493.503	647.68
493.711	633.15
493.919	670.35
494.127	648.84
494.334	663.76
494.542	594.4
494.75	633.92
494.958	655.62
495.166	715.88
495.374	651.36
495.581	661.05
495.789	654.66
495.997	706.97
496.205	650.59
496.412	659.31
496.62	667.06
496.828	691.66
497.035	671.12
497.243	695.92
497.451	668.99
497.658	674.22
497.866	703.67
498.074	747.27
498.281	634.31
498.489	743
498.696	701.16
498.904	676.74
499.112	666.28
499.319	738.94
499.527	662.41
499.734	737.77
499.942	652.72
500.149	672.87
500.357	701.93
500.564	649.04
500.771	708.9
500.979	655.43
501.186	690.31
501.394	684.11
501.601	705.22
501.808	716.46
502.016	703.29
502.223	678.29
502.43	658.92
502.638	685.27
502.845	666.67
503.052	766.45
503.26	683.33
503.467	760.25
503.674	712
503.881	726.54
504.089	798.42
504.296	724.6
504.503	663.76
504.71	717.43
504.917	680.04
505.125	748.62
505.332	734.87
505.539	771.68
505.746	798.61
505.953	775.55
506.16	774.59
506.367	790.47
506.574	832.71
506.781	820.31
506.988	752.5
507.195	777.69
507.402	761.99
507.609	811.78
507.816	724.02
508.023	766.45
508.23	771.49
508.437	761.41
508.644	777.3
508.851	839.68
509.058	818.18
509.265	811.2
509.472	782.53
509.679	904.59
509.885	764.7
510.092	816.05
510.299	782.53
510.506	812.75
510.713	830.77
510.92	803.45
511.126	827.67
511.333	879.79
511.54	825.15
511.746	901.1
511.953	903.62
512.16	908.08
512.367	853.63
512.573	898.97
512.78	864.68
512.987	842.4
513.193	827.09
513.4	793.77
513.606	827.28
513.813	847.82
514.02	850.92
514.226	923.96
514.433	891.8
514.639	845.11
514.846	836
515.052	835.23
515.259	849.18
515.465	900.71
515.672	873.78
515.878	956.71
516.085	866.23
516.291	907.11
516.497	844.72
516.704	855.38
516.91	797.83
517.117	805.78
517.323	726.34
517.529	817.02
517.736	779.24
517.942	787.57
518.148	789.5
518.354	865.65
518.561	819.92
518.767	831.16
518.973	863.32
519.179	916.99
519.386	862.35
519.592	818.57
519.798	845.11
520.004	918.93
520.21	897.81
520.417	947.8
520.623	959.23
520.829	952.64
521.035	950.31
521.241	981.7
521.447	953.03
521.653	1034.21
521.859	953.03
522.065	947.02
522.271	1045.83
522.477	1008.83
522.683	1035.56
522.889	996.04
523.095	987.32
523.301	1017.16
523.507	944.11
523.713	1014.44
523.919	954
524.125	1021.03
524.331	1011.34
524.537	1100.27
524.742	1053.19
524.948	1073.92
525.154	1054.55
525.36	1189.98
525.566	1063.66
525.772	1109.19
525.977	1055.33
526.183	1060.94
526.389	1087.1
526.595	1034.98
526.8	1010.76
527.006	978.6
527.212	977.63
527.417	941.21
527.623	960.97
527.829	1031.49
528.034	1041.38
528.24	1054.16
528.446	1009.21
528.651	1096.59
528.857	1092.91
529.062	1182.23
529.268	1099.5
529.473	1144.25
529.679	1090.97
529.884	1172.74
530.09	1139.22
530.295	1194.82
530.501	1150.07
530.706	1156.07
530.912	1111.9
531.117	1145.42
531.323	1124.88
531.528	1197.54
531.733	1182.81
531.939	1146.58
532.144	1184.17
532.35	1182.42
532.555	1205.48
532.76	1179.13
532.966	1180.68
533.171	1188.43
533.376	1115.77
533.581	1100.47
533.787	1129.92
533.992	1189.98
534.197	1207.8
534.402	1155.3
534.607	1162.27
534.813	1245.58
535.018	1147.74
535.223	1157.43
535.428	1217.3
535.633	1255.27
535.838	1272.13
536.043	1266.51
536.249	1301.19
536.454	1223.11
536.659	1255.47
536.864	1228.54
537.069	1199.86
537.274	1228.54
537.479	1234.93
537.684	1232.8
537.889	1182.23
538.094	1327.35
538.299	1214.2
538.504	1268.64
538.708	1202.19
538.913	1236.48
539.118	1229.12
539.323	1251.59
539.528	1199.67
539.733	1196.18
539.938	1199.86
540.142	1275.23
540.347	1209.94
540.552	1199.09
540.757	1217.1
540.962	1213.62
541.166	1159.75
541.371	1172.15
541.576	1211.87
541.781	1111.32
541.985	1217.49
542.19	1261.47
542.395	1270.19
542.599	1262.44
542.804	1255.66
543.008	1304.1
543.213	1224.66
543.418	1220.59
543.622	1248.68
543.827	1191.53
544.031	1292.47
544.236	1312.62
544.44	1255.47
544.645	1372.68
544.849	1275.23
545.054	1324.25
545.258	1395.93
545.463	1336.45
545.667	1242.68
545.872	1306.03
546.076	1327.93
546.281	1305.26
546.485	1258.37
546.689	1333.55
546.894	1301.38
547.098	1317.27
547.302	1276.97
547.507	1293.44
547.711	1302.35
547.915	1342.65
548.119	1266.9
548.324	1286.08
548.528	1366.68
548.732	1318.05
548.936	1357.96
549.141	1331.61
549.345	1245.78
549.549	1284.14
549.753	1299.83
549.957	1387.41
550.161	1379.46
550.366	1305.26
550.57	1278.91
550.774	1331.41
550.978	1302.16
551.182	1342.65
551.386	1336.65
551.59	1325.02
551.794	1278.13
551.998	1350.4
552.202	1309.72
552.406	1276.39
552.61	1331.41
552.814	1298.67
553.018	1371.13
553.222	1287.43
553.426	1291.12
553.63	1400.39
553.833	1287.63
554.037	1264.38
554.241	1302.93
554.445	1327.93
554.649	1331.22
554.853	1308.36
555.056	1353.7
555.26	1360.28
555.464	1349.82
555.668	1337.23
555.871	1362.03
556.075	1387.02
556.279	1325.21
556.483	1312.43
556.686	1313.59
556.89	1321.34
557.094	1349.05
557.297	1223.3
557.501	1316.69
557.704	1242.29
557.908	1317.08
558.112	1246.94
558.315	1325.21
558.519	1287.43
558.722	1276
558.926	1251.4
559.129	1212.45
559.333	1192.89
559.536	1250.04
559.74	1243.65
559.943	1186.69
560.147	1205.48
560.35	1228.73
560.553	1220.4
560.757	1154.14
560.96	1294.8
561.164	1221.75
561.367	1340.52
561.57	1266.7
561.774	1248.68
561.977	1237.06
562.18	1201.99
562.384	1338.97
562.587	1245.97
562.79	1205.29
562.993	1188.43
563.197	1253.72
563.4	1315.53
563.603	1313.98
563.806	1352.34
564.009	1213.62
564.212	1259.73
564.416	1215.75
564.619	1235.51
564.822	1156.65
565.025	1276.97
565.228	1232.22
565.431	1233.77
565.634	1174.09
565.837	1195.21
566.04	1170.99
566.243	1190.37
566.446	1094.07
566.649	1226.6
566.852	1148.71
567.055	1191.72
567.258	1188.82
567.461	1267.09
567.664	1241.32
567.867	1130.69
568.07	1156.85
568.273	1180.29
568.475	1214.97
568.678	1129.72
568.881	1161.69
569.084	1195.4
569.287	1052.23
569.489	1101.44
569.692	1168.28
569.895	1153.75
570.098	1089.62
570.3	1115.97
570.503	1051.84
570.706	1080.12
570.909	1082.45
571.111	1042.73
571.314	1035.37
571.516	1099.11
571.719	1064.04
571.922	1072.57
572.124	1065.4
572.327	1085.94
572.529	1042.73
572.732	1036.14
572.935	1111.71
573.137	1133.6
573.34	1040.6
573.542	1113.64
573.745	1124.3
573.947	1123.33
574.15	1059.97
574.352	1064.62
574.554	1109.38
574.757	1051.84
574.959	1063.07
575.162	1077.99
575.364	1026.46
575.566	1139.61
575.769	1026.84
575.971	1054.94
576.173	950.31
576.376	1048.35
576.578	1101.44
576.78	1075.28
576.982	941.79
577.185	1032.27
577.387	991.97
577.589	986.16
577.791	1026.46
577.993	1027.81
578.196	1045.25
578.398	1054.74
578.6	1082.26
578.802	982.09
579.004	1005.73
579.206	1031.69
579.408	1014.64
579.61	1013.48
579.812	1085.36
580.014	990.03
580.216	980.93
580.418	995.84
580.62	984.99
580.822	943.53
581.024	975.89
581.226	1074.51
581.428	1026.26
581.63	1066.76
581.832	982.09
582.034	1073.73
582.236	1005.73
582.438	1052.42
582.64	1067.92
582.841	1066.17
583.043	1120.23
583.245	1053
583.447	1065.21
583.649	1052.03
583.85	1027.43
584.052	1096.01
584.254	1019.09
584.456	1073.73
584.657	984.03
584.859	1051.84
585.061	1025.1
585.262	1042.73
585.464	988.48
585.666	1104.15
585.867	1001.27
586.069	1052.03
586.27	1027.23
586.472	1028.39
586.674	1019.09
586.875	1009.41
587.077	959.23
587.278	1021.23
587.48	1018.51
587.681	1098.53
587.883	1054.36
588.084	942.95
588.285	961.16
588.487	990.42
588.688	958.84
588.89	950.51
589.091	885.21
589.292	938.5
589.494	886.57
589.695	884.25
589.896	797.06
590.098	819.34
590.299	901.1
590.5	849.95
590.702	861.77
590.903	904.59
591.104	970.85
591.305	918.93
591.507	1000.49
591.708	935.4
591.909	905.56
592.11	999.72
592.311	968.33
592.512	946.44
592.714	912.53
592.915	890.25
593.116	923.58
593.317	905.17
593.518	903.23
593.719	940.43
593.92	955.74
594.121	979.57
594.322	923.96
594.523	922.61
594.724	883.86
594.925	941.21
595.126	924.55
595.327	939.46
595.528	941.01
595.729	952.45
595.929	903.62
596.13	933.07
596.331	925.71
596.532	912.34
596.733	964.65
596.934	955.55
597.135	934.81
597.335	947.8
597.536	908.08
597.737	950.31
597.938	911.37
598.138	951.67
598.339	943.53
598.54	917.38
598.74	904.78
598.941	944.31
599.142	1027.43
599.342	939.66
599.543	935.2
599.744	934.23
599.944	897.81
600.145	937.53
600.345	960.2
600.546	1005.53
600.746	1010.38
600.947	1032.27
601.147	963.68
601.348	960.39
601.548	936.36
601.749	941.6
601.949	912.53
602.15	910.01
602.35	901.49
602.551	973.76
602.751	879.98
602.951	923
603.152	850.73
603.352	975.11
603.552	920.09
603.753	966.98
603.953	967.95
604.153	948.96
604.354	954.58
604.554	925.13
604.754	923.58
604.954	901.88
605.155	922.03
605.355	909.63
605.555	957.29
605.755	975.89
605.955	918.73
606.155	919.7
606.356	921.83
606.556	973.18
606.756	949.73
606.956	886.38
607.156	997.78
607.356	898.97
607.556	934.23
607.756	939.27
607.956	970.27
608.156	935.98
608.356	897.42
608.556	945.86
608.756	930.16
608.956	893.55
609.156	919.51
609.356	863.52
609.556	907.69
609.755	929.39
609.955	907.3
610.155	911.18
610.355	918.35
610.555	898
610.755	898.58
610.954	816.43
611.154	927.65
611.354	927.65
611.554	855.18
611.753	877.08
611.953	853.25
612.153	945.28
612.352	899.55
612.552	889.67
612.752	819.73
612.951	877.08
613.151	892.96
613.351	846.08
613.55	909.63
613.75	887.15
613.949	888.9
614.149	911.37
614.348	872.82
614.548	856.93
614.747	812.95
614.947	869.72
615.146	785.44
615.346	902.65
615.545	905.56
615.745	864.68
615.944	857.32
616.144	880.76
616.343	863.9
616.542	845.88
616.742	868.17
616.941	837.17
617.14	813.92
617.34	851.12
617.539	840.46
617.738	798.03
617.938	912.34
618.137	844.14
618.336	817.6
618.535	867.58
618.734	850.73
618.934	847.43
619.133	869.72
619.332	852.67
619.531	801.71
619.73	846.27
619.929	888.51
620.128	871.85
620.328	887.54
620.527	836
620.726	815.08
620.925	821.86
621.124	857.9
621.323	851.5
621.522	811.01
621.721	799.19
621.92	763.35
622.119	851.89
622.318	780.98
622.517	823.41
