Data from pine_FLMT105791__66__17-21-06-077.txt Node

Date: Mon Mar 20 17:21:06 GMT 2023
User: antho
Spectrometer: FLMT10579
Trigger mode: 0
Integration Time (sec): 1.000000E-1
Scans to average: 10
Electric dark correction enabled: true
Nonlinearity correction enabled: false
Boxcar width: 0
XAxis mode: Wavelengths
Number of Pixels in Spectrum: 3648
>>>>>Begin Spectral Data<<<<<
345.248	-153.21
345.464	-153.21
345.681	-153.21
345.898	-154.56
346.114	-162.89
346.331	-40.44
346.548	23.3
346.764	0.05
346.981	-9.64
347.197	-15.84
347.414	17.1
347.631	1.21
347.847	68.44
348.064	-1.89
348.28	15.55
348.497	-39.86
348.713	-17.97
348.93	25.43
349.146	8.77
349.363	-30.76
349.579	0.82
349.796	8.96
350.012	10.9
350.229	12.84
350.445	-4.6
350.661	-40.64
350.878	-20.49
351.094	36.09
351.311	1.99
351.527	-5.18
351.743	-17.2
351.96	18.65
352.176	32.6
352.392	10.9
352.609	24.65
352.825	-13.9
353.041	5.86
353.257	9.54
353.474	-8.67
353.69	-12.93
353.906	16.9
354.122	-37.15
354.339	63.4
354.555	-1.7
354.771	-12.55
354.987	54.3
355.203	60.89
355.42	-11.96
355.636	-11.19
355.852	-15.06
356.068	4.31
356.284	-35.79
356.5	38.22
356.716	11.29
356.932	11.09
357.148	44.42
357.364	-10.61
357.58	27.95
357.796	48.87
358.012	42.29
358.228	21.17
358.444	-36.18
358.66	51.97
358.876	47.52
359.092	-14.68
359.308	-6.54
359.524	-1.7
359.74	-35.79
359.956	-24.56
360.172	-5.18
360.388	43.06
360.604	-5.76
360.819	54.69
361.035	9.54
361.251	45.19
361.467	-28.63
361.683	65.92
361.898	24.07
362.114	32.4
362.33	18.07
362.546	23.1
362.762	13.8
362.977	8.38
363.193	-27.66
363.409	27.17
363.624	-42.58
363.84	-16.03
364.056	-11.19
364.271	22.14
364.487	13.42
364.703	-2.08
364.918	-22.81
365.134	-6.35
365.35	-4.02
365.565	98.28
365.781	4.12
365.996	21.94
366.212	47.32
366.427	24.27
366.643	-19.91
366.858	-12.16
367.074	-24.94
367.289	52.94
367.505	109.71
367.72	-32.11
367.936	-20.49
368.151	40.54
368.367	34.34
368.582	10.51
368.798	-1.5
369.013	78.32
369.228	1.99
369.444	8.38
369.659	27.56
369.874	32.21
370.09	38.41
370.305	-64.47
370.52	-12.74
370.736	36.86
370.951	20.78
371.166	67.08
371.381	52.36
371.597	33.57
371.812	-6.15
372.027	-16.61
372.242	3.73
372.458	92.85
372.673	-5.18
372.888	28.14
373.103	48.68
373.318	81.81
373.533	30.85
373.749	37.83
373.964	-36.76
374.179	26.59
374.394	-10.8
374.609	63.6
374.824	7.6
375.039	68.44
375.254	-7.7
375.469	58.95
375.684	28.34
375.899	49.65
376.114	7.02
376.329	20.59
376.544	55.46
376.759	54.69
376.974	-2.28
377.189	-11.77
377.404	6.05
377.619	62.82
377.834	-32.5
378.049	-28.43
378.264	-24.75
378.478	-7.7
378.693	14.39
378.908	34.15
379.123	-6.35
379.338	55.07
379.553	13.61
379.767	20
379.982	34.15
380.197	31.63
380.412	2.95
380.626	-1.5
380.841	88.78
381.056	33.37
381.271	53.14
381.485	-29.01
381.7	-33.66
381.915	10.32
382.129	-12.93
382.344	24.46
382.559	5.28
382.773	65.54
382.988	-43.74
383.202	12.45
383.417	-13.32
383.632	110.48
383.846	-17.2
384.061	33.76
384.275	13.61
384.49	36.86
384.704	16.71
384.919	26.98
385.133	-1.11
385.348	41.51
385.562	-11.77
385.777	23.49
385.991	18.26
386.206	-4.99
386.42	-4.6
386.634	63.79
386.849	24.27
387.063	12.06
387.277	-33.28
387.492	-14.48
387.706	-28.63
387.92	-9.06
388.135	45.58
388.349	29.11
388.563	13.42
388.778	47.13
388.992	44.61
389.206	34.34
389.42	119.01
389.635	21.17
389.849	52.36
390.063	72.51
390.277	38.41
390.491	91.3
390.706	24.85
390.92	16.52
391.134	-16.42
391.348	43.64
391.562	-30.37
391.776	6.25
391.99	-25.72
392.205	15.94
392.419	-15.45
392.633	-27.66
392.847	50.04
393.061	-12.35
393.275	70.18
393.489	30.27
393.703	51.59
393.917	50.42
394.131	-3.25
394.345	41.32
394.559	76.97
394.773	1.6
394.986	30.47
395.2	18.07
395.414	47.32
395.628	2.57
395.842	15.16
396.056	20.78
396.27	-36.38
396.484	28.14
396.697	39.57
396.911	47.13
397.125	61.66
397.339	47.32
397.553	48.49
397.766	105.83
397.98	69.22
398.194	70.18
398.408	-2.28
398.621	20.59
398.835	50.23
399.049	13.03
399.262	71.54
399.476	63.4
399.69	47.32
399.903	108.55
400.117	12.84
400.331	40.74
400.544	4.12
400.758	133.54
400.971	57.98
401.185	104.09
401.398	-7.12
401.612	74.64
401.826	56.04
402.039	61.27
402.253	24.65
402.466	69.8
402.68	38.6
402.893	45
403.106	34.15
403.32	24.27
403.533	41.7
403.747	51
403.96	38.22
404.174	54.69
404.387	0.24
404.6	32.79
404.814	66.89
405.027	23.3
405.24	42.09
405.454	1.4
405.667	46.74
405.88	-30.18
406.094	47.32
406.307	78.32
406.52	45.39
406.733	5.67
406.947	-12.74
407.16	78.13
407.373	58.75
407.586	22.33
407.799	0.05
408.012	71.35
408.226	38.6
408.439	89.37
408.652	1.99
408.865	30.85
409.078	58.56
409.291	71.35
409.504	6.83
409.717	45.58
409.93	39.19
410.143	52.36
410.357	11.48
410.57	6.44
410.783	29.3
410.996	35.12
411.209	25.24
411.421	78.13
411.634	31.05
411.847	18.07
412.06	39.96
412.273	21.94
412.486	20
412.699	102.15
412.912	24.07
413.125	41.7
413.338	34.54
413.55	65.54
413.763	42.48
413.976	33.37
414.189	19.42
414.402	23.1
414.615	94.98
414.827	25.82
415.04	58.56
415.253	73.48
415.466	83.55
415.678	93.82
415.891	38.6
416.104	77.55
416.316	42.48
416.529	30.85
416.742	56.43
416.954	99.83
417.167	29.11
417.38	26.2
417.592	83.94
417.805	12.06
418.017	12.25
418.23	69.02
418.442	39.96
418.655	27.17
418.868	59.72
419.08	90.33
419.293	89.17
419.505	49.84
419.718	45.19
419.93	94.79
420.142	27.95
420.355	113.2
420.567	72.12
420.78	90.14
420.992	68.05
421.205	104.67
421.417	11.87
421.629	29.89
421.842	34.73
422.054	25.24
422.266	80.26
422.479	97.31
422.691	47.32
422.903	69.99
423.115	48.1
423.328	60.69
423.54	76.38
423.752	48.87
423.964	49.26
424.177	56.82
424.389	58.37
424.601	157.56
424.813	37.83
425.025	97.5
425.238	102.93
425.45	71.93
425.662	75.03
425.874	358.09
426.086	61.66
426.298	82.39
426.51	85.1
426.722	73.87
426.934	45.77
427.146	64.95
427.358	37.25
427.57	104.87
427.782	50.42
427.994	75.42
428.206	56.82
428.418	-7.31
428.63	82
428.842	127.73
429.054	64.95
429.266	113.78
429.478	50.04
429.69	81.81
429.902	-0.34
430.114	112.03
430.325	87.23
430.537	44.8
430.749	82
430.961	32.6
431.173	68.44
431.384	83.17
431.596	-8.67
431.808	47.32
432.02	71.15
432.231	118.04
432.443	119.59
432.655	102.15
432.867	48.1
433.078	103.12
433.29	143.42
433.502	148.85
433.713	166.48
433.925	104.28
434.136	137.42
434.348	74.64
434.56	52.55
434.771	219.76
434.983	43.06
435.194	77.74
435.406	79.68
435.617	104.67
435.829	176.75
436.04	119.01
436.252	131.6
436.463	154.46
436.675	169.77
436.886	107
437.098	132.38
437.309	163.18
437.521	119.98
437.732	96.73
437.943	120.37
438.155	109.32
438.366	61.85
438.578	194.18
438.789	140.52
439	173.26
439.211	110.29
439.423	171.13
439.634	128.89
439.845	158.92
440.057	142.07
440.268	182.95
440.479	109.52
440.69	162.6
440.902	131.22
441.113	119.98
441.324	118.62
441.535	158.73
441.746	198.83
441.957	115.52
442.168	132.77
442.38	152.72
442.591	171.51
442.802	118.82
443.013	129.08
443.224	171.51
443.435	147.88
443.646	180.04
443.857	162.21
444.068	145.75
444.279	111.84
444.49	229.25
444.701	158.53
444.912	264.51
445.123	216.46
445.334	198.06
445.545	190.5
445.756	156.21
445.967	164.93
446.178	160.86
446.388	223.83
446.599	203.1
446.81	194.57
447.021	200.77
447.232	216.85
447.443	241.84
447.653	145.75
447.864	203.1
448.075	163.96
448.286	199.8
448.496	175.2
448.707	207.94
448.918	202.71
449.129	286.02
449.339	161.63
449.55	220.92
449.761	180.23
449.971	242.62
450.182	185.66
450.393	222.66
450.603	190.11
450.814	240.88
451.024	229.25
451.235	238.55
451.446	248.04
451.656	244.75
451.867	204.06
452.077	253.08
452.288	263.16
452.498	279.24
452.709	204.65
452.919	242.43
453.13	171.32
453.34	268.78
453.55	196.31
453.761	244.94
453.971	221.5
454.182	246.88
454.392	265.09
454.602	318.57
454.813	255.02
455.023	252.89
455.233	201.35
455.444	225.38
455.654	167.06
455.864	223.25
456.075	223.83
456.285	208.52
456.495	229.06
456.705	245.72
456.916	298.23
457.126	287.18
457.336	250.37
457.546	163.76
457.756	230.41
457.967	270.71
458.177	231.38
458.387	278.27
458.597	241.07
458.807	240.1
459.017	218.6
459.227	240.1
459.437	228.67
459.647	262.58
459.857	265.68
460.068	235.06
460.278	291.64
460.488	274.98
460.698	328.26
460.908	276.33
461.117	192.63
461.327	226.54
461.537	274.98
461.747	258.51
461.957	279.43
462.167	367.39
462.377	325.35
462.587	269.16
462.797	290.48
463.007	275.75
463.216	314.89
463.426	293.19
463.636	310.04
463.846	235.06
464.056	259.09
464.265	306.75
464.475	244.56
464.685	267.23
464.895	281.37
465.104	274.39
465.314	316.83
465.524	271.49
465.733	256.38
465.943	344.34
466.153	354.8
466.362	330.97
466.572	317.6
466.782	281.18
466.991	293.58
467.201	350.15
467.41	234.29
467.62	326.32
467.829	275.56
468.039	341.04
468.249	296.29
468.458	317.41
468.668	336.78
468.877	334.26
469.086	374.95
469.296	337.17
469.505	311.01
469.715	365.84
469.924	329.03
470.134	369.52
470.343	367.59
470.552	330.97
470.762	318.57
470.971	282.73
471.18	334.07
471.39	325.54
471.599	302.1
471.808	368.56
472.018	302.29
472.227	348.99
472.436	359.45
472.645	307.91
472.855	324.19
473.064	387.54
473.273	337.56
473.482	349.18
473.691	378.05
473.901	376.31
474.11	342.98
474.319	460.2
474.528	355.38
474.737	423.97
474.946	402.85
475.155	389.87
475.364	421.84
475.573	424.35
475.783	415.06
475.992	395.68
476.201	459.23
476.41	378.24
476.619	341.43
476.828	401.49
477.037	375.72
477.245	386.57
477.454	429
477.663	425.71
477.872	398.59
478.081	450.9
478.29	388.51
478.499	506.89
478.708	417.77
478.917	475.89
479.125	404.59
479.334	431.72
479.543	422.03
479.752	450.32
479.961	464.46
480.169	470.66
480.378	415.83
480.587	558.23
480.796	473.18
481.004	468.53
481.213	470.47
481.422	467.37
481.63	469.89
481.839	491.97
482.048	522.39
482.256	487.13
482.465	507.67
482.674	516.77
482.882	516.97
483.091	576.83
483.299	516.38
483.508	531.11
483.716	493.72
483.925	521.62
484.134	503.4
484.342	499.92
484.551	538.08
484.759	537.31
484.967	561.53
485.176	568.12
485.384	548.16
485.593	564.24
485.801	548.93
486.01	543.32
486.218	493.14
486.426	439.27
486.635	462.33
486.843	475.31
487.051	495.85
487.26	490.04
487.468	534.4
487.676	531.11
487.885	501.08
488.093	509.02
488.301	545.83
488.509	551.65
488.717	556.68
488.926	550.29
489.134	559.78
489.342	543.51
489.55	534.79
489.758	558.23
489.967	556.88
490.175	670.8
490.383	550.1
490.591	616.36
490.799	535.76
491.007	629.73
491.215	622.36
491.423	571.99
491.631	573.54
491.839	617.91
492.047	644.65
492.255	537.12
492.463	540.8
492.671	548.93
492.879	623.91
493.087	604.73
493.295	640.19
493.503	648.13
493.711	638.25
493.919	680.49
494.127	683.59
494.334	667.31
494.542	606.28
494.75	636.31
494.958	593.3
495.166	702.77
495.374	665.96
495.581	675.26
495.789	683.78
495.997	727.57
496.205	626.24
496.412	658.98
496.62	671.38
496.828	661.89
497.035	677.39
497.243	709.94
497.451	670.8
497.658	667.7
497.866	683.39
498.074	748.11
498.281	659.37
498.489	725.05
498.696	657.43
498.904	678.55
499.112	673.32
499.319	758.38
499.527	681.65
499.734	743.65
499.942	658.6
500.149	680.68
500.357	694.83
500.564	632.44
500.771	706.26
500.979	645.23
501.186	669.25
501.394	716.53
501.601	681.84
501.808	728.73
502.016	686.69
502.223	686.3
502.43	680.68
502.638	704.32
502.845	670.22
503.052	766.32
503.26	687.46
503.467	784.53
503.674	729.89
503.881	714.39
504.089	766.51
504.296	774.07
504.503	683.78
504.71	735.71
504.917	665.38
505.125	752.76
505.332	734.35
505.539	747.53
505.746	831.61
505.953	794.99
506.16	798.09
506.367	801.58
506.574	850.99
506.781	842.66
506.988	770.39
507.195	781.82
507.402	787.24
507.609	788.99
507.816	762.83
508.023	764.19
508.23	760.31
508.437	732.61
508.644	808.17
508.851	844.01
509.058	827.74
509.265	791.51
509.472	836.46
509.679	900.97
509.885	810.88
510.092	850.21
510.299	820.18
510.506	817.47
510.713	842.66
510.92	802.36
511.126	828.71
511.333	876.95
511.54	840.33
511.746	901.94
511.953	924.22
512.16	906.4
512.367	842.85
512.573	845.76
512.78	872.3
512.987	868.04
513.193	867.45
513.4	770.77
513.606	861.64
513.813	854.47
514.02	862.42
514.226	943.21
514.433	948.63
514.639	842.27
514.846	866.68
515.052	847.11
515.259	887.6
515.465	921.12
515.672	908.72
515.878	986.42
516.085	907.17
516.291	950.18
516.497	902.14
516.704	887.99
516.91	849.24
517.117	822.12
517.323	746.36
517.529	835.49
517.736	826.19
517.942	856.8
518.148	808.56
518.354	894.97
518.561	878.69
518.767	875.59
518.973	935.85
519.179	951.73
519.386	868.62
519.592	892.06
519.798	902.91
520.004	980.22
520.21	919.96
520.417	980.8
520.623	1006.37
520.829	990.87
521.035	999.2
521.241	987.58
521.447	1029.43
521.653	1111.58
521.859	979.83
522.065	1047.64
522.271	1110.8
522.477	1071.86
522.683	1105.76
522.889	1052.29
523.095	1038.34
523.301	1042.41
523.507	1011.99
523.713	1070.11
523.919	1016.83
524.125	1088.13
524.331	1077.28
524.537	1137.73
524.742	1114.87
524.948	1135.79
525.154	1148.78
525.36	1220.27
525.566	1113.13
525.772	1173.96
525.977	1087.94
526.183	1133.86
526.389	1193.53
526.595	1109.45
526.8	1097.82
527.006	1083.68
527.212	1033.5
527.417	1034.66
527.623	987.19
527.829	1096.46
528.034	1129.98
528.24	1085.03
528.446	1093.95
528.651	1168.15
528.857	1180.94
529.062	1229.96
529.268	1176.87
529.473	1193.53
529.679	1161.18
529.884	1247.01
530.09	1182.1
530.295	1245.46
530.501	1250.69
530.706	1233.25
530.912	1183.26
531.117	1209.61
531.323	1198.18
531.528	1262.7
531.733	1260.18
531.939	1221.04
532.144	1248.56
532.35	1227.44
532.555	1243.91
532.76	1269.29
532.966	1226.27
533.171	1220.46
533.376	1188.3
533.581	1184.23
533.787	1215.04
533.992	1265.02
534.197	1307.26
534.402	1220.27
534.607	1266.96
534.813	1337.1
535.018	1246.04
535.223	1296.6
535.428	1289.44
535.633	1339.23
535.838	1314.62
536.043	1324.12
536.249	1375.85
536.454	1305.52
536.659	1377.4
536.864	1313.07
537.069	1292.73
537.274	1306.1
537.479	1306.29
537.684	1339.81
537.889	1301.25
538.094	1406.85
538.299	1311.33
538.504	1358.99
538.708	1345.24
538.913	1352.6
539.118	1302.42
539.323	1337.29
539.528	1311.52
539.733	1314.62
539.938	1334.58
540.142	1356.86
540.347	1316.17
540.552	1293.7
540.757	1320.05
540.962	1289.05
541.166	1236.74
541.371	1243.91
541.576	1318.69
541.781	1247.39
541.985	1294.09
542.19	1314.24
542.395	1371.2
542.599	1385.53
542.804	1359.19
543.008	1410.53
543.213	1327.99
543.418	1306.49
543.622	1362.87
543.827	1303.39
544.031	1403.94
544.236	1384.76
544.44	1360.93
544.645	1464.78
544.849	1367.52
545.054	1396
545.258	1440.75
545.463	1443.47
545.667	1331.48
545.872	1440.17
546.076	1405.68
546.281	1400.26
546.485	1375.07
546.689	1388.63
546.894	1403.75
547.098	1391.54
547.302	1377.98
547.507	1429.71
547.711	1413.82
547.915	1405.88
548.119	1353.95
548.324	1375.46
548.528	1461.1
548.732	1371.97
548.936	1438.23
549.141	1462.07
549.345	1380.5
549.549	1440.56
549.753	1433.39
549.957	1483.38
550.161	1467.3
550.366	1437.07
550.57	1402.2
550.774	1414.6
550.978	1394.64
551.182	1420.99
551.386	1369.84
551.59	1404.52
551.794	1369.26
551.998	1455.87
552.202	1400.65
552.406	1367.9
552.61	1452.96
552.814	1423.32
553.018	1485.9
553.222	1428.16
553.426	1460.9
553.63	1533.95
553.833	1428.35
554.037	1400.84
554.241	1452.77
554.445	1430.48
554.649	1458.58
554.853	1402.2
555.056	1457.22
555.26	1462.45
555.464	1470.4
555.668	1465.36
555.871	1460.32
556.075	1449.47
556.279	1392.12
556.483	1420.6
556.686	1407.82
556.89	1429.71
557.094	1421.96
557.297	1398.71
557.501	1441.33
557.704	1354.34
557.908	1443.08
558.112	1387.28
558.315	1470.4
558.519	1396.97
558.722	1410.33
558.926	1353.37
559.129	1341.94
559.333	1291.37
559.536	1289.24
559.74	1321.4
559.943	1314.82
560.147	1331.09
560.35	1348.72
560.553	1337.68
560.757	1283.04
560.96	1392.12
561.164	1325.86
561.367	1438.43
561.57	1333.22
561.774	1355.31
561.977	1309.39
562.18	1365
562.384	1431.65
562.587	1368.87
562.79	1321.99
562.993	1319.47
563.197	1389.02
563.4	1431.45
563.603	1379.14
563.806	1429.52
564.009	1325.47
564.212	1358.22
564.416	1292.54
564.619	1346.98
564.822	1306.87
565.025	1365.58
565.228	1308.23
565.431	1348.92
565.634	1249.52
565.837	1317.53
566.04	1275.68
566.243	1283.04
566.446	1231.51
566.649	1320.63
566.852	1245.84
567.055	1252.62
567.258	1324.89
567.461	1345.62
567.664	1355.12
567.867	1224.72
568.07	1290.4
568.273	1301.45
568.475	1325.09
568.678	1284.98
568.881	1266.57
569.084	1236.74
569.287	1162.73
569.489	1199.54
569.692	1280.33
569.895	1264.25
570.098	1192.56
570.3	1160.98
570.503	1141.99
570.706	1157.69
570.909	1162.53
571.111	1168.34
571.314	1171.83
571.516	1178.61
571.719	1197.41
571.922	1178.61
572.124	1154.59
572.327	1179.78
572.529	1136.76
572.732	1165.83
572.935	1228.02
573.137	1230.34
573.34	1172.22
573.542	1195.08
573.745	1214.65
573.947	1229.57
574.15	1173.19
574.352	1190.82
574.554	1217.56
574.757	1129.21
574.959	1156.14
575.162	1130.37
575.364	1097.05
575.566	1250.11
575.769	1135.6
575.971	1122.81
576.173	1079.61
576.376	1136.38
576.578	1169.89
576.78	1205.74
576.982	1053.26
577.185	1129.98
577.387	1065.85
577.589	1080.96
577.791	1132.5
577.993	1142.77
578.196	1094.91
578.398	1123.39
578.6	1164.66
578.802	1068.56
579.004	1088.52
579.206	1113.13
579.408	1128.24
579.61	1107.12
579.812	1135.79
580.014	1101.5
580.216	1091.43
580.418	1091.04
580.62	1099.37
580.822	1093.56
581.024	1111.58
581.226	1142.96
581.428	1076.7
581.63	1183.46
581.832	1099.76
582.034	1134.83
582.236	1123.59
582.438	1155.75
582.64	1141.61
582.841	1204.57
583.043	1195.66
583.245	1144.32
583.447	1166.02
583.649	1134.63
583.85	1125.72
584.052	1150.52
584.254	1052.68
584.456	1138.12
584.657	1075.15
584.859	1161.56
585.061	1158.46
585.262	1103.83
585.464	1061.4
585.666	1153.43
585.867	1102.66
586.069	1163.11
586.27	1144.51
586.472	1089.68
586.674	1069.34
586.875	1092.2
587.077	1070.11
587.278	1124.56
587.48	1085.81
587.681	1233.06
587.883	1150.33
588.084	1026.33
588.285	1059.46
588.487	1063.33
588.688	1077.86
588.89	1000.95
589.091	992.23
589.292	993.58
589.494	983.7
589.695	962.97
589.896	880.24
590.098	888.57
590.299	954.06
590.5	934.1
590.702	913.76
590.903	1011.99
591.104	1042.02
591.305	1012.57
591.507	1055.78
591.708	1022.07
591.909	1013.93
592.11	1063.53
592.311	1052.29
592.512	995.33
592.714	943.98
592.915	961.23
593.116	998.62
593.317	1004.43
593.518	1015.87
593.719	993
593.92	1011.99
594.121	1042.6
594.322	998.43
594.523	976.34
594.724	971.11
594.925	992.81
595.126	1027.68
595.327	1020.52
595.528	1005.79
595.729	1000.56
595.929	979.63
596.13	1032.53
596.331	1020.13
596.532	1040.47
596.733	1059.46
596.934	1042.02
597.135	1028.65
597.335	1002.5
597.536	974.02
597.737	1015.67
597.938	988.16
598.138	1037.56
598.339	982.93
598.54	998.23
598.74	1008.31
598.941	1005.6
599.142	1063.53
599.342	1018.19
599.543	994.55
599.744	999.59
599.944	975.18
600.145	999.78
600.345	1045.31
600.546	1070.31
600.746	1031.36
600.947	1102.86
601.147	1019.74
601.348	1065.85
601.548	994.94
601.749	1004.05
601.949	986.42
602.15	975.57
602.35	977.7
602.551	1006.37
602.751	972.47
602.951	1018.38
603.152	927.52
603.352	1025.94
603.552	984.87
603.753	1042.6
603.953	1031.75
604.153	1025.75
604.354	982.73
604.554	1008.12
604.754	1002.88
604.954	950.77
605.155	970.92
605.355	967.43
605.555	1023.23
605.755	1066.43
605.955	1002.3
606.155	1036.79
606.356	983.51
606.556	1038.15
606.756	1018.77
606.956	937.98
607.156	1047.45
607.356	931.2
607.556	1013.15
607.756	1003.66
607.956	1013.93
608.156	1000.56
608.356	954.06
608.556	1037.18
608.756	998.43
608.956	972.66
609.156	964.91
609.356	944.18
609.556	943.98
609.755	974.02
609.955	954.06
610.155	975.18
610.355	975.37
610.555	943.21
610.755	953.67
610.954	889.15
611.154	962.39
611.354	966.65
611.554	932.36
611.753	923.06
611.953	910.66
612.153	964.52
612.352	966.27
612.552	931.39
612.752	887.8
612.951	935.07
613.151	958.9
613.351	887.8
613.55	939.53
613.75	924.61
613.949	907.95
614.149	944.57
614.348	927.52
614.548	862.8
614.747	859.7
614.947	859.9
615.146	851.95
615.346	963.55
615.545	910.47
615.745	922.48
615.944	932.17
616.144	912.4
616.343	930.23
616.542	854.09
616.742	884.12
616.941	848.86
617.14	802.16
617.34	847.69
617.539	857.19
617.738	818.44
617.938	935.27
618.137	876.75
618.336	794.02
618.535	900.2
618.734	862.03
618.934	869.39
619.133	863
619.332	895.74
619.531	869.97
619.73	913.37
619.929	924.8
620.128	912.6
620.328	950.18
620.527	872.69
620.726	864.16
620.925	898.45
621.124	885.47
621.323	925.39
