Data from pine_FLMT105791__160__17-23-14-074.txt Node

Date: Mon Mar 20 17:23:14 GMT 2023
User: antho
Spectrometer: FLMT10579
Trigger mode: 0
Integration Time (sec): 1.000000E-1
Scans to average: 10
Electric dark correction enabled: true
Nonlinearity correction enabled: false
Boxcar width: 0
XAxis mode: Wavelengths
Number of Pixels in Spectrum: 3648
>>>>>Begin Spectral Data<<<<<
345.248	-147.1
345.464	-147.1
345.681	-147.1
345.898	-159.11
346.114	-144.78
346.331	-34.92
346.548	45.48
346.764	-25.04
346.981	-16.71
347.197	-15.16
347.414	28.43
347.631	-15.74
347.847	44.9
348.064	-4.7
348.28	21.46
348.497	-30.85
348.713	2.86
348.93	33.47
349.146	22.23
349.363	-8.38
349.579	9.45
349.796	19.13
350.012	-7.6
350.229	21.46
350.445	23.59
350.661	-24.07
350.878	5.38
351.094	24.94
351.311	13.9
351.527	32.11
351.743	11.19
351.96	29.59
352.176	29.4
352.392	19.13
352.609	47.23
352.825	-7.6
353.041	15.84
353.257	-17.68
353.474	20.68
353.69	20.88
353.906	4.21
354.122	-8.57
354.339	42.96
354.555	20.49
354.771	-0.44
354.987	55.75
355.203	55.17
355.42	19.91
355.636	2.47
355.852	-6.44
356.068	13.9
356.284	-34.15
356.5	51.29
356.716	31.14
356.932	3.44
357.148	35.41
357.364	-3.73
357.58	45.48
357.796	44.71
358.012	42.77
358.228	19.71
358.444	-34.92
358.66	65.24
358.876	34.24
359.092	-12.45
359.308	5.38
359.524	15.06
359.74	-1.99
359.956	-11.09
360.172	23.39
360.388	74.93
360.604	-29.5
360.819	72.99
361.035	11.38
361.251	40.25
361.467	-8.77
361.683	40.64
361.898	25.91
362.114	42.58
362.33	22.62
362.546	41.03
362.762	14.29
362.977	23.39
363.193	2.47
363.409	51.1
363.624	-18.07
363.84	-1.21
364.056	-15.35
364.271	21.85
364.487	18.16
364.703	8.67
364.918	-16.13
365.134	0.92
365.35	12.93
365.565	113.1
365.781	21.26
365.996	10.41
366.212	66.99
366.427	11.38
366.643	3.05
366.858	-3.73
367.074	-36.67
367.289	89.85
367.505	90.63
367.72	-23.3
367.936	-3.73
368.151	41.41
368.367	38.7
368.582	16.81
368.798	6.35
369.013	43.35
369.228	24.75
369.444	11.19
369.659	40.64
369.874	5.57
370.09	54.98
370.305	-49.45
370.52	-9.15
370.736	87.33
370.951	33.66
371.166	60.98
371.381	79.39
371.597	26.49
371.812	-23.69
372.027	-25.24
372.242	24.94
372.458	76.09
372.673	-2.57
372.888	8.48
373.103	34.83
373.318	87.53
373.533	51.68
373.749	28.24
373.964	-25.43
374.179	66.02
374.394	-4.7
374.609	79.19
374.824	-39.57
375.039	61.76
375.254	-10.9
375.469	45.48
375.684	18.75
375.899	75.9
376.114	-9.93
376.329	43.93
376.544	43.54
376.759	52.65
376.974	-1.99
377.189	-15.35
377.404	1.7
377.619	38.51
377.834	-16.9
378.049	-16.9
378.264	-33.18
378.478	22.43
378.693	2.47
378.908	41.8
379.123	-1.21
379.338	69.31
379.553	41.99
379.767	23.78
379.982	39.67
380.197	29.98
380.412	-10.51
380.626	24.36
380.841	74.74
381.056	19.71
381.271	88.88
381.485	-3.34
381.7	-4.89
381.915	33.66
382.129	-9.15
382.344	34.63
382.559	19.71
382.773	69.7
382.988	-29.89
383.202	22.62
383.417	-4.7
383.632	106.71
383.846	37.15
384.061	30.76
384.275	20.68
384.49	56.33
384.704	48.58
384.919	33.28
385.133	25.33
385.348	51.29
385.562	-43.64
385.777	51.1
385.991	16.42
386.206	0.92
386.42	0.92
386.634	82.68
386.849	26.69
387.063	37.15
387.277	-22.52
387.492	-4.89
387.706	-30.47
387.92	-19.23
388.135	39.86
388.349	26.11
388.563	26.49
388.778	29.59
388.992	54.98
389.206	45.09
389.42	98.76
389.635	31.14
389.849	54.59
390.063	54.2
390.277	31.92
390.491	70.67
390.706	44.13
390.92	44.13
391.134	28.82
391.348	47.23
391.562	-49.07
391.776	33.47
391.99	3.63
392.205	42.38
392.419	12.55
392.633	13.32
392.847	92.37
393.061	-3.15
393.275	109.23
393.489	23.39
393.703	49.36
393.917	67.38
394.131	22.62
394.345	41.99
394.559	59.43
394.773	20.49
394.986	60.4
395.2	13.32
395.414	61.56
395.628	-12.64
395.842	34.05
396.056	-4.7
396.27	-28.53
396.484	41.41
396.697	52.07
396.911	97.6
397.125	42.96
397.339	63.5
397.553	30.95
397.766	90.04
397.98	73.38
398.194	71.25
398.408	12.93
398.621	52.26
398.835	43.74
399.049	16.23
399.262	77.26
399.476	47.42
399.69	55.94
399.903	122.01
400.117	13.51
400.331	60.98
400.544	-8.77
400.758	135.96
400.971	60.01
401.185	21.26
401.398	-6.05
401.612	89.66
401.826	61.95
402.039	75.32
402.253	23.59
402.466	24.94
402.68	3.25
402.893	45.29
403.106	23.98
403.32	32.31
403.533	58.85
403.747	59.82
403.96	32.31
404.174	56.72
404.387	6.73
404.6	15.26
404.814	51.68
405.027	40.25
405.24	25.33
405.454	20.1
405.667	55.94
405.88	-16.13
406.094	39.28
406.307	85.39
406.52	26.69
406.733	3.44
406.947	2.08
407.16	85.01
407.373	66.6
407.586	-3.54
407.799	31.14
408.012	68.93
408.226	31.73
408.439	62.53
408.652	-1.6
408.865	53.62
409.078	84.81
409.291	33.28
409.504	-10.51
409.717	47.03
409.93	50.71
410.143	26.88
410.357	-12.64
410.57	-24.46
410.783	39.67
410.996	52.65
411.209	33.47
411.421	80.36
411.634	35.6
411.847	8.67
412.06	54.98
412.273	18.36
412.486	29.4
412.699	137.51
412.912	41.8
413.125	33.28
413.338	49.16
413.55	49.74
413.763	26.88
413.976	79.78
414.189	25.33
414.402	24.56
414.615	68.93
414.827	1.31
415.04	79.78
415.253	38.31
415.466	55.36
415.678	81.13
415.891	50.52
416.104	45.29
416.316	34.44
416.529	-5.47
416.742	35.02
416.954	79.58
417.167	20.3
417.38	27.08
417.592	47.42
417.805	3.05
418.017	-9.74
418.23	65.63
418.442	3.63
418.655	30.56
418.868	29.79
419.08	77.45
419.293	86.75
419.505	55.36
419.718	28.82
419.93	101.09
420.142	-15.35
420.355	91.59
420.567	105.16
420.78	57.69
420.992	29.59
421.205	91.59
421.417	-11.09
421.629	21.46
421.842	-3.73
422.054	-43.25
422.266	40.64
422.479	77.26
422.691	23.2
422.903	54.98
423.115	22.23
423.328	48
423.54	64.86
423.752	19.52
423.964	30.56
424.177	61.56
424.389	41.99
424.601	122.01
424.813	80.74
425.025	70.09
425.238	42.77
425.45	21.85
425.662	11.96
425.874	334.36
426.086	55.56
426.298	41.8
426.51	49.16
426.722	65.83
426.934	13.71
427.146	50.33
427.358	4.41
427.57	87.91
427.782	34.05
427.994	45.29
428.206	31.14
428.418	-19.81
428.63	61.56
428.842	55.56
429.054	59.24
429.266	67.38
429.478	38.89
429.69	24.94
429.902	-1.02
430.114	79.39
430.325	80.94
430.537	45.09
430.749	56.91
430.961	1.5
431.173	66.99
431.384	72.99
431.596	-11.87
431.808	22.04
432.02	44.71
432.231	72.22
432.443	70.48
432.655	38.89
432.867	9.06
433.078	57.69
433.29	106.13
433.502	54.59
433.713	84.04
433.925	72.8
434.136	75.13
434.348	-8.77
434.56	-3.73
434.771	138.48
434.983	1.7
435.194	17
435.406	14.29
435.617	68.93
435.829	101.28
436.04	55.94
436.252	61.76
436.463	87.14
436.675	67.76
436.886	54.98
437.098	47.61
437.309	84.04
437.521	44.51
437.732	66.21
437.943	47.03
438.155	28.43
438.366	-9.35
438.578	117.75
438.789	61.18
439	79.97
439.211	47.03
439.423	78.42
439.634	46.06
439.845	76.48
440.057	30.76
440.268	70.28
440.479	41.99
440.69	62.92
440.902	33.47
441.113	62.92
441.324	36.18
441.535	55.17
441.746	82.49
441.957	1.11
442.168	26.3
442.38	54.59
442.591	68.34
442.802	13.32
443.013	53.81
443.224	65.24
443.435	65.24
443.646	31.14
443.857	67.57
444.068	29.98
444.279	50.13
444.49	116.59
444.701	48.78
444.912	145.46
445.123	88.69
445.334	71.64
445.545	73.96
445.756	57.3
445.967	35.99
446.178	81.71
446.388	107.09
446.599	61.76
446.81	75.71
447.021	18.16
447.232	91.21
447.443	99.73
447.653	25.53
447.864	78.23
448.075	70.48
448.286	106.71
448.496	49.16
448.707	92.18
448.918	65.83
449.129	150.11
449.339	45.09
449.55	78.23
449.761	39.48
449.971	104.19
450.182	59.82
450.393	101.09
450.603	51.1
450.814	104.96
451.024	78.81
451.235	105.93
451.446	157.47
451.656	121.04
451.867	29.4
452.077	85.2
452.288	123.95
452.498	128.79
452.709	69.89
452.919	131.12
453.13	63.11
453.34	132.09
453.55	43.54
453.761	86.56
453.971	121.43
454.182	83.65
454.392	113.29
454.602	137.71
454.813	82.68
455.023	109.61
455.233	44.51
455.444	79.19
455.654	23.39
455.864	64.86
456.075	85.39
456.285	54.98
456.495	65.63
456.705	95.86
456.916	118.33
457.126	123.76
457.336	81.91
457.546	43.54
457.756	73.77
457.967	110.97
458.177	75.9
458.387	82.29
458.597	64.08
458.807	53.62
459.017	76.68
459.227	67.76
459.437	85.01
459.647	121.04
459.857	110.97
460.068	56.91
460.278	106.71
460.488	107.48
460.698	141.77
460.908	76.09
461.117	33.66
461.327	48.39
461.537	88.49
461.747	94.11
461.957	95.28
462.167	143.32
462.377	101.09
462.587	91.79
462.797	80.36
463.007	65.83
463.216	99.15
463.426	149.33
463.636	113.29
463.846	53.23
464.056	73.96
464.265	113.29
464.475	65.24
464.685	78.81
464.895	122.4
465.104	80.55
465.314	131.7
465.524	98.76
465.733	79.97
465.943	158.44
466.153	120.85
466.362	134.41
466.572	97.99
466.782	98.57
466.991	90.24
467.201	161.15
467.41	54.01
467.62	123.56
467.829	85.98
468.039	91.4
468.249	96.63
468.458	86.94
468.668	103.22
468.877	104.19
469.086	155.72
469.296	112.52
469.505	69.89
469.715	140.42
469.924	107.48
470.134	135.96
470.343	148.56
470.552	103.03
470.762	106.51
470.971	49.36
471.18	100.31
471.39	119.11
471.599	78.61
471.808	123.17
472.018	47.23
472.227	122.01
472.436	146.04
472.645	91.59
472.855	50.52
473.064	134.61
473.273	94.69
473.482	128.79
473.691	147.78
473.901	137.12
474.11	107.09
474.319	191.57
474.528	132.09
474.737	125.69
474.946	113.49
475.155	94.69
475.364	144.87
475.573	117.36
475.783	122.4
475.992	120.27
476.201	135.77
476.41	97.6
476.619	91.59
476.828	124.34
477.037	102.25
477.245	108.64
477.454	131.51
477.663	94.69
477.872	66.6
478.081	180.52
478.29	82.49
478.499	181.49
478.708	93.73
478.917	190.99
479.125	123.95
479.334	119.3
479.543	109.81
479.752	109.03
479.961	114.46
480.169	122.4
480.378	78.03
480.587	219.85
480.796	138.09
481.004	141.39
481.213	135.96
481.422	149.33
481.63	80.94
481.839	142.16
482.048	165.61
482.256	112.52
482.465	125.31
482.674	134.22
482.882	166.77
483.091	206.29
483.299	108.06
483.508	143.32
483.716	108.64
483.925	127.05
484.134	101.28
484.342	85.39
484.551	137.71
484.759	160.18
484.967	145.26
485.176	135.19
485.384	142.74
485.593	187.31
485.801	160.96
486.01	166.96
486.218	158.44
486.426	111.55
486.635	151.46
486.843	154.37
487.051	159.41
487.26	152.24
487.468	175.87
487.676	173.16
487.885	133.06
488.093	152.82
488.301	107.29
488.509	154.95
488.717	174.13
488.926	165.8
489.134	139.26
489.342	159.99
489.55	107.48
489.758	155.53
489.967	138.67
490.175	210.94
490.383	123.76
490.591	198.93
490.799	72.99
491.007	179.56
491.215	159.6
491.423	148.17
491.631	162.89
491.839	158.05
492.047	171.42
492.255	128.41
492.463	119.49
492.671	150.88
492.879	188.27
493.087	165.99
493.295	177.04
493.503	171.61
493.711	165.99
493.919	181.88
494.127	206.29
494.334	217.72
494.542	127.05
494.75	176.26
494.958	147.97
495.166	190.79
495.374	168.51
495.581	135.57
495.789	158.24
495.997	218.89
496.205	173.16
496.412	144.87
496.62	147.97
496.828	168.9
497.035	136.16
497.243	193.31
497.451	173.36
497.658	156.11
497.866	156.31
498.074	217.72
498.281	163.09
498.489	248.92
498.696	187.69
498.904	163.67
499.112	170.64
499.319	224.5
499.527	131.31
499.734	200.87
499.942	141.39
500.149	138.29
500.357	180.52
500.564	142.55
500.771	178.2
500.979	133.83
501.186	167.35
501.394	189.44
501.601	165.99
501.808	234.77
502.016	167.16
502.223	171.81
502.43	197.38
502.638	193.51
502.845	152.62
503.052	248.72
503.26	174.91
503.467	232.25
503.674	173.55
503.881	207.65
504.089	285.73
504.296	218.89
504.503	147.01
504.71	215.4
504.917	142.74
505.125	184.4
505.332	196.41
505.539	196.22
505.746	246.01
505.953	215.01
506.16	224.7
506.367	265.39
506.574	224.89
506.781	253.37
506.988	142.36
507.195	207.65
507.402	185.76
507.609	214.04
507.816	168.51
508.023	172.19
508.23	202.61
508.437	174.52
508.644	217.72
508.851	263.45
509.058	242.33
509.265	189.63
509.472	222.95
509.679	299.29
509.885	180.14
510.092	182.46
510.299	205.71
510.506	213.85
510.713	214.82
510.92	201.06
511.126	221.02
511.333	261.51
511.54	227.99
511.746	275.27
511.953	269.07
512.16	258.41
512.367	206.49
512.573	200.67
512.78	240.39
512.987	220.24
513.193	229.54
513.4	158.05
513.606	195.25
513.813	234.97
514.02	215.98
514.226	292.51
514.433	266.74
514.639	183.82
514.846	233.42
515.052	191.37
515.259	191.57
515.465	227.02
515.672	223.34
515.878	295.42
516.085	197.38
516.291	260.74
516.497	174.13
516.704	192.73
516.91	174.13
517.117	185.37
517.323	193.89
517.529	217.53
517.736	216.75
517.942	216.75
518.148	192.73
518.354	233.61
518.561	224.12
518.767	254.92
518.973	244.85
519.179	252.6
519.386	207.45
519.592	192.34
519.798	197.57
520.004	241.55
520.21	177.23
520.417	241.36
520.623	234.97
520.829	239.23
521.035	234.39
521.241	228.96
521.447	258.6
521.653	365.75
521.859	234
522.065	252.99
522.271	344.82
522.477	282.05
522.683	323.12
522.889	280.3
523.095	282.82
523.301	226.44
523.507	252.6
523.713	270.62
523.919	233.8
524.125	267.9
524.331	245.62
524.537	300.65
524.742	270.04
524.948	301.03
525.154	280.5
525.36	393.26
525.566	282.05
525.772	298.9
525.977	242.52
526.183	286.7
526.389	308.01
526.595	278.37
526.8	291.73
527.006	254.15
527.212	251.05
527.417	266.35
527.623	268.87
527.829	297.74
528.034	286.5
528.24	281.08
528.446	234
528.651	284.57
528.857	255.89
529.062	337.27
529.268	256.67
529.473	284.76
529.679	256.86
529.884	313.05
530.09	288.25
530.295	351.6
530.501	302.2
530.706	299.48
530.912	282.63
531.117	315.18
531.323	275.46
531.528	315.76
531.733	289.99
531.939	269.45
532.144	306.46
532.35	287.28
532.555	354.12
532.76	347.73
532.966	336.88
533.171	346.76
533.376	297.93
533.581	270.62
533.787	309.95
533.992	283.79
534.197	354.7
534.402	286.12
534.607	308.78
534.813	407.01
535.018	296.38
535.223	263.84
535.428	294.45
535.633	334.94
535.838	310.72
536.043	303.55
536.249	380.86
536.454	316.73
536.659	319.63
536.864	269.26
537.069	314.79
537.274	333
537.479	331.26
537.684	321.57
537.889	287.67
538.094	388.22
538.299	300.26
538.504	329.13
538.708	337.85
538.913	343.85
539.118	299.29
539.323	364.58
539.528	293.48
539.733	339.78
539.938	345.02
540.142	362.45
540.347	306.85
540.552	300.07
540.757	353.15
540.962	324.48
541.166	293.48
541.371	296
541.576	330.87
541.781	255.12
541.985	298.32
542.19	325.25
542.395	381.25
542.599	374.66
542.804	345.98
543.008	377.37
543.213	305.68
543.418	295.8
543.622	323.51
543.827	294.06
544.031	389.77
544.236	379.89
544.44	329.13
544.645	426.97
544.849	321.57
545.054	355.67
545.258	423.48
545.463	389.19
545.667	299.87
545.872	346.57
546.076	350.44
546.281	340.56
546.485	315.37
546.689	353.93
546.894	388.03
547.098	327
547.302	282.24
547.507	385.51
547.711	340.56
547.915	423.29
548.119	316.15
548.324	352.57
548.528	417.86
548.732	350.44
548.936	381.44
549.141	395.2
549.345	317.12
549.549	334.94
549.753	344.43
549.957	423.68
550.161	430.46
550.366	348.5
550.57	306.85
550.774	336.68
550.978	358.19
551.182	361.87
551.386	353.54
551.59	335.91
551.794	327.77
551.998	342.3
552.202	325.45
552.406	279.72
552.61	338.23
552.814	325.06
553.018	420.77
553.222	348.5
553.426	334.17
553.63	398.1
553.833	347.92
554.037	321.57
554.241	376.98
554.445	362.26
554.649	349.67
554.853	345.79
555.056	364.78
555.26	380.47
555.464	356.83
555.668	353.35
555.871	387.25
556.075	365.55
556.279	344.82
556.483	312.66
556.686	348.31
556.89	335.91
557.094	369.04
557.297	318.47
557.501	388.61
557.704	308.2
557.908	399.65
558.112	312.08
558.315	413.6
558.519	353.93
558.722	358.58
558.926	347.53
559.129	325.64
559.333	259.77
559.536	321.77
559.74	323.32
559.943	330.29
560.147	318.28
560.35	339.59
560.553	284.95
560.757	287.08
560.96	414.76
561.164	295.42
561.367	386.67
561.57	325.25
561.774	327.38
561.977	331.65
562.18	290.96
562.384	405.85
562.587	342.69
562.79	307.23
562.993	341.72
563.197	355.67
563.4	401.59
563.603	394.81
563.806	428.91
564.009	324.87
564.212	344.05
564.416	302.2
564.619	361.48
564.822	295.61
565.025	360.71
565.228	352.38
565.431	358
565.634	261.9
565.837	323.12
566.04	318.47
566.243	325.64
566.446	245.62
566.649	321.38
566.852	319.83
567.055	305.49
567.258	356.06
567.461	364.39
567.664	396.55
567.867	272.94
568.07	361.48
568.273	350.63
568.475	373.11
568.678	313.43
568.881	302.58
569.084	336.88
569.287	267.71
569.489	301.03
569.692	337.27
569.895	347.15
570.098	290.57
570.3	262.09
570.503	246.01
570.706	282.63
570.909	283.6
571.111	280.3
571.314	270.81
571.516	298.52
571.719	305.88
571.922	303.36
572.124	279.34
572.327	305.88
572.529	259.38
572.732	282.63
572.935	271
573.137	354.51
573.34	254.15
573.542	312.85
573.745	305.68
573.947	296.77
574.15	279.34
574.352	255.7
574.554	329.32
574.757	275.46
574.959	271.97
575.162	272.17
575.364	292.7
575.566	376.01
575.769	223.34
575.971	284.57
576.173	218.89
576.376	303.36
576.578	324.48
576.78	334.36
576.982	210.17
577.185	267.9
577.387	247.95
577.589	256.28
577.791	295.03
577.993	316.53
578.196	262.29
578.398	318.47
578.6	302.78
578.802	251.82
579.004	275.46
579.206	257.64
579.408	310.33
579.61	248.92
579.812	317.89
580.014	260.54
580.216	268.87
580.418	277.01
580.62	224.89
580.822	211.33
581.024	294.45
581.226	310.72
581.428	245.82
581.63	332.81
581.832	241.36
582.034	315.76
582.236	251.82
582.438	281.27
582.64	327.19
582.841	313.24
583.043	325.64
583.245	298.32
583.447	309.17
583.649	287.67
583.85	272.75
584.052	300.07
584.254	249.3
584.456	311.69
584.657	248.53
584.859	282.24
585.061	255.31
585.262	242.72
585.464	258.02
585.666	297.35
585.867	261.12
586.069	339.78
586.27	272.75
586.472	291.15
586.674	291.35
586.875	265
587.077	267.9
587.278	280.69
587.48	296.19
587.681	345.02
587.883	263.25
588.084	241.36
588.285	238.26
588.487	261.32
588.688	276.62
588.89	244.27
589.091	228.19
589.292	284.37
589.494	259.77
589.695	255.7
589.896	223.73
590.098	201.64
590.299	281.08
590.5	224.7
590.702	225.67
590.903	212.49
591.104	300.26
591.305	242.91
591.507	306.07
591.708	275.65
591.909	248.14
592.11	335.52
592.311	295.22
592.512	241.17
592.714	215.59
592.915	222.37
593.116	246.01
593.317	239.62
593.518	241.55
593.719	204.94
593.92	270.04
594.121	296.77
594.322	262.87
594.523	283.6
594.724	205.52
594.925	242.72
595.126	289.02
595.327	272.36
595.528	262.67
595.729	273.33
595.929	254.73
596.13	242.33
596.331	262.09
596.532	275.85
596.733	305.49
596.934	272.36
597.135	264.8
597.335	271.2
597.536	214.82
597.737	281.66
597.938	237.29
598.138	250.66
598.339	236.9
598.54	256.28
598.74	253.95
598.941	269.26
599.142	269.45
599.342	276.24
599.543	221.6
599.744	252.4
599.944	246.2
600.145	219.47
600.345	268.29
600.546	322.15
600.746	305.68
600.947	337.65
601.147	268.1
601.348	301.23
601.548	239.23
601.749	278.75
601.949	219.85
602.15	215.59
602.35	241.55
602.551	296.97
602.751	215.98
602.951	247.17
603.152	173.74
603.352	257.83
603.552	237.1
603.753	284.95
603.953	276.62
604.153	265
604.354	248.14
604.554	241.17
604.754	273.52
604.954	220.82
605.155	245.43
605.355	214.62
605.555	291.54
605.755	314.79
605.955	263.45
606.155	295.03
606.356	252.6
606.556	283.21
606.756	276.24
606.956	230.51
607.156	312.66
607.356	222.95
607.556	246.79
607.756	256.86
607.956	321.18
608.156	264.61
608.356	234.58
608.556	272.75
608.756	261.12
608.956	231.48
609.156	257.64
609.356	210.94
609.556	226.25
609.755	283.99
609.955	222.18
610.155	246.01
610.355	252.99
610.555	254.54
610.755	265.19
610.954	238.26
611.154	271
611.354	280.11
611.554	251.44
611.753	233.03
611.953	199.9
612.153	265
612.352	258.6
612.552	237.1
612.752	175.29
612.951	225.47
613.151	278.56
613.351	204.16
613.55	245.62
613.75	250.08
613.949	240.78
614.149	262.67
614.348	244.46
614.548	224.31
614.747	203
614.947	216.37
615.146	203.58
615.346	263.84
615.545	234.58
615.745	231.09
615.944	302.2
616.144	223.15
616.343	280.89
616.542	234
616.742	263.84
616.941	243.69
617.14	182.66
617.34	224.12
617.539	256.09
617.738	207.45
617.938	301.81
618.137	222.57
618.336	169.48
618.535	239.81
618.734	212.49
618.934	244.65
619.133	250.27
619.332	277.98
619.531	210.17
619.73	250.27
619.929	248.34
620.128	258.02
620.328	293.28
620.527	207.07
620.726	194.67
620.925	255.31
621.124	221.6
621.323	243.3
621.522	191.18
621.721	196.99
621.92	210.75
622.119	232.45
622.318	203.58
622.517	227.99
622.715	221.21
622.914	166.19
623.113	215.4
623.312	172.77
623.511	223.15
623.71	188.66
623.909	228.19
624.107	260.74
624.306	171.03
624.505	185.76
624.704	189.44
624.902	236.13
625.101	274.1
625.3	212.3
625.499	218.69
625.697	216.75
625.896	200.48
626.095	213.27
626.293	171.22
626.492	201.25
626.69	233.61
626.889	192.73
627.088	234.39
627.286	208.62
627.485	182.27
627.683	196.02
627.882	247.17
628.08	159.6
628.279	208.42
628.477	272.36
