Data from pine_FLMT105791__11__17-19-45-080.txt Node

Date: Mon Mar 20 17:19:45 GMT 2023
User: antho
Spectrometer: FLMT10579
Trigger mode: 0
Integration Time (sec): 1.000000E-1
Scans to average: 10
Electric dark correction enabled: true
Nonlinearity correction enabled: false
Boxcar width: 0
XAxis mode: Wavelengths
Number of Pixels in Spectrum: 3648
>>>>>Begin Spectral Data<<<<<
345.248	-174.37
345.464	-174.37
345.681	-174.37
345.898	-160.62
346.114	-184.25
346.331	-42.62
346.548	24.02
346.764	-9.3
346.981	-12.79
347.197	-0
347.414	18.41
347.631	-26.35
347.847	66.46
348.064	3.49
348.28	7.36
348.497	-17.24
348.713	-11.43
348.93	41.46
349.146	-4.65
349.363	5.23
349.579	1.74
349.796	-4.26
350.012	-25.19
350.229	15.5
350.445	9.69
350.661	-23.06
350.878	18.79
351.094	38.56
351.311	-17.44
351.527	28.29
351.743	0.19
351.96	20.34
352.176	44.56
352.392	22.28
352.609	53.47
352.825	-14.34
353.041	12.59
353.257	7.56
353.474	8.14
353.69	2.91
353.906	23.25
354.122	-29.64
354.339	60.45
354.555	-4.84
354.771	-10.85
354.987	53.47
355.203	70.72
355.42	-9.3
355.636	11.62
355.852	-22.47
356.068	29.06
356.284	-20.54
356.5	31.97
356.716	24.02
356.932	-12.59
357.148	9.11
357.364	4.65
357.58	49.41
357.796	40.11
358.012	35.26
358.228	25.77
358.444	-71.11
358.66	62.77
358.876	23.64
359.092	-37.2
359.308	-3.87
359.524	26.74
359.74	-9.11
359.956	6.01
360.172	-7.56
360.388	18.02
360.604	-6.2
360.819	85.06
361.035	30.03
361.251	27.9
361.467	-5.23
361.683	37.97
361.898	23.44
362.114	38.56
362.33	10.66
362.546	38.94
362.762	30.03
362.977	-5.62
363.193	-15.69
363.409	40.11
363.624	-32.94
363.84	-34.49
364.056	-15.69
364.271	19.96
364.487	-0.77
364.703	-7.75
364.918	-4.26
365.134	5.62
365.35	-27.12
365.565	101.33
365.781	-1.74
365.996	21.12
366.212	46.31
366.427	37.59
366.643	-18.99
366.858	-15.31
367.074	-37.97
367.289	39.72
367.505	93.97
367.72	-19.57
367.936	4.84
368.151	39.72
368.367	34.49
368.582	6.2
368.798	-0.97
369.013	66.26
369.228	25.77
369.444	13.95
369.659	92.22
369.874	30.22
370.09	52.89
370.305	-48.82
370.52	-9.88
370.736	57.74
370.951	-8.72
371.166	29.84
371.381	42.24
371.597	35.07
371.812	-22.28
372.027	-0.39
372.242	10.27
372.458	77.89
372.673	-19.96
372.888	7.56
373.103	18.99
373.318	96.87
373.533	35.46
373.749	29.26
373.964	-60.45
374.179	49.99
374.394	-24.61
374.609	63.16
374.824	-18.99
375.039	43.21
375.254	-20.54
375.469	82.54
375.684	5.42
375.899	49.21
376.114	7.17
376.329	20.34
376.544	43.4
376.759	25.38
376.974	-11.82
377.189	-10.07
377.404	-12.4
377.619	36.62
377.834	-49.02
378.049	-40.69
378.264	-11.43
378.478	1.94
378.693	-4.84
378.908	29.84
379.123	-1.36
379.338	55.22
379.553	10.27
379.767	2.13
379.982	31.58
380.197	26.93
380.412	6.2
380.626	37.78
380.841	109.27
381.056	24.8
381.271	84.28
381.485	-24.61
381.7	-24.22
381.915	41.66
382.129	20.54
382.344	7.17
382.559	15.11
382.773	58.71
382.988	-7.17
383.202	26.74
383.417	-6.97
383.632	61.61
383.846	31.77
384.061	27.71
384.275	9.3
384.49	29.26
384.704	31.97
384.919	17.24
385.133	-0.39
385.348	15.69
385.562	-37.59
385.777	65.29
385.991	2.91
386.206	1.16
386.42	-3.1
386.634	79.63
386.849	22.47
387.063	30.42
387.277	-3.49
387.492	-12.4
387.706	-40.49
387.92	12.59
388.135	69.36
388.349	30.61
388.563	2.91
388.778	36.04
388.992	50.57
389.206	58.12
389.42	110.24
389.635	13.17
389.849	21.7
390.063	57.93
390.277	44.17
390.491	53.09
390.706	33.52
390.92	34.68
391.134	10.46
391.348	48.63
391.562	-38.94
391.776	-6.2
391.99	-8.14
392.205	59.48
392.419	2.13
392.633	31.77
392.847	57.93
393.061	2.71
393.275	78.08
393.489	34.68
393.703	20.92
393.917	71.69
394.131	9.3
394.345	62.39
394.559	44.76
394.773	18.02
394.986	33.13
395.2	1.36
395.414	50.96
395.628	-25.19
395.842	38.56
396.056	-4.07
396.27	-17.63
396.484	28.09
396.697	33.71
396.911	56.77
397.125	47.27
397.339	27.71
397.553	27.32
397.766	93.77
397.98	66.26
398.194	74.21
398.408	-4.46
398.621	14.34
398.835	53.09
399.049	28.48
399.262	68.59
399.476	41.07
399.69	34.1
399.903	82.34
400.117	5.62
400.331	56.57
400.544	-27.32
400.758	126.52
400.971	35.26
401.185	55.61
401.398	-10.85
401.612	76.53
401.826	34.87
402.039	25.96
402.253	15.31
402.466	51.34
402.68	8.52
402.893	46.31
403.106	36.42
403.32	30.03
403.533	37.2
403.747	63.74
403.96	59.48
404.174	54.06
404.387	5.04
404.6	37.2
404.814	67.42
405.027	1.74
405.24	21.89
405.454	18.79
405.667	68.39
405.88	-26.16
406.094	37.97
406.307	44.56
406.52	62.77
406.733	-12.59
406.947	-37.01
407.16	82.92
407.373	101.72
407.586	14.53
407.799	8.91
408.012	56.96
408.226	52.31
408.439	84.86
408.652	-35.46
408.865	48.44
409.078	68.2
409.291	47.27
409.504	-13.17
409.717	53.86
409.93	56.19
410.143	51.54
410.357	-15.31
410.57	-39.72
410.783	18.99
410.996	36.04
411.209	36.04
411.421	60.84
411.634	28.67
411.847	2.91
412.06	31.58
412.273	30.03
412.486	21.51
412.699	120.12
412.912	55.41
413.125	59.48
413.338	43.79
413.55	75.76
413.763	62.58
413.976	55.02
414.189	4.84
414.402	4.46
414.615	80.41
414.827	20.73
415.04	55.41
415.253	55.8
415.466	50.57
415.678	87.96
415.891	41.46
416.104	33.91
416.316	21.51
416.529	10.46
416.742	35.65
416.954	79.05
417.167	19.57
417.38	23.25
417.592	91.84
417.805	-3.29
418.017	-26.54
418.23	82.92
418.442	17.24
418.655	37.78
418.868	45.14
419.08	58.32
419.293	86.02
419.505	47.08
419.718	48.82
419.93	82.54
420.142	3.68
420.355	92.42
420.567	99.39
420.78	56.77
420.992	43.4
421.205	105.98
421.417	3.49
421.629	18.99
421.842	-1.55
422.054	-7.56
422.266	66.84
422.479	43.21
422.691	39.14
422.903	64.52
423.115	16.08
423.328	22.28
423.54	68.2
423.752	10.66
423.964	12.01
424.177	49.79
424.389	20.92
424.601	135.04
424.813	76.53
425.025	73.62
425.238	73.24
425.45	33.13
425.662	17.44
425.874	348.94
426.086	53.09
426.298	72.27
426.51	49.99
426.722	18.99
426.934	-3.49
427.146	82.54
427.358	-10.85
427.57	105.98
427.782	58.71
427.994	57.74
428.206	20.15
428.418	2.52
428.63	43.4
428.842	65.49
429.054	48.05
429.266	77.5
429.478	22.67
429.69	48.63
429.902	4.26
430.114	86.61
430.325	56.77
430.537	40.69
430.749	48.05
430.961	18.99
431.173	52.31
431.384	80.79
431.596	-29.45
431.808	30.03
432.02	95.13
432.231	66.26
432.443	96.87
432.655	62.19
432.867	16.66
433.078	71.11
433.29	128.45
433.502	95.13
433.713	96.87
433.925	73.43
434.136	122.06
434.348	31.39
434.56	6.39
434.771	155.58
434.983	28.87
435.194	12.21
435.406	75.95
435.617	92.61
435.829	119.15
436.04	78.27
436.252	101.33
436.463	104.24
436.675	90.09
436.886	74.59
437.098	58.9
437.309	109.85
437.521	59.09
437.732	87.57
437.943	82.73
438.155	96.49
438.366	25.57
438.578	140.47
438.789	85.64
439	81.57
439.211	80.02
439.423	104.24
439.634	90.67
439.845	80.02
440.057	86.02
440.268	121.29
440.479	49.02
440.69	84.67
440.902	105.01
441.113	51.92
441.324	68.97
441.535	69.56
441.746	147.83
441.957	49.41
442.168	50.96
442.38	113.73
442.591	120.7
442.802	59.67
443.013	54.44
443.224	107.14
443.435	66.46
443.646	104.62
443.857	91.64
444.068	35.84
444.279	81.37
444.49	168.37
444.701	91.25
444.912	178.83
445.123	115.28
445.334	134.46
445.545	80.02
445.756	96.1
445.967	58.9
446.178	110.82
446.388	124.39
446.599	131.36
446.81	132.33
447.021	101.33
447.232	135.04
447.443	155.77
447.653	99.39
447.864	124.97
448.075	89.9
448.286	151.9
448.496	116.83
448.707	173.79
448.918	100.94
449.129	223.78
449.339	51.34
449.55	110.82
449.761	104.82
449.971	161.2
450.182	113.73
450.393	128.65
450.603	101.72
450.814	159.26
451.024	120.7
451.235	138.14
451.446	189.1
451.656	172.82
451.867	105.01
452.077	152.29
452.288	181.93
452.498	185.03
452.709	127.29
452.919	155.39
453.13	134.27
453.34	171.27
453.55	83.31
453.761	166.04
453.971	120.7
454.182	151.12
454.392	166.43
454.602	218.16
454.813	148.8
455.023	207.31
455.233	103.46
455.444	145.7
455.654	106.95
455.864	128.84
456.075	106.75
456.285	109.27
456.495	163.14
456.705	170.3
456.916	184.45
457.126	194.13
457.336	147.64
457.546	118.57
457.756	128.45
457.967	160.81
458.177	137.75
458.387	135.82
458.597	115.09
458.807	116.05
459.017	135.43
459.227	126.32
459.437	151.32
459.647	187.93
459.857	159.45
460.068	115.67
460.278	179.99
460.488	177.47
460.698	218.55
460.908	155.19
461.117	91.45
461.327	116.44
461.537	142.02
461.747	145.89
461.957	172.44
462.167	242.38
462.377	203.05
462.587	176.5
462.797	163.91
463.007	183.09
463.216	187.74
463.426	189.29
463.636	205.18
463.846	108.69
464.056	169.53
464.265	187.93
464.475	133.3
464.685	187.74
464.895	198.78
465.104	157.71
465.314	200.72
465.524	147.05
465.733	130.78
465.943	237.53
466.153	206.34
466.362	208.86
466.572	178.63
466.782	161.78
466.991	165.07
467.201	199.17
467.41	120.12
467.62	197.62
467.829	154.42
468.039	173.21
468.249	178.44
468.458	168.75
468.668	209.05
468.877	203.82
469.086	227.46
469.296	226.88
469.505	145.5
469.715	237.34
469.924	214.67
470.134	237.15
470.343	230.56
470.552	206.73
470.762	167.98
470.971	177.86
471.18	219.52
471.39	174.95
471.599	169.92
471.808	198.59
472.018	160.04
472.227	216.42
472.436	232.11
472.645	182.32
472.855	158.1
473.064	228.43
473.273	202.27
473.482	215.45
473.691	258.07
473.901	243.54
474.11	218.93
474.319	267.37
474.528	185.61
474.737	267.76
474.946	219.32
475.155	202.27
475.364	273.57
475.573	232.3
475.783	243.54
475.992	240.44
476.201	252.26
476.41	215.64
476.619	195.3
476.828	234.24
477.037	227.07
477.245	218.55
477.454	306.51
477.663	213.12
477.872	212.35
478.081	283.84
478.29	200.33
478.499	324.33
478.708	246.64
478.917	316.39
479.125	240.63
479.334	253.23
479.543	229.98
479.752	251.29
479.961	274.93
480.169	264.66
480.378	246.06
480.587	328.98
480.796	280.93
481.004	270.28
481.213	279.38
481.422	261.17
481.63	259.62
481.839	288.49
482.048	332.86
482.256	261.37
482.465	279.19
482.674	306.12
482.882	290.43
483.091	360.95
483.299	298.56
483.508	304.96
483.716	301.28
483.925	291.59
484.134	285
484.342	284.81
484.551	322.59
484.759	316.58
484.967	336.35
485.176	330.53
485.384	319.49
485.593	344.87
485.801	320.65
486.01	311.35
486.218	290.62
486.426	236.37
486.635	301.66
486.843	284.81
487.051	289.26
487.26	278.41
487.468	333.83
487.676	335.76
487.885	278.22
488.093	319.3
488.301	333.05
488.509	321.04
488.717	338.28
488.926	320.46
489.134	306.7
489.342	344.48
489.55	288.88
489.758	323.17
489.967	332.47
490.175	440.77
490.383	288.3
490.591	390.01
490.799	287.71
491.007	376.26
491.215	330.73
491.423	327.24
491.631	351.07
491.839	363.66
492.047	374.32
492.255	306.31
492.463	286.75
492.671	337.51
492.879	371.41
493.087	334.41
493.295	388.85
493.503	385.56
493.711	356.3
493.919	386.91
494.127	384.78
494.334	406.87
494.542	307.09
494.75	341.96
494.958	362.11
495.166	413.07
495.374	393.5
495.581	378.78
495.789	366.76
495.997	409.78
496.205	365.21
496.412	367.15
496.62	376.64
496.828	396.02
497.035	368.51
497.243	400.86
497.451	359.01
497.658	419.08
497.866	392.14
498.074	445.62
498.281	375.48
498.489	488.44
498.696	400.09
498.904	381.68
499.112	401.25
499.319	477.39
499.527	385.17
499.734	454.92
499.942	343.51
500.149	365.6
500.357	387.11
500.564	352.04
500.771	400.09
500.979	368.31
501.186	354.94
501.394	429.73
501.601	412.68
501.808	437.48
502.016	408.81
502.223	392.53
502.43	420.82
502.638	408.81
502.845	360.37
503.052	470.81
503.26	390.21
503.467	464.41
503.674	417.91
503.881	436.71
504.089	476.42
504.296	478.17
504.503	397.96
504.71	423.14
504.917	408.23
505.125	431.86
505.332	419.85
505.539	464.99
505.746	526.22
505.953	449.11
506.16	433.22
506.367	510.91
506.574	482.62
506.781	503.16
506.988	393.11
507.195	448.91
507.402	436.13
507.609	484.56
507.816	469.45
508.023	428.96
508.23	429.73
508.437	402.8
508.644	473.32
508.851	509.56
509.058	517.5
509.265	469.64
509.472	494.83
509.679	563.42
509.885	451.04
510.092	494.44
510.299	468.87
510.506	498.71
510.713	490.37
510.92	464.22
511.126	499.87
511.333	532.03
511.54	515.95
511.746	532.22
511.953	543.85
512.16	524.47
512.367	452.79
512.573	472.36
512.78	511.49
512.987	502
513.193	529.7
513.4	440
513.606	515.56
513.813	521.96
514.02	513.62
514.226	604.88
514.433	555.86
514.639	500.45
514.846	511.3
515.052	498.9
515.259	482.82
515.465	520.21
515.672	528.74
515.878	620.38
516.085	499.09
516.291	566.9
516.497	506.84
516.704	508.97
516.91	486.11
517.117	478.94
517.323	442.91
517.529	501.22
517.736	497.35
517.942	507.23
518.148	489.6
518.354	515.95
518.561	506.26
518.767	536.29
518.973	545.98
519.179	560.51
519.386	482.82
519.592	516.34
519.798	523.12
520.004	585.31
520.21	517.11
520.417	575.24
520.623	600.62
520.829	617.28
521.035	568.26
521.241	583.95
521.447	587.05
521.653	677.92
521.859	561.48
522.065	602.36
522.271	681.22
522.477	603.14
522.683	667.46
522.889	644.98
523.095	654.48
523.301	604.1
523.507	580.08
523.713	626
523.919	586.86
524.125	666.1
524.331	603.33
524.537	666.1
524.742	651.18
524.948	667.27
525.154	652.54
525.36	743.99
525.566	663.58
525.772	699.23
525.977	605.85
526.183	707.76
526.389	691.87
526.595	607.2
526.8	654.48
527.006	597.13
527.212	614.37
527.417	616.89
527.623	606.82
527.829	648.28
528.034	664.17
528.24	647.12
528.446	607.2
528.651	678.31
528.857	660.68
529.062	755.23
529.268	651.77
529.473	679.86
529.679	662.03
529.884	754.06
530.09	742.44
530.295	770.73
530.501	728.1
530.706	750.38
530.912	657
531.117	697.49
531.323	695.94
531.528	705.63
531.733	734.69
531.939	691.1
532.144	722.87
532.35	707.56
532.555	778.67
532.76	750
532.966	751.16
533.171	733.53
533.376	715.12
533.581	678.7
533.787	735.46
533.992	743.99
534.197	798.24
534.402	715.9
534.607	725
534.813	828.46
535.018	738.37
535.223	697.88
535.428	750.96
535.633	799.21
535.838	777.7
536.043	752.9
536.249	824.39
536.454	735.08
536.659	747.48
536.864	729.46
537.069	724.81
537.274	786.81
537.479	799.79
537.684	772.66
537.889	717.45
538.094	824.78
538.299	790.68
538.504	790.88
538.708	791.65
538.913	785.84
539.118	762.01
539.323	777.12
539.528	751.16
539.733	810.06
539.938	801.14
540.142	802.69
540.347	779.45
540.552	767.43
540.757	775.57
540.962	739.92
541.166	737.21
541.371	719.38
541.576	756
541.781	654.09
541.985	757.55
542.19	774.99
542.395	825.17
542.599	874.19
542.804	816.45
543.008	859.85
543.213	757.94
543.418	750.58
543.622	821.49
543.827	759.49
544.031	824.59
544.236	822.84
544.44	781
544.645	896.08
544.849	791.84
545.054	811.99
545.258	904.22
545.463	879.42
545.667	771.31
545.872	823.23
546.076	832.34
546.281	829.63
546.485	776.15
546.689	811.99
546.894	849
547.098	805.41
547.302	756.58
547.507	819.55
547.711	860.43
547.915	884.07
548.119	763.17
548.324	817.81
548.528	897.24
548.732	815.68
548.936	862.56
549.141	876.12
549.345	817.03
549.549	827.49
549.753	798.82
549.957	913.13
550.161	932.51
550.366	846.09
550.57	814.13
550.774	815.68
550.978	796.69
551.182	853.26
551.386	812.38
551.59	823.81
551.794	822.84
551.998	863.92
552.202	830.21
552.406	778.28
552.61	827.69
552.814	852.68
553.018	876.32
553.222	826.53
553.426	840.48
553.63	928.44
553.833	827.3
554.037	813.74
554.241	877.67
554.445	830.98
554.649	830.21
554.853	814.32
555.056	889.69
555.26	861.79
555.464	866.05
555.668	839.89
555.871	885.81
556.075	857.33
556.279	822.65
556.483	789.52
556.686	844.74
556.89	824.78
557.094	841.64
557.297	805.02
557.501	897.24
557.704	778.67
557.908	876.9
558.112	813.35
558.315	903.44
558.519	838.73
558.722	813.16
558.926	834.28
559.129	774.21
559.333	777.31
559.536	776.15
559.74	741.28
559.943	754.84
560.147	759.1
560.35	796.88
560.553	766.46
560.757	740.89
560.96	856.75
561.164	768.79
561.367	857.14
561.57	814.13
561.774	824.59
561.977	790.68
562.18	792.81
562.384	877.29
562.587	808.31
562.79	776.73
562.993	805.21
563.197	831.18
563.4	871.86
563.603	866.83
563.806	893.56
564.009	784.1
564.212	829.43
564.416	749.22
564.619	815.87
564.822	745.93
565.025	867.02
565.228	789.13
565.431	781.96
565.634	734.5
565.837	756.2
566.04	741.47
566.243	755.81
566.446	664.17
566.649	794.17
566.852	703.5
567.055	723.84
567.258	764.14
567.461	819.36
567.664	805.02
567.867	739.73
568.07	777.51
568.273	746.9
568.475	807.15
568.678	758.33
568.881	704.08
569.084	791.84
569.287	671.92
569.489	692.65
569.692	762.4
569.895	746.9
570.098	699.62
570.3	706.6
570.503	674.24
570.706	665.52
570.909	677.34
571.111	674.05
571.314	647.7
571.516	684.9
571.719	728.49
571.922	689.16
572.124	688.97
572.327	708.92
572.529	642.66
572.732	682.57
572.935	686.06
573.137	757.16
573.34	705.63
573.542	711.05
573.745	725.97
573.947	729.65
574.15	695.36
574.352	664.17
574.554	714.73
574.757	669.4
574.959	690.13
575.162	669.78
575.364	657.97
575.566	784.29
575.769	667.46
575.971	680.83
576.173	612.63
576.376	632.2
576.578	690.9
576.78	737.01
576.982	589.96
577.185	656.8
577.387	631.81
577.589	628.13
577.791	682.38
577.993	663.78
578.196	678.89
578.398	693.81
578.6	714.93
578.802	601
579.004	663
579.206	625.22
579.408	657.38
579.61	647.7
579.812	688.97
580.014	629.48
580.216	658.16
580.418	633.75
580.62	613.98
580.822	585.7
581.024	662.42
581.226	679.08
581.428	636.85
581.63	732.56
581.832	621.54
582.034	711.44
582.236	666.3
582.438	685.48
582.64	707.76
582.841	712.6
583.043	726.36
583.245	679.47
583.447	681.99
583.649	637.43
583.85	679.28
584.052	680.44
584.254	651.77
584.456	694.58
584.657	649.63
584.859	655.25
585.061	645.76
585.262	660.48
585.464	623.28
585.666	690.71
585.867	642.66
586.069	730.62
586.27	694.39
586.472	657.19
586.674	629.1
586.875	679.47
587.077	625.03
587.278	654.48
587.48	618.83
587.681	763.17
587.883	677.53
588.084	578.14
588.285	614.57
588.487	613.21
588.688	676.37
588.89	595.19
589.091	571.94
589.292	629.48
589.494	579.89
589.695	570.59
589.896	533.58
590.098	516.72
590.299	608.95
590.5	551.99
590.702	543.65
590.903	585.12
591.104	649.25
591.305	586.28
591.507	648.08
591.708	604.49
591.909	580.08
592.11	668.43
592.311	630.84
592.512	567.87
592.714	556.44
592.915	539.97
593.116	576.2
593.317	593.06
593.518	597.9
593.719	573.69
593.92	608.75
594.121	664.17
594.322	603.72
594.523	601.2
594.724	550.82
594.925	618.44
595.126	640.53
595.327	645.95
595.528	591.12
595.729	606.62
595.929	579.69
596.13	601.39
596.331	612.82
596.532	597.52
596.733	673.27
596.934	645.57
597.135	632.58
597.335	621.54
597.536	578.53
597.737	611.85
597.938	595.58
598.138	618.05
598.339	597.9
598.54	627.16
598.74	577.37
598.941	593.64
599.142	650.22
599.342	625.22
599.543	569.62
599.744	582.4
599.944	602.17
600.145	575.82
600.345	633.36
600.546	698.65
600.746	648.47
600.947	688.38
601.147	613.02
601.348	649.05
601.548	577.75
601.749	613.4
601.949	583.76
602.15	564.19
602.35	607.4
602.551	659.71
602.751	582.99
602.951	573.49
603.152	533.77
603.352	608.17
603.552	624.25
603.753	623.48
603.953	609.72
604.153	615.92
604.354	593.64
604.554	624.45
604.754	599.45
604.954	586.47
605.155	625.8
605.355	572.52
605.555	620.96
605.755	662.23
605.955	603.72
606.155	621.73
606.356	591.7
606.556	623.28
606.756	600.23
606.956	548.5
607.156	652.93
607.356	602.17
607.556	600.81
607.756	591.12
607.956	612.43
608.156	621.93
608.356	603.91
608.556	604.88
608.756	617.47
608.956	570.2
609.156	607.98
609.356	574.65
609.556	579.69
609.755	614.18
609.955	565.16
610.155	611.66
610.355	583.18
610.555	543.07
610.755	602.75
610.954	543.65
611.154	587.83
611.354	610.3
611.554	546.37
611.753	557.8
611.953	514.79
612.153	591.7
612.352	603.33
612.552	524.67
612.752	499.67
612.951	574.27
613.151	569.62
613.351	532.61
613.55	558.57
613.75	605.65
613.949	584.73
614.149	599.65
614.348	577.37
614.548	560.32
614.747	499.29
614.947	534.94
615.146	520.6
615.346	546.17
615.545	577.37
615.745	547.14
615.944	600.04
616.144	552.57
616.343	585.89
616.542	533
616.742	570
616.941	562.25
617.14	482.82
617.34	543.85
617.539	533.77
617.738	500.06
617.938	611.08
618.137	526.8
618.336	502.19
618.535	571.36
618.734	509.36
618.934	560.12
619.133	537.26
619.332	556.83
619.531	505.68
619.73	539.59
619.929	575.43
620.128	576.59
620.328	588.02
620.527	510.14
620.726	539.59
620.925	565.55
621.124	515.56
621.323	570.59
621.522	511.49
621.721	489.02
621.92	499.48
622.119	569.62
622.318	518.08
622.517	524.09
622.715	526.6
622.914	484.37
623.113	519.05
623.312	478.94
623.511	522.92
623.71	521.57
623.909	505.29
624.107	581.82
624.306	476.42
624.505	489.6
624.704	504.32
624.902	516.14
625.101	554.5
625.3	543.85
625.499	482.24
625.697	491.92
625.896	486.31
626.095	531.25
626.293	454.92
626.492	480.3
626.69	528.74
626.889	490.96
627.088	502
627.286	429.93
