Data from pine_FLMT105791__91__17-21-31-077.txt Node

Date: Mon Mar 20 17:21:31 GMT 2023
User: antho
Spectrometer: FLMT10579
Trigger mode: 0
Integration Time (sec): 1.000000E-1
Scans to average: 10
Electric dark correction enabled: true
Nonlinearity correction enabled: false
Boxcar width: 0
XAxis mode: Wavelengths
Number of Pixels in Spectrum: 3648
>>>>>Begin Spectral Data<<<<<
345.248	-167.87
345.464	-167.87
345.681	-167.87
345.898	-161.47
346.114	-167.48
346.331	-17.13
346.548	19.29
346.764	-0.08
346.981	-11.9
347.197	-7.25
347.414	23.36
347.631	3.02
347.847	46.81
348.064	4.38
348.28	12.9
348.497	-51.42
348.713	-21.97
348.93	48.94
349.146	23.94
349.363	-5.89
349.579	21.62
349.796	7.86
350.012	-10.16
350.229	20.46
350.445	35.57
350.661	-9.38
350.878	-3.57
351.094	24.14
351.311	-4.34
351.527	17.55
351.743	2.63
351.96	51.84
352.176	17.74
352.392	22.01
352.609	44.87
352.825	-5.7
353.041	15.03
353.257	-5.89
353.474	10.96
353.69	18.33
353.906	25.88
354.122	-21.39
354.339	60.76
354.555	27.82
354.771	1.66
354.987	63.27
355.203	70.44
355.42	17.16
355.636	-8.41
355.852	-7.83
356.068	20.65
356.284	-12.09
356.5	58.43
356.716	27.63
356.932	5.73
357.148	43.51
357.364	12.13
357.58	56.88
357.796	70.64
358.012	44.29
358.228	20.65
358.444	-60.53
358.66	78.77
358.876	13.87
359.092	-5.89
359.308	22.2
359.524	43.32
359.74	18.91
359.956	-12.67
360.172	9.8
360.388	44.67
360.604	3.21
360.819	92.34
361.035	18.52
361.251	27.24
361.467	2.05
361.683	23.36
361.898	33.24
362.114	52.42
362.33	2.44
362.546	58.62
362.762	7.09
362.977	37.12
363.193	3.41
363.409	53.59
363.624	-5.51
363.84	-29.34
364.056	-20.81
364.271	32.66
364.487	20.65
364.703	12.9
364.918	-7.06
365.134	15.03
365.35	-13.84
365.565	115.2
365.781	14.26
365.996	39.64
366.212	76.06
366.427	32.08
366.643	1.86
366.858	-6.47
367.074	-6.09
367.289	66.96
367.505	91.56
367.72	-18.29
367.936	-31.86
368.151	55.91
368.367	38.86
368.582	25.88
368.798	-2.21
369.013	68.51
369.228	22.59
369.444	42.35
369.659	49.91
369.874	40.22
370.09	58.24
370.305	-45.03
370.52	10.58
370.736	70.64
370.951	38.86
371.166	58.24
371.381	77.03
371.597	42.35
371.812	-18.68
372.027	-11.51
372.242	21.43
372.458	84.39
372.673	33.05
372.888	-4.15
373.103	52.23
373.318	124.5
373.533	56.3
373.749	38.67
373.964	-16.74
374.179	64.44
374.394	-14.22
374.609	75.09
374.824	-17.32
375.039	74.12
375.254	8.44
375.469	68.31
375.684	15.81
375.899	53.59
376.114	41.77
376.329	43.9
376.544	36.34
376.759	66.57
376.974	-4.15
377.189	22.98
377.404	21.04
377.619	60.56
377.834	-38.25
378.049	-29.34
378.264	-9.57
378.478	21.81
378.693	-2.02
378.908	39.64
379.123	-4.73
379.338	74.51
379.553	27.24
379.767	11.35
379.982	52.81
380.197	49.32
380.412	16.19
380.626	36.34
380.841	87.88
381.056	58.43
381.271	91.76
381.485	-7.25
381.7	-6.09
381.915	4.96
382.129	10.77
382.344	52.81
382.559	33.83
382.773	40.8
382.988	-10.35
383.202	34.99
383.417	17.36
383.632	109.39
383.846	11.54
384.061	25.88
384.275	25.3
384.49	28.59
384.704	52.42
384.919	26.46
385.133	62.69
385.348	35.96
385.562	-0.08
385.777	75.29
385.991	12.51
386.206	6.12
386.42	12.71
386.634	49.71
386.849	46.03
387.063	21.81
387.277	-1.63
387.492	-4.73
387.706	-4.15
387.92	1.28
388.135	42.93
388.349	45.84
388.563	28.59
388.778	31.11
388.992	52.04
389.206	63.66
389.42	126.63
389.635	33.05
389.849	52.04
390.063	60.37
390.277	47.97
390.491	85.17
390.706	27.43
390.92	52.81
391.134	8.06
391.348	72.57
391.562	-10.74
391.776	30.14
391.99	14.64
392.205	51.26
392.419	7.48
392.633	37.51
392.847	83.04
393.061	11.35
393.275	113.46
393.489	27.43
393.703	54.36
393.917	80.52
394.131	1.86
394.345	53.59
394.559	64.44
394.773	33.44
394.986	29.37
395.2	22.01
395.414	71.8
395.628	-22.17
395.842	52.42
396.056	26.66
396.27	-23.52
396.484	59.4
396.697	29.37
396.911	80.32
397.125	34.41
397.339	82.65
397.553	47.39
397.766	96.21
397.98	95.44
398.194	71.99
398.408	22.98
398.621	66.37
398.835	71.8
399.049	76.84
399.262	71.99
399.476	50.68
399.69	57.27
399.903	120.82
400.117	15.23
400.331	52.81
400.544	26.27
400.758	170.42
400.971	66.57
401.185	87.69
401.398	11.74
401.612	67.54
401.826	46.81
402.039	97.18
402.253	31.89
402.466	73.54
402.68	33.44
402.893	61.14
403.106	80.32
403.32	34.21
403.533	82.07
403.747	56.69
403.96	66.18
404.174	84.78
404.387	16.19
404.6	36.92
404.814	73.93
405.027	53.39
405.24	56.69
405.454	30.53
405.667	97.96
405.88	-12.87
406.094	51.84
406.307	81.68
406.52	107.26
406.733	35.18
406.947	-1.05
407.16	101.25
407.373	87.49
407.586	17.36
407.799	4.18
408.012	93.11
408.226	61.34
408.439	114.04
408.652	-1.24
408.865	74.9
409.078	86.33
409.291	63.08
409.504	11.74
409.717	69.47
409.93	78.77
410.143	83.04
410.357	28.79
410.57	15.03
410.783	43.9
410.996	85.75
411.209	26.08
411.421	82.65
411.634	25.88
411.847	30.53
412.06	54.36
412.273	37.12
412.486	53.01
412.699	132.83
412.912	56.49
413.125	101.06
413.338	55.72
413.55	120.62
413.763	59.59
413.976	75.67
414.189	43.12
414.402	44.09
414.615	99.51
414.827	2.44
415.04	95.82
415.253	74.71
415.466	96.99
415.678	134.57
415.891	64.63
416.104	47.39
416.316	35.57
416.529	54.94
416.742	80.71
416.954	87.3
417.167	55.91
417.38	80.52
417.592	88.46
417.805	26.08
418.017	21.04
418.23	109.58
418.442	44.67
418.655	52.62
418.868	65.21
419.08	95.44
419.293	130.12
419.505	68.31
419.718	60.37
419.93	133.02
420.142	51.26
420.355	109.39
420.567	113.65
420.78	91.17
420.992	54.17
421.205	149.69
421.417	9.8
421.629	49.13
421.842	34.02
422.054	26.66
422.266	84.97
422.479	93.5
422.691	62.31
422.903	133.6
423.115	36.54
423.328	90.59
423.54	94.86
423.752	90.4
423.964	47
424.177	98.92
424.389	65.02
424.601	172.74
424.813	94.27
425.025	112.68
425.238	117.52
425.45	76.45
425.662	65.41
425.874	379.08
426.086	85.36
426.298	119.85
426.51	109.97
426.722	93.69
426.934	74.32
427.146	115.01
427.358	42.74
427.57	115.39
427.782	83.04
427.994	110.16
428.206	79.55
428.418	56.3
428.63	100.28
428.842	124.69
429.054	87.88
429.266	141.74
429.478	65.6
429.69	102.8
429.902	73.93
430.114	109
430.325	105.12
430.537	93.11
430.749	107.84
430.961	24.72
431.173	93.69
431.384	97.57
431.596	36.34
431.808	90.4
432.02	89.43
432.231	119.46
432.443	140.58
432.655	113.65
432.867	102.22
433.078	120.24
433.29	178.55
433.502	138.25
433.713	149.1
433.925	121.01
434.136	146.78
434.348	115.78
434.56	54.75
434.771	221.76
434.983	77.61
435.194	97.18
435.406	131.86
435.617	161.89
435.829	182.43
436.04	136.7
436.252	172.55
436.463	195.6
436.675	138.84
436.886	139.8
437.098	136.32
437.309	221.57
437.521	121.21
437.732	169.64
437.943	159.18
438.155	132.25
438.366	90.21
438.578	212.27
438.789	165.19
439	156.27
439.211	127.21
439.423	152.2
439.634	200.64
439.845	173.9
440.057	181.46
440.268	180.88
440.479	121.79
440.69	158.79
440.902	152.2
441.113	165.19
441.324	167.7
441.535	180.49
441.746	188.44
441.957	121.59
442.168	162.86
442.38	182.24
442.591	196.19
442.802	195.99
443.013	186.11
443.224	183.4
443.435	168.67
443.646	154.53
443.857	181.27
444.068	168.87
444.279	170.42
444.49	238.62
444.701	200.64
444.912	295.77
445.123	222.73
445.334	199.48
445.545	216.72
445.756	196.19
445.967	152.79
446.178	196.96
446.388	260.51
446.599	231.83
446.81	232.03
447.021	192.31
447.232	262.64
447.443	279.69
447.653	198.12
447.864	270.58
448.075	225.44
448.286	252.18
448.496	248.3
448.707	270
448.918	219.82
449.129	326.77
449.339	184.95
449.55	236.29
449.761	199.67
449.971	289.96
450.182	227.57
450.393	260.32
450.603	233.97
450.814	270.97
451.024	239.58
451.235	286.47
451.446	296.35
451.656	309.33
451.867	219.24
452.077	261.67
452.288	317.86
452.498	315.34
452.709	222.92
452.919	233.58
453.13	226.99
453.34	297.32
453.55	206.45
453.761	288.22
453.971	286.67
454.182	293.64
454.392	285.7
454.602	303.91
454.813	300.61
455.023	305.26
455.233	221.95
455.444	271.36
455.654	202.58
455.864	244.82
456.075	254.89
456.285	249.27
456.495	250.24
456.705	277.75
456.916	317.47
457.126	303.52
457.336	279.11
457.546	209.94
457.756	254.7
457.967	332.58
458.177	286.86
458.387	288.8
458.597	268.45
458.807	250.05
459.017	262.25
459.227	289.38
459.437	279.5
459.647	317.28
459.857	295.58
460.068	288.99
460.278	331.81
460.488	326
460.698	336.26
460.908	273.88
461.117	268.65
461.327	262.83
461.537	297.71
461.747	316.89
461.957	297.13
462.167	420.74
462.377	363.2
462.587	316.31
462.797	329.29
463.007	312.82
463.216	317.28
463.426	344.6
463.636	331.61
463.846	280.27
464.056	324.45
464.265	344.21
464.475	282.6
464.685	309.53
464.895	350.6
465.104	329.68
465.314	362.03
465.524	292.09
465.733	282.98
465.943	380.44
466.153	398.26
466.362	331.61
466.572	364.55
466.782	327.74
466.991	332.39
467.201	410.28
467.41	292.28
467.62	375.98
467.829	313.79
468.039	370.75
468.249	337.43
468.458	352.93
468.668	367.46
468.877	380.83
469.086	415.12
469.296	377.73
469.505	309.53
469.715	436.24
469.924	372.3
470.134	418.99
470.343	419.19
470.552	366.1
470.762	352.73
470.971	323.86
471.18	360.87
471.39	370.56
471.599	331.03
471.808	393.42
472.018	352.15
472.227	428.49
472.436	410.08
472.645	395.94
472.855	373.46
473.064	413.18
473.273	411.44
473.482	405.43
473.691	467.63
473.901	426.55
474.11	391.09
474.319	507.92
474.528	407.76
474.737	469.56
474.946	434.88
475.155	440.31
475.364	488.74
475.573	444.18
475.783	437.79
475.992	492.23
476.201	476.54
476.41	426.74
476.619	399.81
476.828	435.46
477.037	412.41
477.245	451.54
477.454	484.09
477.663	462.01
477.872	467.43
478.081	515.29
478.29	439.73
478.499	575.15
478.708	486.42
478.917	574.77
479.125	474.6
479.334	509.47
479.543	469.56
479.752	500.37
479.961	500.95
480.169	501.92
480.378	473.44
480.587	610.42
480.796	519.94
481.004	518.77
481.213	539.7
481.422	534.47
481.63	524.78
481.839	549
482.048	613.32
482.256	540.28
482.465	545.71
482.674	560.24
482.882	561.79
483.091	629.02
483.299	542.8
483.508	576.12
483.716	563.72
483.925	581.16
484.134	519.55
484.342	541.64
484.551	605.77
484.759	598.21
484.967	572.25
485.176	606.35
485.384	615.65
485.593	629.4
485.801	591.62
486.01	558.69
486.218	546.67
486.426	503.47
486.635	541.64
486.843	505.79
487.051	546.29
487.26	533.31
487.468	545.9
487.676	580.97
487.885	586.39
488.093	589.49
488.301	599.37
488.509	603.83
488.717	651.88
488.926	597.24
489.134	601.31
489.342	623.98
489.55	586.39
489.758	590.85
489.967	634.05
490.175	746.62
490.383	652.65
490.591	701.48
490.799	628.82
491.007	702.06
491.215	663.5
491.423	639.29
491.631	691.98
491.839	662.15
492.047	695.86
492.255	636.19
492.463	585.62
492.671	633.47
492.879	688.5
493.087	651.88
493.295	708.07
493.503	698.96
493.711	715.23
493.919	741
494.127	739.45
494.334	741.39
494.542	652.65
494.75	701.28
494.958	719.11
495.166	750.3
495.374	720.85
495.581	746.23
495.789	735.19
495.997	783.24
496.205	722.79
496.412	730.73
496.62	730.93
496.828	737.51
497.035	731.9
497.243	773.55
497.451	734.03
497.658	728.22
497.866	752.82
498.074	800.29
498.281	727.25
498.489	828.96
498.696	773.75
498.904	762.9
499.112	746.04
499.319	802.81
499.527	738.1
499.734	809.2
499.942	714.46
500.149	762.31
500.357	779.75
500.564	729.38
500.771	799.71
500.979	757.47
501.186	732.48
501.394	756.89
501.601	768.13
501.808	775.49
502.016	763.48
502.223	769.48
502.43	766.77
502.638	781.69
502.845	757.86
503.052	813.66
503.26	799.71
503.467	855.7
503.674	803.39
503.881	818.89
504.089	898.33
504.296	818.11
504.503	774.71
504.71	808.62
504.917	784.01
505.125	819.47
505.332	827.22
505.539	848.53
505.746	895.23
505.953	883.41
506.16	860.54
506.367	914.99
506.574	895.23
506.781	884.96
506.988	838.46
507.195	863.45
507.402	867.33
507.609	865.39
507.816	862.48
508.023	836.13
508.23	803.58
508.437	829.93
508.644	869.26
508.851	921.19
509.058	924.29
509.265	893.87
509.472	917.31
509.679	975.24
509.885	889.8
510.092	886.12
510.299	891.54
510.506	884.76
510.713	884.38
510.92	923.9
511.126	905.88
511.333	975.05
511.54	955.48
511.746	979.31
511.953	957.81
512.16	1005.85
512.367	935.72
512.573	934.94
512.78	912.47
512.987	947.54
513.193	955.87
513.4	832.26
513.606	912.08
513.813	960.13
514.02	941.72
514.226	1038.79
514.433	989.97
514.639	936.88
514.846	934.75
515.052	956.06
515.259	945.79
515.465	951.22
515.672	967.49
515.878	1068.05
516.085	980.28
516.291	1002.37
516.497	965.17
516.704	962.26
516.91	893.87
517.117	905.3
517.323	881.28
517.529	903.94
517.736	863.84
517.942	923.9
518.148	917.12
518.354	951.8
518.561	950.83
518.767	937.07
518.973	997.52
519.179	987.26
519.386	957.03
519.592	964.78
519.798	980.86
520.004	1082.19
520.21	1033.75
520.417	1088.78
520.623	1097.11
520.829	1069.99
521.035	1105.05
521.241	1096.14
521.447	1112.22
521.653	1189.14
521.859	1102.53
522.065	1080.84
522.271	1226.92
522.477	1140.12
522.683	1192.82
522.889	1148.26
523.095	1141.48
523.301	1130.24
523.507	1132.76
523.713	1119.2
523.919	1152.72
524.125	1213.55
524.331	1169.38
524.537	1267.99
524.742	1205.22
524.948	1185.26
525.154	1252.69
525.36	1298.8
525.566	1216.07
525.772	1252.69
525.977	1195.15
526.183	1204.06
526.389	1237.19
526.595	1173.83
526.8	1174.41
527.006	1144.77
527.212	1085.48
527.417	1083.55
527.623	1101.57
527.829	1193.01
528.034	1180.03
528.24	1179.84
528.446	1188.56
528.651	1260.44
528.857	1257.73
529.062	1306.16
529.268	1237.58
529.473	1293.96
529.679	1244.16
529.884	1329.8
530.09	1329.03
530.295	1299.38
530.501	1322.83
530.706	1289.31
530.912	1277.68
531.117	1317.59
531.323	1279.04
531.528	1352.27
531.733	1346.27
531.939	1293.76
532.144	1337.16
532.35	1327.09
532.555	1373.39
532.76	1324.18
532.966	1356.15
533.171	1329.8
533.376	1280.39
533.581	1304.23
533.787	1324.57
533.992	1342.59
534.197	1374.56
534.402	1348.59
534.607	1346.85
534.813	1414.27
535.018	1323.41
535.223	1373.59
535.428	1386.96
535.633	1427.84
535.838	1403.04
536.043	1399.94
536.249	1531.1
536.454	1408.27
536.659	1452.44
536.864	1407.69
537.069	1377.07
537.274	1393.35
537.479	1410.98
537.684	1436.36
537.889	1367.58
538.094	1456.32
538.299	1414.66
538.504	1425.9
538.708	1424.74
538.913	1457.09
539.118	1451.67
539.323	1439.85
539.528	1392.38
539.733	1371.07
539.938	1407.3
540.142	1420.09
540.347	1413.31
540.552	1354.21
540.757	1387.92
540.962	1399.55
541.166	1354.21
541.371	1363.51
541.576	1407.69
541.781	1279.81
541.985	1404.97
542.19	1375.72
542.395	1418.92
542.599	1484.6
542.804	1433.84
543.008	1471.62
543.213	1399.16
543.418	1376.69
543.622	1447.99
543.827	1357.51
544.031	1459.03
544.236	1469.49
544.44	1467.94
544.645	1530.91
544.849	1412.14
545.054	1488.87
545.258	1536.14
545.463	1530.13
545.667	1475.3
545.872	1504.37
546.076	1464.07
546.281	1460.19
546.485	1435.78
546.689	1468.52
546.894	1508.24
547.098	1495.26
547.302	1448.18
547.507	1456.32
547.711	1509.6
547.915	1541.76
548.119	1450.12
548.324	1456.12
548.528	1534.4
548.732	1460.39
548.936	1524.9
549.141	1537.11
549.345	1493.9
549.549	1495.84
549.753	1507.27
549.957	1546.8
550.161	1551.64
550.366	1527.23
550.57	1473.56
550.774	1479.18
550.978	1498.17
551.182	1537.88
551.386	1467.17
551.59	1501.07
551.794	1489.06
551.998	1512.12
552.202	1503.2
552.406	1491
552.61	1526.84
552.814	1506.69
553.018	1557.45
553.222	1488.29
553.426	1473.56
553.63	1587.68
553.833	1500.69
554.037	1466
554.241	1540.79
554.445	1525.48
554.649	1528.78
554.853	1485.19
555.056	1548.54
555.26	1555.13
555.464	1539.63
555.668	1542.73
555.871	1562.88
556.075	1561.52
556.279	1517.93
556.483	1480.73
556.686	1554.16
556.89	1481.12
557.094	1511.34
557.297	1449.73
557.501	1540.6
557.704	1442.95
557.908	1516.57
558.112	1459.8
558.315	1562.88
558.519	1498.75
558.722	1447.02
558.926	1483.83
559.129	1436.94
559.333	1439.46
559.536	1407.69
559.74	1383.86
559.943	1395.67
560.147	1420.67
560.35	1409.43
560.553	1418.15
560.757	1397.03
560.96	1492.74
561.164	1473.37
561.367	1522.97
561.57	1467.94
561.774	1454.57
561.977	1445.66
562.18	1453.02
562.384	1543.31
562.587	1443.72
562.79	1416.21
562.993	1424.54
563.197	1514.83
563.4	1525.29
563.603	1477.82
563.806	1527.42
564.009	1439.85
564.212	1491.19
564.416	1393.16
564.619	1500.69
564.822	1367.97
565.025	1480.34
565.228	1451.28
565.431	1442.37
565.634	1329.8
565.837	1429.19
566.04	1410.98
566.243	1423.96
566.446	1337.55
566.649	1416.6
566.852	1337.36
567.055	1366.42
567.258	1411.76
567.461	1457.29
567.664	1446.05
567.867	1355.76
568.07	1416.99
568.273	1377.46
568.475	1441.4
568.678	1379.01
568.881	1397.61
569.084	1355.57
569.287	1288.92
569.489	1345.49
569.692	1365.45
569.895	1389.67
570.098	1301.51
570.3	1283.49
570.503	1248.62
570.706	1264.51
570.909	1294.54
571.111	1263.93
571.314	1265.86
571.516	1259.66
571.719	1292.99
571.922	1239.13
572.124	1264.7
572.327	1290.28
572.529	1211.81
572.732	1239.32
572.935	1306.74
573.137	1333.48
573.34	1289.31
573.542	1286.79
573.745	1292.6
573.947	1301.9
574.15	1259.28
574.352	1252.11
574.554	1321.28
574.757	1244.94
574.959	1235.06
575.162	1220.14
575.364	1234.09
575.566	1325.15
575.769	1195.73
575.971	1258.31
576.173	1132.37
576.376	1202.51
576.578	1261.79
576.78	1295.51
576.982	1190.69
577.185	1224.01
577.387	1156.59
577.589	1194.37
577.791	1229.63
577.993	1247.26
578.196	1206.58
578.398	1215.1
578.6	1243.58
578.802	1137.22
579.004	1173.83
579.206	1166.86
579.408	1259.47
579.61	1171.9
579.812	1202.51
580.014	1169.38
580.216	1167.63
580.418	1214.71
580.62	1168.99
580.822	1145.74
581.024	1199.8
581.226	1214.13
581.428	1174.8
581.63	1280.2
581.832	1182.94
582.034	1227.89
582.236	1221.3
582.438	1260.63
582.64	1221.3
582.841	1278.65
583.043	1318.18
583.245	1224.21
583.447	1218.59
583.649	1186.62
583.85	1211.61
584.052	1266.44
584.254	1180.03
584.456	1254.24
584.657	1170.73
584.859	1172.48
585.061	1188.95
585.262	1190.3
585.464	1149.62
585.666	1239.13
585.867	1129.66
586.069	1203.86
586.27	1170.93
586.472	1171.51
586.674	1157.95
586.875	1139.93
587.077	1133.92
587.278	1178.48
587.48	1131.4
587.681	1279.81
587.883	1192.82
588.084	1122.88
588.285	1131.79
588.487	1153.49
588.688	1125.4
588.89	1060.3
589.091	1059.91
589.292	1079.09
589.494	1008.57
589.695	998.88
589.896	932.42
590.098	976.79
590.299	1000.82
590.5	1010.31
590.702	1017.29
590.903	1053.32
591.104	1086.45
591.305	1097.88
591.507	1138.57
591.708	1096.72
591.909	1064.56
592.11	1159.3
592.311	1095.17
592.512	1075.41
592.714	1035.5
592.915	1070.18
593.116	1054.29
593.317	1058.94
593.518	1061.65
593.719	1051.19
593.92	1078.7
594.121	1134.5
594.322	1058.94
594.523	1058.36
594.724	1018.84
594.925	1033.95
595.126	1089.55
595.327	1059.72
595.528	1077.15
595.729	1052.16
595.929	1050.61
596.13	1063.98
596.331	1084.32
596.532	1048.87
596.733	1097.11
596.934	1088.97
597.135	1094.59
597.335	1122.88
597.536	1027.55
597.737	1047.7
597.938	995.97
598.138	1059.52
598.339	1064.56
598.54	1076.19
598.74	1062.24
598.941	1099.63
599.142	1099.63
599.342	1067.47
599.543	1041.12
599.744	1065.14
599.944	1055.07
600.145	1075.22
600.345	1051.97
600.546	1140.51
600.746	1107.18
600.947	1138.77
601.147	1082.58
601.348	1103.31
601.548	1030.46
601.749	1069.4
601.949	1029.1
602.15	1019.61
602.35	1050.03
602.551	1104.28
602.751	1046.54
602.951	1026.59
603.152	972.34
603.352	1046.93
603.552	1048.87
603.753	1099.63
603.953	1062.62
604.153	1053.32
604.354	1044.41
604.554	1091.3
604.754	1068.44
604.954	1009.73
605.155	1065.53
605.355	1051
605.555	1091.49
605.755	1097.11
605.955	1050.03
606.155	1085.48
606.356	1082.97
606.556	1112.22
606.756	1076.19
606.956	994.42
607.156	1103.5
607.356	1018.25
607.556	1058.17
607.756	1065.34
607.956	1110.09
608.156	1062.82
608.356	1034.53
608.556	1063.59
608.756	1059.33
608.956	1036.66
609.156	1047.9
609.356	1012.44
609.556	1003.92
609.755	1085.1
609.955	1026.97
610.155	1038.4
610.355	1064.37
610.555	963.23
610.755	1049.25
610.954	976.41
611.154	1002.95
611.354	1053.9
611.554	1002.75
611.753	1009.73
611.953	969.04
612.153	1054.29
612.352	1008.76
612.552	973.89
612.752	936.49
612.951	999.85
613.151	1006.82
613.351	954.32
613.55	992.68
613.75	982.41
613.949	971.37
614.149	963.04
614.348	970.21
614.548	964.2
614.747	899.29
614.947	912.08
615.146	894.84
615.346	1020.39
615.545	977.57
615.745	943.27
615.944	994.42
616.144	980.67
616.343	1006.44
616.542	961.49
616.742	929.91
616.941	970.59
617.14	909.56
617.34	967.69
617.539	940.56
617.738	928.16
617.938	1003.53
618.137	939.79
618.336	929.32
618.535	1009.34
618.734	966.33
618.934	970.21
619.133	945.41
619.332	957.61
619.531	891.35
619.73	972.14
619.929	999.85
