Data from pine_FLMT105791__118__17-22-17-075.txt Node

Date: Mon Mar 20 17:22:17 GMT 2023
User: antho
Spectrometer: FLMT10579
Trigger mode: 0
Integration Time (sec): 1.000000E-1
Scans to average: 10
Electric dark correction enabled: true
Nonlinearity correction enabled: false
Boxcar width: 0
XAxis mode: Wavelengths
Number of Pixels in Spectrum: 3648
>>>>>Begin Spectral Data<<<<<
345.248	-170.58
345.464	-170.58
345.681	-170.58
345.898	-172.13
346.114	-150.04
346.331	-25.46
346.548	34.02
346.764	-30.31
346.981	-7.06
347.197	-39.41
347.414	24.72
347.631	-7.83
347.847	49.32
348.064	5.34
348.28	26.27
348.497	-29.53
348.713	-0.08
348.93	24.33
349.146	44.87
349.363	-25.66
349.579	7.48
349.796	2.05
350.012	-14.61
350.229	16.78
350.445	0.31
350.661	-19.84
350.878	5.34
351.094	28.59
351.311	31.5
351.527	23.75
351.743	-7.44
351.96	47.58
352.176	60.56
352.392	43.12
352.609	26.08
352.825	-13.84
353.041	8.25
353.257	12.71
353.474	21.04
353.69	25.69
353.906	16.78
354.122	3.99
354.339	40.61
354.555	-2.02
354.771	10.38
354.987	64.44
355.203	66.18
355.42	6.12
355.636	-7.44
355.852	-11.12
356.068	6.12
356.284	-12.87
356.5	71.8
356.716	21.23
356.932	-2.21
357.148	32.86
357.364	27.43
357.58	59.01
357.796	82.65
358.012	50.68
358.228	46.22
358.444	-49.1
358.66	60.76
358.876	7.09
359.092	-9.38
359.308	28.98
359.524	2.63
359.74	10.77
359.956	7.09
360.172	29.95
360.388	56.11
360.604	-2.41
360.819	79.16
361.035	37.31
361.251	19.1
361.467	9.8
361.683	36.73
361.898	25.49
362.114	34.6
362.33	25.3
362.546	53.01
362.762	21.43
362.977	24.14
363.193	5.93
363.409	35.38
363.624	-10.35
363.84	-2.41
364.056	8.64
364.271	39.44
364.487	5.54
364.703	3.41
364.918	-35.73
365.134	19.1
365.35	8.83
365.565	100.09
365.781	35.96
365.996	18.13
366.212	94.66
366.427	28.59
366.643	9.22
366.858	25.3
367.074	0.31
367.289	69.47
367.505	119.07
367.72	-51.81
367.936	-7.06
368.151	58.62
368.367	38.47
368.582	40.61
368.798	-5.31
369.013	70.06
369.228	29.76
369.444	22.39
369.659	74.12
369.874	24.91
370.09	96.6
370.305	-43.09
370.52	16.58
370.736	53.97
370.951	37.7
371.166	73.74
371.381	98.54
371.597	44.67
371.812	-6.86
372.027	-3.57
372.242	26.46
372.458	105.32
372.673	8.44
372.888	6.31
373.103	59.01
373.318	113.26
373.533	37.7
373.749	45.26
373.964	-31.27
374.179	88.66
374.394	11.54
374.609	58.43
374.824	-26.43
375.039	55.33
375.254	-1.24
375.469	75.29
375.684	45.26
375.899	77.81
376.114	20.65
376.329	34.99
376.544	81.49
376.759	71.99
376.974	3.6
377.189	23.17
377.404	12.51
377.619	71.02
377.834	-17.13
378.049	-15.58
378.264	-5.7
378.478	31.31
378.693	-26.24
378.908	48.36
379.123	4.76
379.338	72.77
379.553	45.84
379.767	38.86
379.982	33.83
380.197	58.04
380.412	38.09
380.626	46.22
380.841	106.29
381.056	29.37
381.271	87.11
381.485	6.12
381.7	-3.76
381.915	35.57
382.129	21.62
382.344	38.47
382.559	19.88
382.773	63.86
382.988	-12.67
383.202	30.34
383.417	19.68
383.632	128.57
383.846	58.82
384.061	40.22
384.275	19.68
384.49	47
384.704	55.72
384.919	32.86
385.133	23.75
385.348	86.91
385.562	-2.02
385.777	93.31
385.991	30.92
386.206	35.96
386.42	13.87
386.634	81.1
386.849	35.76
387.063	56.69
387.277	37.51
387.492	14.84
387.706	10.19
387.92	33.44
388.135	74.9
388.349	17.74
388.563	54.17
388.778	37.7
388.992	61.72
389.206	60.76
389.42	112.49
389.635	43.12
389.849	64.05
390.063	84.78
390.277	49.71
390.491	114.23
390.706	82.84
390.92	73.35
391.134	37.31
391.348	75.48
391.562	-2.79
391.776	27.04
391.99	44.48
392.205	65.99
392.419	20.26
392.633	40.61
392.847	83.42
393.061	15.03
393.275	109.97
393.489	31.89
393.703	57.66
393.917	69.86
394.131	31.11
394.345	81.49
394.559	67.34
394.773	42.16
394.986	59.79
395.2	41.77
395.414	93.5
395.628	21.81
395.842	68.51
396.056	43.9
396.27	13.48
396.484	58.04
396.697	71.8
396.911	106.09
397.125	65.79
397.339	57.85
397.553	67.92
397.766	109.19
397.98	77.61
398.194	109
398.408	34.21
398.621	82.07
398.835	95.44
399.049	58.82
399.262	95.63
399.476	108.42
399.69	80.32
399.903	119.85
400.117	48.74
400.331	96.21
400.544	69.86
400.758	157.82
400.971	69.67
401.185	125.27
401.398	16
401.612	124.11
401.826	95.82
402.039	124.89
402.253	70.44
402.466	91.95
402.68	70.64
402.893	97.76
403.106	83.62
403.32	81.68
403.533	102.02
403.747	68.12
403.96	87.69
404.174	118.11
404.387	41.77
404.6	71.22
404.814	105.9
405.027	78.39
405.24	79.94
405.454	71.61
405.667	133.6
405.88	25.69
406.094	83.04
406.307	103.77
406.52	86.52
406.733	67.15
406.947	3.41
407.16	159.37
407.373	119.07
407.586	46.03
407.799	32.08
408.012	122.76
408.226	89.62
408.439	127.6
408.652	50.68
408.865	104.16
409.078	95.82
409.291	117.33
409.504	56.11
409.717	116.94
409.93	104.93
410.143	83.23
410.357	54.94
410.57	48.16
410.783	88.27
410.996	118.3
411.209	96.6
411.421	148.52
411.634	75.67
411.847	63.27
412.06	98.15
412.273	93.89
412.486	106.48
412.699	171.97
412.912	106.48
413.125	116.56
413.338	66.76
413.55	139.8
413.763	114.42
413.976	117.91
414.189	96.99
414.402	90.98
414.615	164.8
414.827	60.56
415.04	119.46
415.253	121.21
415.466	151.62
415.678	159.18
415.891	108.22
416.104	127.4
416.316	86.14
416.529	71.41
416.742	125.27
416.954	153.17
417.167	104.54
417.38	104.93
417.592	154.92
417.805	89.62
418.017	58.04
418.23	121.79
418.442	90.21
418.655	102.8
418.868	116.17
419.08	145.23
419.293	151.24
419.505	109.77
419.718	134.77
419.93	154.53
420.142	94.66
420.355	157.24
420.567	179.72
420.78	135.93
420.992	101.06
421.205	169.84
421.417	96.02
421.629	120.62
421.842	102.99
422.054	108.81
422.266	150.27
422.479	177
422.691	120.62
422.903	162.28
423.115	109.97
423.328	153.75
423.54	155.3
423.752	131.09
423.964	122.95
424.177	156.85
424.389	105.12
424.601	254.89
424.813	171.39
425.025	153.17
425.238	161.31
425.45	138.64
425.662	128.76
425.874	462.98
426.086	146.59
426.298	171.97
426.51	171.58
426.722	142.32
426.934	137.87
427.146	222.53
427.358	128.95
427.57	185.72
427.782	137.67
427.994	161.12
428.206	131.09
428.418	106.48
428.63	178.55
428.842	190.76
429.054	166.74
429.266	182.04
429.478	115.01
429.69	148.52
429.902	111.52
430.114	202.97
430.325	172.55
430.537	146.78
430.749	140.97
430.961	97.96
431.173	153.56
431.384	172.94
431.596	100.86
431.808	150.27
432.02	167.32
432.231	216.53
432.443	235.32
432.655	193.09
432.867	156.66
433.078	185.14
433.29	260.12
433.502	214.4
433.713	228.54
433.925	186.11
434.136	246.75
434.348	140.77
434.56	135.74
434.771	299.65
434.983	146.97
435.194	172.94
435.406	190.37
435.617	238.62
435.829	242.49
436.04	259.54
436.252	250.24
436.463	273.49
436.675	246.37
436.886	238.23
437.098	254.12
437.309	313.79
437.521	240.55
437.732	261.48
437.943	239.58
438.155	241.91
438.366	183.4
438.578	292.67
438.789	226.22
439	242.1
439.211	244.62
439.423	253.34
439.634	246.17
439.845	254.31
440.057	243.85
440.268	260.7
440.479	229.32
440.69	260.7
440.902	231.83
441.113	238.81
441.324	239.2
441.535	290.35
441.746	324.06
441.957	255.47
442.168	246.95
442.38	295
442.591	282.02
442.802	239.39
443.013	268.07
443.224	280.27
443.435	244.82
443.646	264.97
443.857	267.48
444.068	255.86
444.279	282.02
444.49	354.67
444.701	274.65
444.912	387.03
445.123	330.45
445.334	302.16
445.545	313.4
445.756	294.8
445.967	277.75
446.178	313.6
446.388	321.35
446.599	348.47
446.81	343.43
447.021	279.11
447.232	362.23
447.443	360.29
447.653	308.36
447.864	341.3
448.075	327.55
448.286	359.32
448.496	332.97
448.707	352.93
448.918	310.88
449.129	418.22
449.339	320.76
449.55	382.57
449.761	333.16
449.971	381.02
450.182	329.1
450.393	373.66
450.603	327.93
450.814	404.85
451.024	371.14
451.235	396.71
451.446	436.82
451.656	434.49
451.867	355.64
452.077	397.49
452.288	403.69
452.498	413.57
452.709	352.15
452.919	391.29
453.13	349.83
453.34	375.4
453.55	315.15
453.761	375.21
453.971	380.25
454.182	400.01
454.392	389.35
454.602	433.91
454.813	403.49
455.023	419.19
455.233	338.01
455.444	405.63
455.654	308.36
455.864	387.03
456.075	362.23
456.285	373.08
456.495	374.82
456.705	398.26
456.916	435.08
457.126	455.61
457.336	427.13
457.546	352.35
457.756	388.96
457.967	462.01
458.177	375.01
458.387	381.21
458.597	366.49
458.807	403.11
459.017	399.43
459.227	372.69
459.437	401.56
459.647	434.49
459.857	423.06
460.068	390.9
460.278	429.07
460.488	409.5
460.698	496.11
460.908	417.44
461.117	409.11
461.327	401.94
461.537	453.87
461.747	429.65
461.957	437.4
462.167	523.42
462.377	484.87
462.587	415.51
462.797	433.91
463.007	440.69
463.216	446.7
463.426	478.09
463.636	467.82
463.846	403.49
464.056	404.66
464.265	487.39
464.475	407.76
464.685	434.3
464.895	472.86
465.104	440.69
465.314	480.8
465.524	455.81
465.733	419.77
465.943	537.57
466.153	488.74
466.362	531.76
466.572	475.76
466.782	471.89
466.991	456.39
467.201	505.6
467.41	437.21
467.62	487.58
467.829	444.76
468.039	504.63
468.249	462.78
468.458	462.2
468.668	516.45
468.877	489.71
469.086	541.06
469.296	534.27
469.505	493.59
469.715	549.19
469.924	519.74
470.134	560.82
470.343	546.09
470.552	516.84
470.762	533.31
470.971	451.54
471.18	507.15
471.39	524.97
471.599	461.81
471.808	530.98
472.018	499.4
472.227	592.01
472.436	568.18
472.645	531.76
472.855	517.03
473.064	595.3
473.273	563.34
473.482	594.72
473.691	624.95
473.901	593.75
474.11	545.71
474.319	675.9
474.528	583.1
474.737	625.72
474.946	610.42
475.155	627.66
475.364	642.19
475.573	598.4
475.783	606.15
475.992	620.69
476.201	648.97
476.41	610.22
476.619	569.73
476.828	618.94
477.037	601.89
477.245	600.54
477.454	621.85
477.663	614.68
477.872	632.31
478.081	712.52
478.29	622.24
478.499	744.68
478.708	648.2
478.917	718.72
479.125	657.5
479.334	675.71
479.543	652.27
479.752	697.6
479.961	684.23
480.169	758.05
480.378	695.86
480.587	824.12
480.796	721.05
481.004	704.38
481.213	731.9
481.422	741.97
481.63	726.47
481.839	780.72
482.048	817.92
482.256	758.83
482.465	775.49
482.674	783.24
482.882	804.36
483.091	846.01
483.299	775.88
483.508	789.05
483.716	809.98
483.925	800.68
484.134	761.35
484.342	787.31
484.551	812.69
484.759	794.86
484.967	822.18
485.176	858.03
485.384	813.27
485.593	834.78
485.801	830.13
486.01	780.53
486.218	757.66
486.426	692.57
486.635	718.92
486.843	688.88
487.051	762.9
487.26	753.21
487.468	786.15
487.676	816.18
487.885	775.49
488.093	833.42
488.301	858.03
488.509	877.01
488.717	892.32
488.926	853.57
489.134	885.93
489.342	875.66
489.55	847.95
489.758	881.28
489.967	864.42
490.175	956.26
490.383	894.06
490.591	939.98
490.799	890.96
491.007	951.02
491.215	951.41
491.423	902.01
491.631	887.67
491.839	896.97
492.047	962.26
492.255	857.83
492.463	867.13
492.671	891.74
492.879	955.67
493.087	910.34
493.295	918.86
493.503	960.52
493.711	956.06
493.919	990.94
494.127	985.71
494.334	998.3
494.542	942.11
494.75	985.32
494.958	964.97
495.166	1047.51
495.374	1010.5
495.581	1007.99
495.789	1053.13
495.997	1053.52
496.205	1015.93
496.412	1028.33
496.62	1003.14
496.828	1028.14
497.035	1026.59
497.243	1014.96
497.451	1044.6
497.658	1021.74
497.866	1032.01
498.074	1115.9
498.281	1014.96
498.489	1106.41
498.696	1051
498.904	1034.34
499.112	1004.89
499.319	1109.9
499.527	1057.97
499.734	1105.63
499.942	1005.27
500.149	1052.94
500.357	1048.48
500.564	1018.45
500.771	1058.17
500.979	1023.49
501.186	1015.74
501.394	1082.19
501.601	1067.85
501.808	1067.08
502.016	1032.59
502.223	1044.99
502.43	1066.89
502.638	1056.04
502.845	1044.6
503.052	1131.98
503.26	1067.85
503.467	1147.48
503.674	1123.46
503.881	1100.6
504.089	1186.62
504.296	1090.52
504.503	1030.46
504.71	1064.95
504.917	1052.35
505.125	1111.06
505.332	1117.45
505.539	1147.29
505.746	1239.32
505.953	1169.57
506.16	1177.13
506.367	1249.98
506.574	1210.26
506.781	1238.16
506.988	1162.79
507.195	1161.63
507.402	1189.72
507.609	1198.63
507.816	1150
508.023	1141.48
508.23	1171.51
508.437	1124.04
508.644	1197.08
508.851	1235.06
509.058	1238.55
509.265	1223.43
509.472	1249.98
509.679	1329.61
509.885	1226.73
510.092	1241.26
510.299	1253.27
510.506	1277.88
510.713	1271.87
510.92	1273.23
511.126	1287.76
511.333	1318.56
511.54	1349.76
511.746	1352.27
511.953	1358.28
512.16	1390.64
512.367	1343.56
512.573	1315.85
512.78	1286.21
512.987	1336.97
513.193	1288.34
513.4	1248.23
513.606	1311.98
513.813	1349.37
514.02	1298.8
514.226	1366.03
514.433	1367.77
514.639	1299.96
514.846	1321.86
515.052	1309.07
515.259	1358.67
515.465	1340.26
515.672	1366.61
515.878	1447.21
516.085	1389.09
516.291	1436.75
516.497	1352.27
516.704	1343.36
516.91	1304.23
517.117	1256.18
517.323	1235.25
517.529	1242.81
517.736	1273.03
517.942	1267.22
518.148	1277.49
518.354	1348.79
518.561	1371.26
518.767	1340.65
518.973	1356.54
519.179	1402.84
519.386	1358.67
519.592	1354.21
519.798	1360.41
520.004	1510.76
520.21	1462.32
520.417	1524.32
520.623	1566.75
520.829	1553.97
521.035	1534.2
521.241	1536.14
521.447	1562.49
521.653	1628.75
521.859	1545.05
522.065	1572.76
522.271	1661.88
522.477	1621.2
522.683	1646.38
522.889	1585.93
523.095	1613.06
523.301	1615.96
523.507	1576.83
523.713	1596.01
523.919	1582.45
524.125	1676.8
524.331	1655.3
524.537	1711.09
524.742	1736.86
524.948	1729.5
525.154	1723.88
525.36	1798.28
525.566	1690.17
525.772	1784.14
525.977	1726.01
526.183	1749.65
526.389	1758.18
526.595	1687.85
526.8	1676.61
527.006	1611.9
527.212	1565.2
527.417	1553.19
527.623	1594.65
527.829	1668.86
528.034	1675.83
528.24	1695.4
528.446	1698.69
528.651	1772.9
528.857	1776.39
529.062	1822.89
529.268	1791.11
529.473	1830.83
529.679	1807
529.884	1921.5
530.09	1842.07
530.295	1896.7
530.501	1859.51
530.706	1895.93
530.912	1836.06
531.117	1892.44
531.323	1891.28
531.528	1947.08
531.733	1932.35
531.939	1914.14
532.144	1921.12
532.35	1914.53
532.555	1923.44
532.76	1913.56
532.966	1886.82
533.171	1864.54
533.376	1828.7
533.581	1825.41
533.787	1887.6
533.992	1909.1
534.197	1915.5
534.402	1881.59
534.607	1917.44
534.813	2009.85
535.018	1900.39
535.223	1938.36
535.428	1965.68
535.633	1998.42
535.838	2006.17
536.043	1995.52
536.249	2072.43
536.454	2006.17
536.659	2031.75
536.864	1959.28
537.069	1965.87
537.274	1988.15
537.479	1980.02
537.684	1980.98
537.889	1948.44
538.094	2082.7
538.299	1992.8
538.504	2037.75
538.708	2032.33
538.913	2040.47
539.118	1996.68
539.323	2040.08
539.528	1960.64
539.733	2034.07
539.938	2031.75
540.142	2028.65
540.347	1972.46
540.552	1999.97
540.757	1991.45
540.962	1970.13
541.166	1951.34
541.371	1948.05
541.576	1958.9
541.781	1908.33
541.985	2059.45
542.19	2015.08
542.395	2087.35
542.599	2106.92
542.804	2074.18
543.008	2088.13
543.213	2031.36
543.418	1989.12
543.622	2082.9
543.827	2030.97
544.031	2077.86
544.236	2142.76
544.44	2062.16
544.645	2178.8
544.849	2053.45
545.054	2155.74
545.258	2196.82
545.463	2172.41
545.667	2095.49
545.872	2127.46
546.076	2130.95
546.281	2147.61
546.485	2090.06
546.689	2161.17
546.894	2168.53
547.098	2125.71
547.302	2075.34
547.507	2134.82
547.711	2166.21
547.915	2171.44
548.119	2080.38
548.324	2108.86
548.528	2175.51
548.732	2127.65
548.936	2167.56
549.141	2173.76
549.345	2134.63
549.549	2176.86
549.753	2136.56
549.957	2260.37
550.161	2194.3
550.366	2139.47
550.57	2123.58
550.774	2159.81
550.978	2178.8
551.182	2163.88
551.386	2145.28
551.59	2114.67
551.794	2124.55
551.998	2196.82
552.202	2154
552.406	2142.57
552.61	2189.65
552.814	2178.61
553.018	2207.48
553.222	2173.18
553.426	2143.93
553.63	2252.81
553.833	2188.29
554.037	2105.37
554.241	2153.81
554.445	2190.43
554.649	2146.44
554.853	2155.55
555.056	2209.61
555.26	2236.73
555.464	2239.64
555.668	2204.57
555.871	2210.19
556.075	2248.55
556.279	2167.95
556.483	2112.35
556.686	2111.38
556.89	2150.9
557.094	2143.93
557.297	2083.86
557.501	2165.63
557.704	2066.04
557.908	2169.89
558.112	2104.21
558.315	2163.49
558.519	2136.95
558.722	2100.91
558.926	2119.51
559.129	1982.15
559.333	2030.39
559.536	2021.48
559.74	2008.5
559.943	1995.32
560.147	2025.93
560.35	2029.23
560.553	2047.25
560.757	1995.52
560.96	2095.49
561.164	2047.25
561.367	2124.75
561.57	2056.35
561.774	2054.22
561.977	2027.48
562.18	1997.65
562.384	2123.58
562.587	2012.95
562.79	2022.25
562.993	2010.43
563.197	2047.83
563.4	2089.68
563.603	2115.25
563.806	2121.65
564.009	1986.8
564.212	2072.82
564.416	1949.02
564.619	2013.73
564.822	1928.48
565.025	2061.2
565.228	1971.88
565.431	2005.01
565.634	1908.14
565.837	1923.83
566.04	1927.9
566.243	1915.89
566.446	1833.35
566.649	1974.2
566.852	1861.64
567.055	1902.13
567.258	1937
567.461	2016.63
567.664	1946.5
567.867	1922.09
568.07	1942.04
568.273	1916.85
568.475	1939.72
568.678	1880.43
568.881	1866.09
569.084	1901.74
569.287	1753.33
569.489	1823.47
569.692	1881.79
569.895	1867.64
570.098	1765.93
570.3	1763.21
570.503	1744.61
570.706	1767.09
570.909	1756.43
571.111	1693.27
571.314	1719.43
571.516	1746.74
571.719	1775.61
571.922	1716.33
572.124	1766.51
572.327	1754.11
572.529	1712.26
572.732	1721.56
572.935	1766.89
573.137	1828.31
573.34	1736.86
573.542	1791.5
573.745	1762.05
573.947	1732.21
574.15	1760.69
574.352	1711.68
574.554	1786.66
574.757	1702.38
574.959	1702.57
575.162	1657.81
575.364	1659.56
575.566	1771.93
575.769	1630.69
575.971	1684.16
576.173	1595.23
576.376	1659.75
576.578	1649.29
576.78	1692.11
576.982	1594.07
577.185	1677.19
577.387	1593.1
577.589	1655.68
577.791	1689.01
577.993	1666.53
578.196	1657.43
578.398	1639.6
578.6	1658.78
578.802	1593.49
579.004	1584.77
579.206	1578.96
579.408	1601.43
579.61	1618.1
579.812	1653.75
580.014	1605.12
580.216	1591.55
580.418	1633.6
580.62	1568.69
580.822	1571.79
581.024	1619.84
581.226	1672.15
581.428	1600.27
581.63	1708.58
581.832	1587.1
582.034	1655.49
582.236	1641.73
582.438	1637.47
582.64	1687.07
582.841	1697.53
583.043	1718.26
583.245	1667.11
583.447	1687.07
583.649	1646.19
583.85	1625.46
584.052	1670.21
584.254	1599.69
584.456	1691.72
584.657	1613.83
584.859	1639.6
585.061	1622.94
585.262	1631.46
585.464	1557.65
585.666	1645.03
585.867	1563.46
586.069	1629.14
586.27	1623.91
586.472	1596.78
586.674	1571.98
586.875	1599.3
587.077	1573.53
587.278	1605.5
587.48	1560.36
587.681	1681.26
587.883	1615.19
588.084	1544.67
588.285	1555.71
588.487	1535.17
588.688	1565.59
588.89	1485.38
589.091	1431.32
589.292	1443.92
589.494	1375.52
589.695	1377.07
589.896	1332.13
590.098	1335.03
590.299	1383.27
590.5	1359.64
590.702	1380.17
590.903	1426.87
591.104	1472.01
591.305	1449.92
591.507	1495.07
591.708	1496.04
591.909	1399.94
592.11	1494.29
592.311	1485.38
592.512	1461.94
592.714	1397.03
592.915	1414.66
593.116	1439.65
593.317	1419.31
593.518	1466.78
593.719	1474.53
593.92	1484.02
594.121	1468.72
594.322	1460
594.523	1437.52
594.724	1409.04
594.925	1412.53
595.126	1425.12
595.327	1446.82
595.528	1456.32
595.729	1430.36
595.929	1426.87
596.13	1452.83
596.331	1458.64
596.532	1457.09
596.733	1528.2
596.934	1498.17
597.135	1494.29
597.335	1487.51
597.536	1421.64
597.737	1458.45
597.938	1419.31
598.138	1464.07
598.339	1414.08
598.54	1460.19
598.74	1452.64
598.941	1435.39
599.142	1497.78
599.342	1467.75
599.543	1401.29
599.744	1447.6
599.944	1460.97
600.145	1437.91
600.345	1460
600.546	1507.85
600.746	1503.59
600.947	1516.38
601.147	1434.81
601.348	1514.05
601.548	1428.42
601.749	1444.3
601.949	1382.11
602.15	1376.69
602.35	1438.49
602.551	1460
602.751	1406.52
602.951	1425.12
603.152	1386.37
603.352	1464.45
603.552	1404.39
603.753	1461.35
603.953	1472.98
604.153	1457.67
604.354	1426.67
604.554	1433.26
604.754	1439.27
604.954	1417.96
605.155	1475.5
605.355	1434.42
605.555	1473.56
605.755	1475.69
605.955	1434.62
606.155	1491.39
606.356	1426.67
606.556	1434.42
606.756	1468.72
606.956	1383.47
607.156	1502.04
607.356	1399.94
607.556	1425.32
607.756	1458.84
607.956	1454.19
608.156	1437.91
608.356	1397.03
608.556	1449.15
608.756	1417.37
608.956	1387.92
609.156	1408.85
609.356	1363.9
609.556	1360.61
609.755	1351.89
609.955	1371.65
610.155	1391.02
610.355	1384.44
610.555	1349.76
610.755	1368.94
610.954	1303.45
611.154	1341.81
611.354	1381.72
611.554	1356.92
611.753	1354.6
611.953	1287.76
612.153	1410.79
612.352	1375.72
612.552	1329.8
612.752	1279.81
612.951	1330.77
613.151	1304.81
613.351	1294.15
613.55	1318.37
613.75	1337.36
613.949	1341.43
614.149	1324.57
614.348	1317.21
614.548	1305
614.747	1288.53
614.947	1278.26
615.146	1241.65
615.346	1346.27
615.545	1310.43
615.745	1338.91
615.944	1335.81
616.144	1319.53
616.343	1322.44
616.542	1249.78
616.742	1279.04
616.941	1255.4
617.14	1226.15
617.34	1221.88
