Data from pine_FLMT105791__122__17-22-21-075.txt Node

Date: Mon Mar 20 17:22:21 GMT 2023
User: antho
Spectrometer: FLMT10579
Trigger mode: 0
Integration Time (sec): 1.000000E-1
Scans to average: 10
Electric dark correction enabled: true
Nonlinearity correction enabled: false
Boxcar width: 0
XAxis mode: Wavelengths
Number of Pixels in Spectrum: 3648
>>>>>Begin Spectral Data<<<<<
345.248	-144.1
345.464	-144.1
345.681	-144.1
345.898	-159.6
346.114	-166.96
346.331	-40.64
346.548	26.2
346.764	-5.57
346.981	-3.44
347.197	-28.82
347.414	19.62
347.631	-19.52
347.847	57.4
348.064	2.57
348.28	6.05
348.497	-20.88
348.713	7.02
348.93	30.47
349.146	53.72
349.363	9.74
349.579	7.02
349.796	7.02
350.012	-4.8
350.229	30.27
350.445	7.6
350.661	-25.53
350.878	1.02
351.094	25.04
351.311	29.11
351.527	45.77
351.743	6.44
351.96	17.68
352.176	49.84
352.392	20.59
352.609	26.4
352.825	-11.38
353.041	8.38
353.257	-7.9
353.474	14
353.69	-19.52
353.906	14
354.122	-28.82
354.339	45
354.555	7.02
354.771	-15.06
354.987	35.5
355.203	32.6
355.42	-8.86
355.636	-13.9
355.852	4.89
356.068	2.95
356.284	-11.58
356.5	59.92
356.716	16.32
356.932	16.71
357.148	55.46
357.364	-2.66
357.58	51.39
357.796	33.37
358.012	41.51
358.228	29.11
358.444	-48.58
358.66	54.3
358.876	36.47
359.092	-18.55
359.308	25.04
359.524	16.32
359.74	7.8
359.956	-16.81
360.172	-7.51
360.388	74.45
360.604	6.64
360.819	77.93
361.035	-7.12
361.251	44.8
361.467	-28.24
361.683	44.03
361.898	36.86
362.114	36.28
362.33	11.67
362.546	34.34
362.762	0.24
362.977	12.45
363.193	-0.73
363.409	63.4
363.624	-21.85
363.84	-23.59
364.056	3.54
364.271	6.44
364.487	7.22
364.703	4.5
364.918	13.61
365.134	-26.88
365.35	8.96
365.565	125.98
365.781	12.45
365.996	14
366.212	76.19
366.427	26.59
366.643	-23.2
366.858	13.22
367.074	9.35
367.289	64.76
367.505	119.59
367.72	-36.18
367.936	-9.64
368.151	52.55
368.367	27.95
368.582	34.34
368.798	-6.15
369.013	53.72
369.228	20.97
369.444	-14.29
369.659	63.99
369.874	35.89
370.09	70.18
370.305	-42.77
370.52	29.5
370.736	47.52
370.951	19.81
371.166	66.31
371.381	82.39
371.597	74.45
371.812	-21.65
372.027	-12.16
372.242	17.87
372.458	94.21
372.673	10.7
372.888	15.35
373.103	29.5
373.318	86.46
373.533	48.87
373.749	39.19
373.964	-5.76
374.179	65.73
374.394	-6.93
374.609	79.48
374.824	-8.67
375.039	72.9
375.254	9.35
375.469	58.17
375.684	24.46
375.899	56.43
376.114	23.88
376.329	44.03
376.544	73.09
376.759	57.59
376.974	-12.93
377.189	36.67
377.404	15.35
377.619	31.82
377.834	-30.76
378.049	-17.78
378.264	-25.53
378.478	29.3
378.693	-9.45
378.908	53.14
379.123	15.35
379.338	59.92
379.553	32.79
379.767	13.8
379.982	34.73
380.197	48.1
380.412	-4.02
380.626	43.06
380.841	91.11
381.056	48.49
381.271	68.05
381.485	3.73
381.7	1.4
381.915	26.2
382.129	-3.63
382.344	46.55
382.559	2.18
382.773	45.39
382.988	-17.58
383.202	43.64
383.417	6.25
383.632	135.87
383.846	28.92
384.061	32.02
384.275	16.32
384.49	41.7
384.704	59.14
384.919	43.84
385.133	6.44
385.348	48.87
385.562	-4.41
385.777	36.86
385.991	32.99
386.206	29.5
386.42	-16.61
386.634	78.9
386.849	42.09
387.063	56.24
387.277	-14.48
387.492	8.96
387.706	-26.3
387.92	-4.8
388.135	32.79
388.349	33.18
388.563	23.1
388.778	20.97
388.992	68.63
389.206	16.9
389.42	93.24
389.635	33.57
389.849	56.43
390.063	53.52
390.277	52.75
390.491	76.38
390.706	26.98
390.92	67.08
391.134	36.28
391.348	56.62
391.562	-17
391.776	24.65
391.99	-6.35
392.205	76.77
392.419	-3.63
392.633	0.63
392.847	89.17
393.061	-14.29
393.275	85.1
393.489	31.44
393.703	43.06
393.917	75.42
394.131	17.87
394.345	36.86
394.559	60.69
394.773	31.44
394.986	76.77
395.2	30.27
395.414	77.16
395.628	-3.25
395.842	38.02
396.056	39.19
396.27	-16.42
396.484	59.14
396.697	38.8
396.911	99.83
397.125	59.92
397.339	54.49
397.553	68.05
397.766	79.48
397.98	85.1
398.194	74.25
398.408	27.75
398.621	56.04
398.835	78.52
399.049	44.8
399.262	94.02
399.476	84.33
399.69	41.32
399.903	122.11
400.117	69.22
400.331	46.94
400.544	23.1
400.758	160.28
400.971	38.6
401.185	117.85
401.398	7.22
401.612	97.5
401.826	55.65
402.039	72.9
402.253	33.57
402.466	86.46
402.68	42.87
402.893	54.49
403.106	63.6
403.32	48.68
403.533	80.07
403.747	61.47
403.96	57.59
404.174	83.17
404.387	22.33
404.6	41.12
404.814	88.59
405.027	48.49
405.24	42.67
405.454	40.54
405.667	116.68
405.88	-2.66
406.094	57.59
406.307	73.48
406.52	63.6
406.733	26.4
406.947	21.55
407.16	96.53
407.373	108.93
407.586	21.55
407.799	7.6
408.012	107.58
408.226	49.84
408.439	116.68
408.652	16.13
408.865	59.14
409.078	81.23
409.291	49.26
409.504	11.87
409.717	77.16
409.93	74.25
410.143	37.05
410.357	14.58
410.57	14.97
410.783	21.94
410.996	76.38
411.209	50.62
411.421	81.81
411.634	70.38
411.847	47.52
412.06	67.67
412.273	52.94
412.486	90.72
412.699	141.1
412.912	57.2
413.125	88.01
413.338	66.12
413.55	87.43
413.763	51.2
413.976	73.67
414.189	31.24
414.402	62.05
414.615	100.8
414.827	40.54
415.04	93.05
415.253	72.7
415.466	108.35
415.678	113.97
415.891	83.17
416.104	82.97
416.316	48.87
416.529	33.57
416.742	109.71
416.954	140.13
417.167	73.67
417.38	62.05
417.592	112.62
417.805	68.83
418.017	26.4
418.23	88.98
418.442	56.43
418.655	65.53
418.868	68.44
419.08	109.9
419.293	131.22
419.505	63.79
419.718	95.18
419.93	118.62
420.142	81.23
420.355	130.44
420.567	125.02
420.78	125.98
420.992	87.82
421.205	131.99
421.417	45.58
421.629	78.71
421.842	46.16
422.054	42.09
422.266	100.99
422.479	110.87
422.691	70.38
422.903	106.8
423.115	76.58
423.328	93.24
423.54	102.54
423.752	90.92
423.964	60.89
424.177	102.15
424.389	81.62
424.601	183.33
424.813	93.63
425.025	145.17
425.238	109.71
425.45	82.58
425.662	92.08
425.874	386.96
426.086	98.86
426.298	101.18
426.51	112.81
426.722	82.78
426.934	72.12
427.146	118.04
427.358	75.03
427.57	114.55
427.782	116.68
427.994	98.28
428.206	75.42
428.418	71.54
428.63	112.42
428.842	118.43
429.054	113.39
429.266	147.1
429.478	78.9
429.69	82
429.902	54.88
430.114	148.07
430.325	122.3
430.537	100.41
430.749	117.27
430.961	49.65
431.173	89.56
431.384	132.96
431.596	42.87
431.808	80.26
432.02	125.4
432.231	110.87
432.443	156.21
432.655	145.55
432.867	94.4
433.078	136.45
433.29	216.66
433.502	170.74
433.713	161.05
433.925	125.98
434.136	176.16
434.348	106.8
434.56	82.78
434.771	234.48
434.983	100.99
435.194	86.07
435.406	120.56
435.617	175.2
435.829	204.06
436.04	163.57
436.252	176.75
436.463	198.25
436.675	186.05
436.886	168.61
437.098	145.55
437.309	216.46
437.521	156.21
437.732	157.56
437.943	174.03
438.155	178.1
438.366	113.2
438.578	214.91
438.789	185.46
439	205.61
439.211	155.43
439.423	174.42
439.634	206
439.845	195.35
440.057	176.94
440.268	191.08
440.479	153.5
440.69	181.2
440.902	169.58
441.113	156.01
441.324	161.05
441.535	195.93
441.746	222.66
441.957	156.21
442.168	169.58
442.38	206.39
442.591	211.62
442.802	178.3
443.013	196.51
443.224	221.31
443.435	164.15
443.646	171.32
443.857	183.72
444.068	175.58
444.279	174.23
444.49	240.1
444.701	181.01
444.912	265.87
445.123	232.35
445.334	224.99
445.545	204.65
445.756	212.01
445.967	174.23
446.178	243.98
446.388	224.99
446.599	246.88
446.81	223.05
447.021	177.71
447.232	262.19
447.443	269.36
447.653	164.73
447.864	256.76
448.075	212.01
448.286	247.85
448.496	253.66
448.707	253.86
448.918	229.45
449.129	312.76
449.339	181.2
449.55	234.48
449.761	221.5
449.971	270.52
450.182	230.41
450.393	267.42
450.603	230.8
450.814	244.94
451.024	272.46
451.235	299.19
451.446	289.31
451.656	299.39
451.867	250.37
452.077	263.54
452.288	301.91
452.498	316.44
452.709	245.14
452.919	291.83
453.13	248.63
453.34	293.96
453.55	176.36
453.761	316.24
453.971	271.29
454.182	290.09
454.392	274.01
454.602	291.44
454.813	284.47
455.023	291.44
455.233	241.46
455.444	261.61
455.654	198.25
455.864	274.39
456.075	248.04
456.285	247.27
456.495	295.13
456.705	283.31
456.916	329.42
457.126	344.92
457.336	292.99
457.546	211.43
457.756	274.2
457.967	314.5
458.177	262.58
458.387	281.37
458.597	238.75
458.807	271.29
459.017	293.58
459.227	275.36
459.437	265.48
459.647	323.8
459.857	307.53
460.068	266.45
460.278	327.87
460.488	308.69
460.698	344.34
460.908	275.56
461.117	234.48
461.327	254.44
461.537	333.1
461.747	311.98
461.957	295.51
462.167	403.04
462.377	336.01
462.587	305.01
462.797	327.29
463.007	299.97
463.216	338.33
463.426	352.28
463.636	334.07
463.846	277.11
464.056	287.76
464.265	350.92
464.475	304.81
464.685	324.77
464.895	348.41
465.104	324.96
465.314	362.16
465.524	303.26
465.733	296.48
465.943	397.04
466.153	378.63
466.362	362.16
466.572	319.54
466.782	277.49
466.991	305.98
467.201	392.58
467.41	260.06
467.62	347.44
467.829	319.93
468.039	330.97
468.249	324.19
468.458	344.34
468.668	345.31
468.877	340.27
469.086	384.83
469.296	391.03
469.505	342.98
469.715	403.62
469.924	359.64
470.134	384.06
470.343	404.21
470.552	357.9
470.762	389.09
470.971	342.98
471.18	369.14
471.39	383.09
471.599	325.35
471.808	386.38
472.018	347.44
472.227	409.82
472.436	407.31
472.645	392
472.855	354.8
473.064	404.01
473.273	387.35
473.482	423.97
473.691	450.32
473.901	417.96
474.11	396.65
474.319	491.39
474.528	409.82
474.737	481.9
474.946	421.64
475.155	425.13
475.364	468.34
475.573	422.61
475.783	437.34
475.992	467.75
476.201	475.5
476.41	435.2
476.619	402.46
476.828	444.7
477.037	430.36
477.245	440.05
477.454	460.59
477.663	441.4
477.872	447.41
478.081	508.05
478.29	449.93
478.499	509.8
478.708	462.33
478.917	534.98
479.125	469.11
479.334	497.79
479.543	488.1
479.752	480.15
479.961	483.06
480.169	533.24
480.378	447.99
480.587	606.09
480.796	531.69
481.004	497.59
481.213	526.65
481.422	539.05
481.63	513.87
481.839	534.6
482.048	618.68
482.256	544.48
482.465	552.03
482.674	565.4
482.882	547.77
483.091	596.21
483.299	573.73
483.508	597.95
483.716	560.56
483.925	566.57
484.134	510.96
484.342	555.72
484.551	579.93
484.759	589.04
484.967	582.65
485.176	580.52
485.384	599.7
485.593	605.51
485.801	564.43
486.01	568.7
486.218	559.78
486.426	491.39
486.635	508.83
486.843	513.28
487.051	524.52
487.26	565.4
487.468	582.84
487.676	604.35
487.885	503.79
488.093	589.81
488.301	588.07
488.509	622.75
488.717	656.08
488.926	617.71
489.134	593.3
489.342	617.71
489.55	554.94
489.758	633.6
489.967	583.62
490.175	712.07
490.383	640.96
490.591	708.97
490.799	603.57
491.007	689.01
491.215	678.55
491.423	669.83
491.631	634.38
491.839	665.57
492.047	702.58
492.255	593.5
492.463	596.98
492.671	629.92
492.879	726.79
493.087	628.37
493.295	688.43
493.503	723.5
493.711	730.67
493.919	741.52
494.127	731.06
494.334	704.32
494.542	662.86
494.75	664.21
494.958	671
495.166	766.9
495.374	726.41
495.581	707.03
495.789	714.98
495.997	743.07
496.205	712.46
496.412	683.59
496.62	709.94
496.828	728.15
497.035	722.14
497.243	754.5
497.451	702.77
497.658	760.89
497.866	737.26
498.074	777.75
498.281	694.24
498.489	810.11
498.696	735.51
498.904	741.13
499.112	709.74
499.319	797.9
499.527	743.07
499.734	776.97
499.942	705.29
500.149	746.94
500.357	758.96
500.564	714.01
500.771	763.22
500.979	726.41
501.186	758.76
501.394	744.81
501.601	745.98
501.808	744.62
502.016	745.59
502.223	743.46
502.43	777.36
502.638	735.13
502.845	705.09
503.052	819.79
503.26	748.49
503.467	827.16
503.674	770.19
503.881	801.19
504.089	882.95
504.296	820.37
504.503	749.66
504.71	792.28
504.917	756.83
505.125	797.12
505.332	757.02
505.539	813.98
505.746	890.9
505.953	824.25
506.16	858.35
506.367	907.95
506.574	915.89
506.781	900.97
506.988	826.57
507.195	844.59
507.402	838.39
507.609	856.8
507.816	839.75
508.023	829.09
508.23	831.42
508.437	841.49
508.644	854.28
508.851	885.47
509.058	907.75
509.265	881.02
509.472	898.07
509.679	965.3
509.885	882.57
510.092	886.25
510.299	901.55
510.506	897.49
510.713	900.2
510.92	918.6
511.126	899.81
511.333	962.39
511.54	939.53
511.746	982.15
511.953	979.25
512.16	992.23
512.367	938.56
512.573	918.99
512.78	970.33
512.987	947.47
513.193	896.52
513.4	875.01
513.606	881.4
513.813	956.97
514.02	935.85
514.226	1018.38
514.433	1006.57
514.639	910.66
514.846	953.67
515.052	926.55
515.259	937.98
515.465	975.95
515.672	982.54
515.878	1082.71
516.085	961.62
516.291	1024.58
516.497	977.31
516.704	951.15
516.91	938.56
517.117	891.67
517.323	856.8
517.529	900.78
517.736	897.29
517.942	915.12
518.148	911.05
518.354	944.18
518.561	942.24
518.767	977.7
518.973	1008.89
519.179	1008.5
519.386	957.74
519.592	961.42
519.798	961.42
520.004	1065.66
520.21	1039.7
520.417	1073.41
520.623	1102.66
520.829	1140.06
521.035	1089.88
521.241	1135.21
521.447	1129.4
521.653	1198.38
521.859	1106.73
522.065	1097.05
522.271	1222.21
522.477	1155.94
522.683	1190.43
522.889	1135.21
523.095	1140.25
523.301	1149.55
523.507	1100.73
523.713	1158.46
523.919	1123.01
524.125	1188.11
524.331	1194.31
524.537	1266.38
524.742	1237.51
524.948	1256.89
525.154	1239.26
525.36	1348.72
525.566	1252.43
525.772	1314.62
525.977	1222.59
526.183	1264.25
526.389	1271.03
526.595	1216.39
526.8	1214.84
527.006	1167.76
527.212	1142.58
527.417	1111.38
527.623	1111.77
527.829	1184.62
528.034	1231.31
528.24	1197.21
528.446	1226.86
528.651	1304.74
528.857	1262.51
529.062	1325.86
529.268	1287.31
529.473	1343.1
529.679	1288.27
529.884	1366.94
530.09	1331.09
530.295	1391.93
530.501	1385.73
530.706	1322.57
530.912	1338.07
531.117	1361.12
531.323	1353.18
531.528	1357.44
531.733	1402.78
531.939	1361.9
532.144	1430.68
532.35	1357.83
532.555	1418.28
532.76	1379.53
532.966	1416.53
533.171	1368.68
533.376	1358.6
533.581	1331.48
533.787	1352.21
533.992	1439.78
534.197	1437.85
534.402	1372.55
534.607	1384.37
534.813	1466.71
535.018	1365.19
535.223	1414.21
535.428	1421.18
535.633	1453.54
535.838	1487.83
536.043	1456.45
536.249	1515.15
536.454	1455.48
536.659	1453.35
536.864	1450.25
537.069	1455.09
537.274	1436.3
537.479	1435.72
537.684	1471.17
537.889	1396
538.094	1542.66
538.299	1464.39
538.504	1508.56
538.708	1487.25
538.913	1496.55
539.118	1489.38
539.323	1499.26
539.528	1445.21
539.733	1461.1
539.938	1450.05
540.142	1482.02
540.347	1458.38
540.552	1447.15
540.757	1421.57
540.962	1445.79
541.166	1404.91
541.371	1371
541.576	1442.88
541.781	1336.71
541.985	1473.3
542.19	1478.34
542.395	1499.46
542.599	1549.06
542.804	1507.01
543.008	1556.23
543.213	1461.1
543.418	1458.38
543.622	1497.33
543.827	1453.35
544.031	1564.36
544.236	1542.08
544.44	1506.05
544.645	1576.18
544.849	1494.03
545.054	1527.55
545.258	1610.28
545.463	1607.38
545.667	1490.16
545.872	1569.79
546.076	1570.95
546.281	1557.19
546.485	1517.67
546.689	1555.84
546.894	1567.66
547.098	1544.99
547.302	1514.96
547.507	1562.43
547.711	1530.85
547.915	1574.44
548.119	1514.57
548.324	1530.07
548.528	1613.96
548.732	1498.49
548.936	1587.81
549.141	1565.14
549.345	1554.48
549.549	1558.55
549.753	1573.08
549.957	1657.36
550.161	1667.82
550.366	1584.9
550.57	1538.6
550.774	1542.47
550.978	1568.63
551.182	1604.47
551.386	1562.23
551.59	1541.11
551.794	1553.51
551.998	1599.63
552.202	1553.9
552.406	1541.5
552.61	1582.96
552.814	1592.07
553.018	1655.62
553.222	1581.8
553.426	1574.24
553.63	1633.14
553.833	1619.78
554.037	1511.28
554.241	1579.09
554.445	1586.06
554.649	1571.53
554.853	1575.21
555.056	1633.73
555.26	1626.75
555.464	1620.74
555.668	1602.92
555.871	1595.56
556.075	1632.37
556.279	1569.01
556.483	1559.71
556.686	1588.58
556.89	1568.43
557.094	1593.23
557.297	1507.79
557.501	1586.45
557.704	1485.12
557.908	1564.17
558.112	1545.57
558.315	1613.77
558.519	1552.74
558.722	1545.38
558.926	1540.92
559.129	1470.59
559.333	1423.9
559.536	1476.6
559.74	1474.46
559.943	1454.7
560.147	1437.65
560.35	1470.98
560.553	1480.86
560.757	1446.95
560.96	1532.98
561.164	1487.83
561.367	1559.33
561.57	1486.48
561.774	1498.49
561.977	1483.76
562.18	1444.82
562.384	1562.81
562.587	1495
562.79	1501.4
562.993	1455.48
563.197	1502.75
563.4	1552.16
563.603	1521.16
563.806	1565.14
564.009	1479.31
564.212	1480.86
564.416	1415.95
564.619	1453.15
564.822	1441.33
565.025	1536.08
565.228	1480.08
565.431	1445.21
565.634	1388.25
565.837	1417.31
566.04	1396
566.243	1400.84
566.446	1316.17
566.649	1419.44
566.852	1366.16
567.055	1398.32
567.258	1416.92
567.461	1501.4
567.664	1451.41
567.867	1347.17
568.07	1387.67
568.273	1418.08
568.475	1433.58
568.678	1347.56
568.881	1374.3
569.084	1414.79
569.287	1287.5
569.489	1299.51
569.692	1394.64
569.895	1408.78
570.098	1314.43
570.3	1296.02
570.503	1258.44
570.706	1290.79
570.909	1292.15
571.111	1236.54
571.314	1248.17
571.516	1277.42
571.719	1322.18
571.922	1262.31
572.124	1254.95
572.327	1306.1
572.529	1223.37
572.732	1264.64
572.935	1293.31
573.137	1345.43
573.34	1303
573.542	1303.58
573.745	1239.45
573.947	1280.52
574.15	1265.8
574.352	1254.17
574.554	1338.45
574.757	1248.56
574.959	1247.97
575.162	1238.67
575.364	1229.76
575.566	1301.25
575.769	1194.5
575.971	1250.69
576.173	1119.33
576.376	1210.19
576.578	1240.22
576.78	1296.6
576.982	1148.58
577.185	1220.85
577.387	1186.75
577.589	1173.58
577.791	1225.89
577.993	1223.76
578.196	1194.69
578.398	1203.8
578.6	1207.87
578.802	1142.19
579.004	1123.78
579.206	1174.16
579.408	1199.54
579.61	1182.68
579.812	1221.82
580.014	1188.11
580.216	1168.93
580.418	1156.53
580.62	1157.49
580.822	1131.53
581.024	1177.84
581.226	1197.41
581.428	1174.74
581.63	1225.89
581.832	1148.97
582.034	1212.52
582.236	1194.5
582.438	1209.03
582.64	1242.74
582.841	1268.51
583.043	1310.75
583.245	1218.33
583.447	1217.56
583.649	1163.11
583.85	1203.41
584.052	1252.62
584.254	1151.1
584.456	1250.11
584.657	1157.11
584.859	1222.59
585.061	1206.51
585.262	1160.98
585.464	1147.23
585.666	1201.47
585.867	1147.03
586.069	1216.97
586.27	1185.59
586.472	1188.88
586.674	1103.83
586.875	1101.5
587.077	1123.59
587.278	1146.84
587.48	1140.06
587.681	1268.12
587.883	1186.17
588.084	1096.85
588.285	1131.14
588.487	1116.03
588.688	1137.93
588.89	1048.22
589.091	1023.81
589.292	1054.42
589.494	1034.66
589.695	1011.99
589.896	970.72
590.098	967.82
590.299	1012.38
590.5	967.04
590.702	989.52
590.903	1002.69
591.104	1091.81
591.305	1070.89
591.507	1145.48
591.708	1093.36
591.909	1044.73
592.11	1120.88
592.311	1089.3
592.512	1047.83
592.714	1012.96
592.915	1010.44
593.116	1019.74
593.317	1033.69
593.518	1051.13
593.719	1031.17
593.92	1094.14
594.121	1126.11
594.322	1060.43
594.523	1050.55
594.724	1030.59
594.925	1017.22
595.126	1050.74
595.327	1029.81
595.528	1061.2
595.729	1057.33
595.929	1076.51
596.13	1010.44
596.331	1055.97
596.532	1062.17
596.733	1123.78
596.934	1103.05
597.135	1064.5
597.335	1067.21
597.536	1025.36
597.737	1057.91
597.938	1012.77
598.138	1071.08
598.339	1042.6
598.54	1045.51
598.74	1045.9
598.941	1028.46
599.142	1096.66
599.342	1104.41
599.543	1047.45
599.744	1015.48
599.944	1049
600.145	1042.99
600.345	1052.1
600.546	1116.23
600.746	1095.5
600.947	1142.58
601.147	1074.96
601.348	1070.31
601.548	1019.74
601.749	1055.78
601.949	1007.53
602.15	1047.64
602.35	1065.27
602.551	1075.93
602.751	1017.61
602.951	1023.81
603.152	983.7
603.352	1097.82
603.552	1030.59
603.753	1101.5
603.953	1102.28
604.153	1047.45
604.354	1057.71
604.554	1047.06
604.754	1037.76
604.954	1016.83
605.155	1064.5
605.355	1021.1
605.555	1073.41
605.755	1084.45
605.955	1042.99
606.155	1093.17
606.356	1066.24
606.556	1068.56
606.756	1073.8
606.956	1014.51
607.156	1098.6
607.356	998.43
607.556	1029.43
607.756	1066.24
607.956	1077.28
608.156	1031.36
608.356	992.03
608.556	1032.72
608.756	1025.94
608.956	1000.95
609.156	1020.52
609.356	997.07
609.556	973.24
609.755	1020.9
609.955	957.35
610.155	1019.93
610.355	1013.73
610.555	996.49
610.755	1006.18
610.954	946.5
611.154	1032.53
611.354	1034.27
611.554	1007.15
611.753	963.75
611.953	925
612.153	1026.52
612.352	1000.56
612.552	944.95
612.752	919.19
612.951	947.67
613.151	984.48
613.351	951.54
613.55	956.77
613.75	990.48
613.949	982.73
614.149	971.69
614.348	935.85
614.548	907.56
614.747	938.56
614.947	948.44
615.146	856.41
615.346	978.08
615.545	980.99
615.745	976.92
615.944	949.41
616.144	942.05
616.343	949.22
616.542	947.67
616.742	931.39
616.941	937.01
617.14	898.45
617.34	911.82
617.539	946.5
617.738	913.76
617.938	993.2
618.137	892.84
618.336	880.82
618.535	940.11
618.734	939.14
618.934	946.5
619.133	936.24
619.332	947.47
619.531	910.47
619.73	930.62
619.929	960.84
620.128	968.59
620.328	1006.18
620.527	907.17
620.726	910.66
