Data from pine_FLMT105791__106__17-22-05-076.txt Node

Date: Mon Mar 20 17:22:05 GMT 2023
User: antho
Spectrometer: FLMT10579
Trigger mode: 0
Integration Time (sec): 1.000000E-1
Scans to average: 10
Electric dark correction enabled: true
Nonlinearity correction enabled: false
Boxcar width: 0
XAxis mode: Wavelengths
Number of Pixels in Spectrum: 3648
>>>>>Begin Spectral Data<<<<<
345.248	-153.25
345.464	-153.25
345.681	-153.25
345.898	-189.68
346.114	-166.82
346.331	-38.56
346.548	1.94
346.764	5.81
346.981	-18.02
347.197	-0.97
347.414	30.61
347.631	-15.5
347.847	69.75
348.064	-7.75
348.28	11.04
348.497	-36.62
348.713	-1.74
348.93	33.91
349.146	23.06
349.363	-0.97
349.579	18.02
349.796	-3.49
350.012	-15.5
350.229	11.62
350.445	-16.08
350.661	-1.94
350.878	0.97
351.094	20.54
351.311	10.27
351.527	26.93
351.743	-8.91
351.96	39.72
352.176	41.85
352.392	30.03
352.609	45.92
352.825	12.79
353.041	-2.52
353.257	-17.24
353.474	24.22
353.69	12.4
353.906	34.87
354.122	-31
354.339	42.62
354.555	11.82
354.771	-1.36
354.987	68.78
355.203	39.33
355.42	0.77
355.636	-21.51
355.852	-10.27
356.068	-19.96
356.284	-44.17
356.5	53.47
356.716	14.34
356.932	11.04
357.148	31.97
357.364	27.51
357.58	58.12
357.796	49.21
358.012	46.89
358.228	44.37
358.444	-48.63
358.66	40.49
358.876	-2.91
359.092	0.39
359.308	30.03
359.524	23.44
359.74	-6.01
359.956	-20.15
360.172	28.87
360.388	55.8
360.604	-12.4
360.819	88.15
361.035	33.13
361.251	23.06
361.467	-15.69
361.683	32.74
361.898	23.06
362.114	48.44
362.33	16.47
362.546	21.89
362.762	-1.16
362.977	23.44
363.193	-38.94
363.409	46.69
363.624	-16.66
363.84	-29.64
364.056	8.91
364.271	3.87
364.487	31.97
364.703	5.23
364.918	-9.3
365.134	12.98
365.35	1.16
365.565	115.86
365.781	15.69
365.996	32.36
366.212	70.14
366.427	19.37
366.643	-10.46
366.858	1.74
367.074	16.27
367.289	49.6
367.505	99.59
367.72	-50.37
367.936	-24.8
368.151	35.07
368.367	23.44
368.582	17.82
368.798	7.17
369.013	77.89
369.228	4.65
369.444	3.29
369.659	55.41
369.874	13.95
370.09	63.36
370.305	-53.09
370.52	-22.09
370.736	64.91
370.951	18.21
371.166	66.07
371.381	66.84
371.597	36.62
371.812	-24.41
372.027	-34.1
372.242	7.94
372.458	84.09
372.673	-12.01
372.888	24.61
373.103	19.57
373.318	99.59
373.533	29.06
373.749	23.83
373.964	-29.84
374.179	65.1
374.394	-8.14
374.609	40.69
374.824	-9.69
375.039	48.44
375.254	5.42
375.469	68.2
375.684	24.02
375.899	57.54
376.114	-7.36
376.329	32.74
376.544	35.84
376.759	29.64
376.974	-6.2
377.189	10.46
377.404	6.2
377.619	64.71
377.834	-9.11
378.049	-31
378.264	-15.69
378.478	4.26
378.693	-11.62
378.908	32.55
379.123	4.07
379.338	66.26
379.553	45.72
379.767	48.05
379.982	47.27
380.197	53.86
380.412	10.85
380.626	21.51
380.841	80.6
381.056	38.17
381.271	84.86
381.485	-6.01
381.7	-12.98
381.915	38.56
382.129	-4.46
382.344	47.66
382.559	16.86
382.773	54.64
382.988	-22.67
383.202	28.87
383.417	-11.24
383.632	100.17
383.846	9.49
384.061	21.7
384.275	16.66
384.49	44.37
384.704	29.84
384.919	33.71
385.133	27.51
385.348	30.42
385.562	-9.69
385.777	51.73
385.991	41.27
386.206	-1.36
386.42	13.95
386.634	59.87
386.849	35.65
387.063	42.04
387.277	-7.75
387.492	4.46
387.706	-37.39
387.92	-5.04
388.135	53.86
388.349	14.72
388.563	21.7
388.778	39.14
388.992	18.02
389.206	55.02
389.42	89.9
389.635	21.31
389.849	24.99
390.063	51.73
390.277	31
390.491	89.7
390.706	51.54
390.92	59.48
391.134	30.81
391.348	68.97
391.562	-19.57
391.776	9.88
391.99	8.33
392.205	43.98
392.419	-23.64
392.633	10.85
392.847	57.16
393.061	13.37
393.275	99.59
393.489	17.44
393.703	37.01
393.917	65.1
394.131	31.77
394.345	22.67
394.559	83.89
394.773	25.38
394.986	28.67
395.2	37.2
395.414	83.51
395.628	6.78
395.842	39.91
396.056	-1.16
396.27	-8.14
396.484	43.4
396.697	53.28
396.911	65.87
397.125	39.72
397.339	54.44
397.553	41.07
397.766	90.87
397.98	79.44
398.194	53.67
398.408	22.47
398.621	59.29
398.835	63.16
399.049	43.4
399.262	83.89
399.476	88.93
399.69	65.29
399.903	124.58
400.117	9.69
400.331	55.22
400.544	7.75
400.758	159.45
400.971	57.16
401.185	73.62
401.398	29.26
401.612	77.89
401.826	80.41
402.039	49.6
402.253	24.8
402.466	56.19
402.68	40.49
402.893	64.52
403.106	65.29
403.32	4.65
403.533	71.11
403.747	55.41
403.96	49.79
404.174	54.44
404.387	18.41
404.6	17.44
404.814	86.22
405.027	18.21
405.24	52.12
405.454	35.46
405.667	80.6
405.88	1.16
406.094	72.07
406.307	97.45
406.52	66.84
406.733	33.52
406.947	-9.3
407.16	107.92
407.373	80.02
407.586	18.79
407.799	19.18
408.012	76.92
408.226	35.65
408.439	92.03
408.652	11.04
408.865	36.42
409.078	90.09
409.291	74.21
409.504	28.29
409.717	57.16
409.93	69.56
410.143	41.07
410.357	-18.6
410.57	-3.68
410.783	19.96
410.996	74.21
411.209	65.29
411.421	111.4
411.634	45.92
411.847	10.85
412.06	58.51
412.273	47.47
412.486	47.66
412.699	153.84
412.912	26.54
413.125	73.62
413.338	54.25
413.55	82.92
413.763	75.17
413.976	80.99
414.189	32.16
414.402	32.94
414.615	122.06
414.827	14.34
415.04	93.97
415.253	70.14
415.466	98.23
415.678	116.83
415.891	66.65
416.104	41.46
416.316	58.51
416.529	31.19
416.742	101.72
416.954	83.7
417.167	56.96
417.38	59.67
417.592	122.06
417.805	27.9
418.017	-6.59
418.23	85.83
418.442	42.24
418.655	41.85
418.868	65.1
419.08	96.49
419.293	107.34
419.505	79.82
419.718	88.54
419.93	104.24
420.142	77.31
420.355	89.12
420.567	84.09
420.78	94.74
420.992	86.99
421.205	131.17
421.417	8.33
421.629	69.75
421.842	50.96
422.054	2.52
422.266	71.69
422.479	83.31
422.691	36.81
422.903	104.82
423.115	44.56
423.328	67.04
423.54	94.35
423.752	79.82
423.964	49.99
424.177	70.52
424.389	88.15
424.601	169.72
424.813	70.72
425.025	116.05
425.238	102.69
425.45	56.96
425.662	64.52
425.874	360.56
426.086	67.42
426.298	88.93
426.51	86.41
426.722	103.46
426.934	49.99
427.146	82.73
427.358	33.13
427.57	122.25
427.782	97.26
427.994	78.27
428.206	65.1
428.418	31.77
428.63	92.61
428.842	114.5
429.054	107.92
429.266	110.82
429.478	28.87
429.69	95.71
429.902	44.95
430.114	110.24
430.325	104.62
430.537	60.64
430.749	86.8
430.961	44.56
431.173	74.21
431.384	100.75
431.596	27.32
431.808	75.76
432.02	88.93
432.231	118.38
432.443	142.02
432.655	103.27
432.867	61.03
433.078	121.67
433.29	176.31
433.502	123.8
433.713	133.49
433.925	124.39
434.136	132.14
434.348	53.67
434.56	27.51
434.771	208.86
434.983	79.05
435.194	68.01
435.406	94.35
435.617	130.59
435.829	164.3
436.04	145.31
436.252	154.42
436.463	162.36
436.675	133.1
436.886	153.06
437.098	153.45
437.309	166.62
437.521	149.57
437.732	132.33
437.943	123.03
438.155	123.61
438.366	71.88
438.578	197.62
438.789	132.72
439	147.64
439.211	137.17
439.423	129.42
439.634	180.38
439.845	163.33
440.057	139.69
440.268	190.65
440.479	99
440.69	133.1
440.902	138.14
441.113	127.87
441.324	128.07
441.535	167.59
441.746	222.81
441.957	116.05
442.168	115.86
442.38	151.7
442.591	184.64
442.802	120.9
443.013	156.16
443.224	166.04
443.435	142.02
443.646	142.4
443.857	124.39
444.068	164.1
444.279	154.03
444.49	222.23
444.701	155.58
444.912	264.85
445.123	220.87
445.334	175.15
445.545	187.35
445.756	178.05
445.967	143.76
446.178	179.41
446.388	214.28
446.599	192.58
446.81	193.17
447.021	164.1
447.232	213.12
447.443	245.67
447.653	142.02
447.864	193.36
448.075	181.93
448.286	190.84
448.496	180.38
448.707	223.97
448.918	174.76
449.129	260.59
449.339	172.44
449.55	194.13
449.761	175.34
449.971	216.8
450.182	178.25
450.393	214.87
450.603	173.6
450.814	228.82
451.024	216.8
451.235	237.92
451.446	248.19
451.656	260.59
451.867	233.27
452.077	208.67
452.288	260.4
452.498	245.28
452.709	201.3
452.919	246.06
453.13	217.58
453.34	287.33
453.55	138.92
453.761	235.6
453.971	197.62
454.182	244.12
454.392	243.35
454.602	266.4
454.813	216.61
455.023	253.03
455.233	164.88
455.444	221.45
455.654	165.85
455.864	217
456.075	201.88
456.285	192.97
456.495	210.41
456.705	224.36
456.916	272.21
457.126	282.87
457.336	227.46
457.546	153.06
457.756	202.08
457.967	258.07
458.177	202.08
458.387	238.89
458.597	212.54
458.807	195.88
459.017	227.07
459.227	241.6
459.437	242.57
459.647	236.76
459.857	249.16
460.068	217.58
460.278	270.08
460.488	242.38
460.698	310.58
460.908	237.92
461.117	187.16
461.327	203.05
461.537	231.53
461.747	260.78
461.957	264.66
462.167	343.13
462.377	280.35
462.587	255.36
462.797	282.68
463.007	250.32
463.216	276.86
463.426	291.01
463.636	275.31
463.846	205.76
464.056	228.04
464.265	301.08
464.475	237.34
464.685	277.64
464.895	300.31
465.104	250.13
465.314	292.56
465.524	250.32
465.733	246.64
465.943	324.14
466.153	327.24
466.362	284.42
466.572	278.22
466.782	243.73
466.991	278.41
467.201	361.53
467.41	239.47
467.62	274.15
467.829	275.7
468.039	281.13
468.249	288.49
468.458	257.49
468.668	300.5
468.877	270.66
469.086	335.38
469.296	348.75
469.505	227.85
469.715	363.47
469.924	295.46
470.134	349.52
470.343	340.22
470.552	274.93
470.762	290.43
470.971	245.48
471.18	295.85
471.39	296.63
471.599	277.25
471.808	345.65
472.018	275.12
472.227	323.56
472.436	366.76
472.645	321.04
472.855	266.6
473.064	347.97
473.273	305.73
473.482	344.87
473.691	351.46
473.901	338.09
474.11	321.43
474.319	397.38
474.528	348.16
474.737	367.73
474.946	374.71
475.155	350.68
475.364	356.69
475.573	341.58
475.783	337.12
475.992	366.96
476.201	375.48
476.41	323.36
476.619	335.38
476.828	357.08
477.037	343.9
477.245	339.64
477.454	423.92
477.663	343.51
477.872	331.5
478.081	413.46
478.29	353.39
478.499	435.74
478.708	378.39
478.917	441.55
479.125	382.84
479.334	413.65
479.543	362.11
479.752	410.94
479.961	424.5
480.169	434.58
480.378	412.29
480.587	517.89
480.796	419.85
481.004	419.08
481.213	439.61
481.422	429.93
481.63	408.81
481.839	451.82
482.048	489.99
482.256	456.47
482.465	446.39
482.674	441.74
482.882	461.31
483.091	533.58
483.299	478.75
483.508	500.06
483.716	472.55
483.925	464.61
484.134	470.81
484.342	427.21
484.551	485.92
484.759	490.96
484.967	468.67
485.176	493.67
485.384	482.82
485.593	504.71
485.801	475.07
486.01	464.61
486.218	488.82
486.426	408.61
486.635	437.87
486.843	429.73
487.051	473.13
487.26	446.2
487.468	466.35
487.676	468.87
487.885	448.91
488.093	490.96
488.301	469.45
488.509	508.59
488.717	501.22
488.926	462.28
489.134	495.61
489.342	506.07
489.55	466.16
489.758	506.07
489.967	492.89
490.175	590.15
490.383	496.77
490.591	587.05
490.799	477.01
491.007	557.41
491.215	539.39
491.423	511.3
491.631	546.95
491.839	525.64
492.047	550.82
492.255	489.02
492.463	459.18
492.671	525.64
492.879	559.35
493.087	530.48
493.295	577.56
493.503	553.54
493.711	600.42
493.919	584.15
494.127	582.79
494.334	606.04
494.542	514.98
494.75	559.15
494.958	536.29
495.166	603.72
495.374	581.63
495.581	560.9
495.789	585.12
495.997	641.5
496.205	573.1
496.412	551.21
496.62	568.45
496.828	584.54
497.035	570.2
497.243	619.22
497.451	592.67
497.658	579.69
497.866	584.34
498.074	647.12
498.281	580.66
498.489	623.87
498.696	572.52
498.904	579.89
499.112	563.22
499.319	681.22
499.527	593.64
499.734	640.14
499.942	560.7
500.149	599.65
500.357	620.38
500.564	562.06
500.771	610.11
500.979	557.8
501.186	595.39
501.394	576.79
501.601	606.82
501.808	649.05
502.016	597.13
502.223	581.82
502.43	651.77
502.638	620.96
502.845	588.02
503.052	663
503.26	589.57
503.467	668.82
503.674	608.56
503.881	633.36
504.089	713.96
504.296	668.23
504.503	595.58
504.71	650.8
504.917	568.84
505.125	650.41
505.332	652.15
505.539	643.05
505.746	716.48
505.953	660.68
506.16	669.4
506.367	710.08
506.574	736.43
506.781	719.77
506.988	636.65
507.195	683.73
507.402	666.88
507.609	704.46
507.816	644.02
508.023	662.42
508.23	672.11
508.437	643.63
508.644	669.01
508.851	730.81
509.058	707.76
509.265	692.45
509.472	727.52
509.679	788.36
509.885	701.17
510.092	681.8
510.299	688.77
510.506	699.81
510.713	733.53
510.92	727.91
511.126	717.83
511.333	753.68
511.54	728.3
511.746	786.23
511.953	778.28
512.16	799.79
512.367	723.65
512.573	720.16
512.78	734.88
512.987	731.98
513.193	719.19
513.4	691.48
513.606	722.48
513.813	780.61
514.02	746.12
514.226	786.61
514.433	790.29
514.639	713.38
514.846	745.54
515.052	733.72
515.259	745.73
515.465	748.25
515.672	762.78
515.878	826.91
516.085	771.11
516.291	789.52
516.497	723.26
516.704	739.92
516.91	725.2
517.117	706.4
517.323	662.42
517.529	682.57
517.736	732.95
517.942	723.45
518.148	683.35
518.354	727.52
518.561	764.91
518.767	712.41
518.973	777.31
519.179	779.45
519.386	747.09
519.592	745.15
519.798	736.05
520.004	816.84
520.21	766.08
520.417	823.62
520.623	846.68
520.829	880.77
521.035	865.08
521.241	822.46
521.447	862.95
521.653	958.86
521.859	864.11
522.065	860.24
522.271	948.01
522.477	890.66
522.683	928.82
522.889	888.52
523.095	890.85
523.301	854.04
523.507	866.63
523.713	908.09
523.919	836.41
524.125	955.95
524.331	900.15
524.537	946.65
524.742	920.69
524.948	948.97
525.154	942.39
525.36	1040.04
525.566	934.64
525.772	977.45
525.977	890.46
526.183	954.01
526.389	965.44
526.595	873.8
526.8	909.84
527.006	853.07
527.212	848.23
527.417	819.36
527.623	842.61
527.829	943.16
528.034	877.48
528.24	903.44
528.446	895.31
528.651	979
528.857	938.32
529.062	1032.09
529.268	996.25
529.473	1009.04
529.679	990.82
529.884	1062.51
530.09	1014.85
530.295	1035.58
530.501	1024.54
530.706	978.81
530.912	957.89
531.117	1001.67
531.323	984.62
531.528	1051.66
531.733	1044.69
531.939	998.38
532.144	1022.99
532.35	1031.51
532.555	1044.3
532.76	1057.86
532.966	1047.2
533.171	1035.39
533.376	975.71
533.581	979.2
533.787	997.22
533.992	1016.59
534.197	1073.17
534.402	1008.65
534.607	1022.99
534.813	1106.1
535.018	1038.87
535.223	1000.12
535.428	1045.65
535.633	1086.92
535.838	1063.67
536.043	1069.48
536.249	1145.43
536.454	1059.6
536.659	1069.1
536.864	1057.86
537.069	1068.9
537.274	1074.91
537.479	1068.52
537.684	1092.73
537.889	1036.55
538.094	1137.1
538.299	1093.32
538.504	1091.38
538.708	1089.83
538.913	1085.95
539.118	1095.64
539.323	1088.08
539.528	1043.52
539.733	1070.65
539.938	1110.17
540.142	1117.15
540.347	1074.91
540.552	1047.98
540.757	1095.45
540.962	1053.79
541.166	1031.12
541.371	999.35
541.576	1067.16
541.781	976.1
541.985	1076.27
542.19	1099.9
542.395	1145.82
542.599	1170.62
542.804	1148.34
543.008	1142.91
543.213	1085.37
543.418	1072.97
543.622	1112.5
543.827	1028.22
544.031	1161.51
544.236	1153.38
544.44	1115.6
544.645	1187.67
544.849	1122.18
545.054	1151.44
545.258	1214.41
545.463	1165.78
545.667	1133.23
545.872	1128.38
546.076	1157.25
546.281	1157.06
546.485	1120.05
546.689	1147.56
546.894	1172.56
547.098	1128.58
547.302	1124.12
547.507	1131.29
547.711	1164.03
547.915	1206.46
548.119	1105.33
548.324	1143.3
548.528	1191.74
548.732	1121.6
548.936	1158.8
549.141	1180.11
549.345	1120.44
549.549	1125.87
549.753	1153.57
549.957	1209.95
550.161	1188.45
550.366	1117.15
550.57	1147.76
550.774	1113.85
550.978	1163.45
551.182	1140.01
551.386	1137.68
551.59	1171.4
551.794	1162.29
551.998	1146.79
552.202	1137.1
552.406	1110.75
552.61	1155.51
552.814	1157.64
553.018	1232.62
553.222	1148.15
553.426	1145.82
553.63	1214.8
553.833	1161.71
554.037	1084.6
554.241	1162.68
554.445	1135.36
554.649	1140.59
554.853	1123.73
555.056	1159.96
555.26	1216.54
555.464	1163.45
555.668	1178.37
555.871	1187.09
556.075	1206.08
556.279	1138.65
556.483	1114.63
556.686	1130.52
556.89	1130.71
557.094	1176.24
557.297	1093.51
557.501	1176.24
557.704	1095.06
557.908	1187.48
558.112	1124.9
558.315	1196.58
558.519	1136.13
558.722	1143.69
558.926	1111.33
559.129	1083.24
559.333	1072.39
559.536	1083.24
559.74	1042.75
559.943	1070.45
560.147	1060.38
560.35	1110.95
560.553	1097.77
560.757	1025.89
560.96	1160.16
561.164	1060.96
561.367	1143.3
561.57	1123.73
561.774	1104.94
561.977	1100.68
562.18	1062.7
562.384	1194.45
562.587	1078.98
562.79	1076.46
562.993	1075.49
563.197	1092.93
563.4	1163.65
563.603	1175.85
563.806	1207.43
564.009	1070.07
564.212	1134.39
564.416	1044.3
564.619	1088.86
564.822	1047.4
565.025	1146.4
565.228	1067.55
565.431	1072.2
565.634	1007.49
565.837	1053.98
566.04	1098.16
566.243	1069.29
566.446	965.64
566.649	1046.43
566.852	1033.45
567.055	1008.65
567.258	1070.07
567.461	1095.83
567.664	1128.38
567.867	974.94
568.07	1068.71
568.273	1045.65
568.475	1103.39
568.678	1028.02
568.881	1036.94
569.084	1010.78
569.287	946.07
569.489	995.67
569.692	1058.25
569.895	1014.07
570.098	986.75
570.3	962.92
570.503	952.46
570.706	948.39
570.909	992.37
571.111	920.88
571.314	955.76
571.516	950.14
571.719	987.34
571.922	952.85
572.124	962.15
572.327	959.24
572.529	926.5
572.732	934.83
572.935	961.18
573.137	1026.47
573.34	949.56
573.542	970.29
573.745	964.67
573.947	998.38
574.15	966.99
574.352	934.06
574.554	1016.01
574.757	939.67
574.959	931.15
575.162	897.44
575.364	921.46
575.566	1020.47
575.769	874.96
575.971	907.9
576.173	861.98
576.376	897.63
576.578	951.3
576.78	986.37
576.982	840.09
577.185	903.44
577.387	874.57
577.589	870.31
577.791	923.4
577.993	929.41
578.196	908.87
578.398	932.7
578.6	941.42
578.802	823.43
579.004	861.59
579.206	884.46
579.408	899.18
579.61	864.11
579.812	905.96
580.014	901.51
580.216	889.3
580.418	925.72
580.62	843.19
580.822	825.56
581.024	890.07
581.226	917.59
581.428	902.28
581.63	979.39
581.832	881.74
582.034	930.37
582.236	906.16
582.438	927.08
582.64	926.69
582.841	951.69
583.043	998.19
583.245	915.07
583.447	949.94
583.649	918.75
583.85	935.22
584.052	921.66
584.254	858.11
584.456	932.31
584.657	889.3
584.859	914.1
585.061	899.57
585.262	899.57
585.464	872.64
585.666	906.35
585.867	850.16
586.069	939.48
586.27	914.68
586.472	911.58
586.674	893.17
586.875	860.63
587.077	871.67
587.278	888.33
587.48	872.83
587.681	986.95
587.883	917.78
588.084	822.65
588.285	848.23
588.487	873.8
588.688	886.01
588.89	824.78
589.091	819.74
589.292	849.19
589.494	809.67
589.695	781.38
589.896	700.2
590.098	701.17
590.299	781
590.5	743.8
590.702	784.1
590.903	800.76
591.104	848.03
591.305	838.73
591.507	884.65
591.708	838.73
591.909	797.27
592.11	886.01
592.311	848.23
592.512	831.76
592.714	760.65
592.915	780.61
593.116	809.67
593.317	837.96
593.518	833.69
593.719	799.01
593.92	857.53
594.121	858.69
594.322	835.63
594.523	840.48
594.724	767.63
594.925	816.64
595.126	842.41
595.327	821.88
595.528	852.1
595.729	816.06
595.929	815.09
596.13	846.29
596.331	844.74
596.532	815.48
596.733	911.58
596.934	840.48
597.135	864.69
597.335	841.44
597.536	798.24
597.737	826.72
597.938	813.35
598.138	828.27
598.339	814.32
598.54	842.99
598.74	810.44
598.941	838.93
599.142	878.45
599.342	835.05
599.543	805.21
599.744	818.39
599.944	826.72
600.145	799.01
600.345	810.44
600.546	898.21
600.746	860.63
600.947	876.12
601.147	861.59
601.348	858.3
601.548	786.23
601.749	842.03
601.949	761.43
602.15	808.31
602.35	836.79
602.551	842.61
602.751	759.88
602.951	794.17
603.152	745.15
603.352	837.18
603.552	809.28
603.753	880.19
603.953	821.1
604.153	811.41
604.354	828.27
604.554	797.46
604.754	835.24
604.954	774.41
605.155	838.93
605.355	803.86
605.555	842.99
605.755	867.99
605.955	816.45
606.155	840.67
606.356	825.36
606.556	842.41
606.756	835.63
606.956	747.28
607.156	846.29
607.356	795.53
607.556	815.09
607.756	811.61
607.956	854.04
608.156	808.12
608.356	794.17
608.556	839.51
608.756	799.01
608.956	764.53
609.156	805.79
609.356	766.85
609.556	775.38
609.755	807.54
609.955	786.23
610.155	799.01
610.355	807.34
610.555	788.55
610.755	777.7
610.954	721.51
611.154	785.45
611.354	830.21
611.554	779.25
611.753	770.92
611.953	738.95
612.153	818.97
612.352	835.44
612.552	727.71
612.752	698.27
612.951	739.15
613.151	774.41
613.351	775.57
613.55	727.33
613.75	787
613.949	787
614.149	781
614.348	745.93
614.548	717.25
614.747	685.67
614.947	731.59
615.146	672.69
615.346	779.83
615.545	754.45
615.745	741.86
615.944	783.13
616.144	751.93
616.343	776.35
616.542	684.9
616.742	741.08
616.941	747.86
617.14	694.97
617.34	723.65
617.539	741.86
617.738	686.45
617.938	790.68
618.137	710.86
618.336	679.86
618.535	719.38
618.734	708.34
618.934	747.09
619.133	745.54
619.332	757.55
619.531	725
619.73	715.7
619.929	773.83
620.128	758.52
620.328	749.61
620.527	725.97
620.726	696.72
620.925	739.92
621.124	695.55
621.323	758.91
621.522	663.78
621.721	675.4
621.92	681.8
622.119	745.54
622.318	693.62
622.517	708.73
622.715	699.43
622.914	649.05
623.113	681.8
623.312	668.23
623.511	718.61
623.71	683.54
623.909	692.84
