Data from pine_FLMT105791__26__17-20-00-079.txt Node

Date: Mon Mar 20 17:20:00 GMT 2023
User: antho
Spectrometer: FLMT10579
Trigger mode: 0
Integration Time (sec): 1.000000E-1
Scans to average: 10
Electric dark correction enabled: true
Nonlinearity correction enabled: false
Boxcar width: 0
XAxis mode: Wavelengths
Number of Pixels in Spectrum: 3648
>>>>>Begin Spectral Data<<<<<
345.248	-152.14
345.464	-152.14
345.681	-152.14
345.898	-156.98
346.114	-154.27
346.331	-40.74
346.548	24.36
346.764	-7.41
346.981	-13.42
347.197	-24.85
347.414	11.77
347.631	-26.59
347.847	64.47
348.064	12.55
348.28	44.51
348.497	-53.52
348.713	8.86
348.93	53.62
349.146	26.88
349.363	18.16
349.579	10.8
349.796	2.66
350.012	-1.4
350.229	25.72
350.445	5.57
350.661	-5.67
350.878	4.21
351.094	31.14
351.311	5.76
351.527	25.91
351.743	-16.9
351.96	34.44
352.176	79.97
352.392	58.08
352.609	27.27
352.825	-5.47
353.041	31.92
353.257	10.61
353.474	2.08
353.69	42.77
353.906	43.93
354.122	-16.71
354.339	50.52
354.555	20.68
354.771	6.35
354.987	60.98
355.203	58.66
355.42	-11.67
355.636	2.86
355.852	-16.32
356.068	22.62
356.284	-46.55
356.5	58.08
356.716	26.3
356.932	8.28
357.148	42.77
357.364	-11.87
357.58	48.19
357.796	32.69
358.012	39.09
358.228	28.43
358.444	-63.21
358.66	54.2
358.876	17.97
359.092	-27.17
359.308	6.54
359.524	5.18
359.74	-11.29
359.956	14.29
360.172	25.72
360.388	58.08
360.604	-14.58
360.819	74.54
361.035	29.21
361.251	26.3
361.467	-19.62
361.683	50.91
361.898	25.72
362.114	40.44
362.33	12.74
362.546	61.56
362.762	22.62
362.977	23.98
363.193	-16.13
363.409	35.99
363.624	2.28
363.84	8.09
364.056	-5.86
364.271	43.74
364.487	27.08
364.703	13.51
364.918	15.84
365.134	-5.86
365.35	20.68
365.565	108.84
365.781	26.88
365.996	37.73
366.212	90.24
366.427	10.41
366.643	-0.24
366.858	10.41
367.074	-9.93
367.289	72.22
367.505	120.85
367.72	-24.46
367.936	-1.79
368.151	40.83
368.367	42.96
368.582	47.42
368.798	7.31
369.013	87.53
369.228	24.75
369.444	23.59
369.659	56.53
369.874	39.09
370.09	70.67
370.305	-38.41
370.52	10.61
370.736	67.38
370.951	20.1
371.166	53.62
371.381	91.79
371.597	47.61
371.812	-5.67
372.027	-5.09
372.242	17
372.458	64.08
372.673	8.86
372.888	36.96
373.103	46.06
373.318	108.84
373.533	50.13
373.749	29.01
373.964	-24.27
374.179	72.03
374.394	-6.25
374.609	80.94
374.824	-32.79
375.039	57.3
375.254	-6.83
375.469	61.76
375.684	33.28
375.899	75.9
376.114	29.79
376.329	-0.44
376.544	83.65
376.759	45.68
376.974	5.76
377.189	15.45
377.404	27.85
377.619	49.74
377.834	-36.67
378.049	-23.69
378.264	-9.74
378.478	14.29
378.693	-6.83
378.908	41.99
379.123	15.06
379.338	47.03
379.553	36.57
379.767	36.38
379.982	41.99
380.197	42.96
380.412	38.31
380.626	38.12
380.841	92.37
381.056	41.8
381.271	94.11
381.485	10.41
381.7	-17.1
381.915	51.1
382.129	18.55
382.344	41.22
382.559	21.84
382.773	56.53
382.988	-8.38
383.202	26.88
383.417	22.23
383.632	98.57
383.846	17.78
384.061	66.99
384.275	33.66
384.49	22.43
384.704	62.73
384.919	29.21
385.133	36.38
385.348	63.89
385.562	-1.79
385.777	68.15
385.991	1.7
386.206	30.76
386.42	18.94
386.634	65.05
386.849	36.38
387.063	36.96
387.277	-1.02
387.492	-3.15
387.706	-18.65
387.92	-1.21
388.135	59.82
388.349	25.91
388.563	23.78
388.778	36.18
388.992	36.18
389.206	48
389.42	89.08
389.635	28.43
389.849	22.43
390.063	75.51
390.277	41.8
390.491	97.21
390.706	79.97
390.92	67.76
391.134	44.51
391.348	93.92
391.562	20.3
391.776	40.06
391.99	-33.57
392.205	41.8
392.419	40.44
392.633	28.04
392.847	60.59
393.061	37.54
393.275	80.36
393.489	34.05
393.703	54.78
393.917	75.32
394.131	40.06
394.345	63.5
394.559	80.16
394.773	33.66
394.986	29.98
395.2	15.45
395.414	74.93
395.628	18.55
395.842	35.21
396.056	12.74
396.27	-15.74
396.484	55.56
396.697	35.6
396.911	81.91
397.125	34.83
397.339	67.38
397.553	82.68
397.766	99.73
397.98	74.74
398.194	68.34
398.408	9.45
398.621	62.73
398.835	29.21
399.049	52.84
399.262	87.72
399.476	91.98
399.69	55.56
399.903	153.79
400.117	33.47
400.331	66.41
400.544	20.88
400.758	178.39
400.971	54.01
401.185	86.17
401.398	47.23
401.612	123.95
401.826	77.26
402.039	82.88
402.253	23.59
402.466	76.48
402.68	61.56
402.893	99.93
403.106	61.95
403.32	59.63
403.533	91.4
403.747	76.29
403.96	80.36
404.174	61.95
404.387	5.38
404.6	59.04
404.814	97.6
405.027	50.71
405.24	60.79
405.454	61.95
405.667	77.84
405.88	-5.67
406.094	43.16
406.307	91.98
406.52	88.3
406.733	67.38
406.947	30.95
407.16	144.87
407.373	106.13
407.586	40.25
407.799	14.1
408.012	73.19
408.226	89.08
408.439	95.66
408.652	25.33
408.865	85.59
409.078	119.3
409.291	51.1
409.504	12.74
409.717	86.36
409.93	77.64
410.143	79.39
410.357	16.23
410.57	23.01
410.783	54.01
410.996	93.14
411.209	69.89
411.421	125.69
411.634	56.72
411.847	49.94
412.06	87.14
412.273	80.55
412.486	68.34
412.699	180.52
412.912	82.1
413.125	126.08
413.338	91.98
413.55	112.32
413.763	89.85
413.976	107.09
414.189	35.6
414.402	90.24
414.615	133.83
414.827	51.1
415.04	94.89
415.253	91.4
415.466	109.42
415.678	153.59
415.891	93.34
416.104	111.16
416.316	78.23
416.529	59.43
416.742	90.43
416.954	110.58
417.167	95.08
417.38	82.88
417.592	144.49
417.805	72.03
418.017	34.24
418.23	123.56
418.442	100.89
418.655	92.56
418.868	104.96
419.08	141.39
419.293	135.19
419.505	99.54
419.718	119.69
419.93	123.76
420.142	81.52
420.355	125.31
420.567	163.09
420.78	116.01
420.992	84.23
421.205	139.26
421.417	73.38
421.629	88.49
421.842	75.9
422.054	60.21
422.266	145.84
422.479	125.31
422.691	85.39
422.903	117.36
423.115	99.73
423.328	106.71
423.54	137.51
423.752	99.73
423.964	83.65
424.177	118.52
424.389	128.6
424.601	227.99
424.813	131.51
425.025	173.36
425.238	174.91
425.45	116.2
425.662	84.04
425.874	413.6
426.086	130.15
426.298	127.05
426.51	124.92
426.722	108.84
426.934	80.55
427.146	155.14
427.358	87.53
427.57	167.93
427.782	106.51
427.994	123.17
428.206	81.33
428.418	100.31
428.63	146.62
428.842	172.77
429.054	132.67
429.266	163.67
429.478	132.28
429.69	142.36
429.902	79.39
430.114	131.51
430.325	125.69
430.537	105.35
430.749	93.34
430.961	58.85
431.173	111.94
431.384	141
431.596	56.91
431.808	120.07
432.02	122.79
432.231	161.34
432.443	191.57
432.655	158.44
432.867	121.82
433.078	158.82
433.29	209
433.502	194.86
433.713	188.08
433.925	179.36
434.136	195.06
434.348	80.16
434.56	112.52
434.771	248.72
434.983	100.31
435.194	148.36
435.406	171.81
435.617	216.37
435.829	228.96
436.04	202.22
436.252	204.94
436.463	228.96
436.675	224.31
436.886	202.42
437.098	215.59
437.309	234.77
437.521	220.44
437.732	193.89
437.943	198.54
438.155	190.79
438.366	156.69
438.578	251.24
438.789	208.62
439	229.54
439.211	167.16
439.423	201.64
439.634	256.09
439.845	228.77
440.057	211.72
440.268	236.9
440.479	193.31
440.69	220.63
440.902	178.01
441.113	216.17
441.324	205.32
441.535	237.29
441.746	256.67
441.957	197.96
442.168	238.45
442.38	234.39
442.591	254.73
442.802	198.54
443.013	237.87
443.224	224.31
443.435	221.99
443.646	227.41
443.857	254.54
444.068	226.25
444.279	201.64
444.49	284.76
444.701	226.25
444.912	330.68
445.123	302.39
445.334	238.26
445.545	248.72
445.756	268.49
445.967	215.98
446.178	252.21
446.388	276.04
446.599	283.6
446.81	287.08
447.021	232.64
447.232	289.99
447.443	311.88
447.653	254.15
447.864	276.82
448.075	293.09
448.286	316.92
448.496	255.31
448.707	294.83
448.918	252.4
449.129	354.9
449.339	249.5
449.55	283.6
449.761	253.57
449.971	341.72
450.182	283.02
450.393	315.95
450.603	271.78
450.814	327
451.024	300.07
451.235	309.37
451.446	362.26
451.656	347.15
451.867	292.7
452.077	313.82
452.288	351.22
452.498	357.22
452.709	292.32
452.919	316.92
453.13	283.79
453.34	344.24
453.55	257.83
453.761	339.78
453.971	308.4
454.182	354.7
454.392	318.28
454.602	365.36
454.813	363.23
455.023	363.42
455.233	296.58
455.444	319.44
455.654	267.71
455.864	301.42
456.075	296.38
456.285	300.07
456.495	309.56
456.705	353.73
456.916	360.9
457.126	408.18
457.336	329.13
457.546	274.49
457.756	324.48
457.967	390.55
458.177	312.08
458.387	329.9
458.597	308.98
458.807	317.7
459.017	355.09
459.227	315.37
459.437	328.16
459.647	363.62
459.857	336.88
460.068	343.66
460.278	368.46
460.488	371.36
460.698	390.74
460.908	362.07
461.117	318.86
461.327	295.22
461.537	364.2
461.747	363.62
461.957	353.15
462.167	433.95
462.377	381.63
462.587	364.78
462.797	392.1
463.007	374.66
463.216	356.64
463.426	417.48
463.636	440.92
463.846	343.08
464.056	322.35
464.265	409.15
464.475	338.43
464.685	367.68
464.895	386.48
465.104	365.75
465.314	412.05
465.524	360.52
465.733	336.1
465.943	442.66
466.153	425.23
466.362	416.7
466.572	389.19
466.782	390.16
466.991	397.33
467.201	424.26
467.41	342.88
467.62	423.48
467.829	368.85
468.039	409.34
468.249	409.53
468.458	386.67
468.668	407.01
468.877	444.41
469.086	449.06
469.296	461.46
469.505	373.3
469.715	474.05
469.924	426.78
470.134	463.78
470.343	450.8
470.552	406.43
470.762	421.16
470.971	380.08
471.18	413.8
471.39	414.76
471.599	373.11
471.808	463.2
472.018	404.11
472.227	461.65
472.436	491.68
472.645	434.14
472.855	428.13
473.064	504.86
473.273	484.32
473.482	494.01
473.691	500.98
473.901	512.41
474.11	461.26
474.319	553.1
474.528	475.21
474.737	518.23
474.946	520.74
475.155	498.46
475.364	542.44
475.573	493.81
475.783	518.42
475.992	507.76
476.201	542.06
476.41	498.46
476.619	472.5
476.828	506.99
477.037	525.2
477.245	485.29
477.454	543.03
477.663	509.12
477.872	524.43
478.081	588.17
478.29	499.82
478.499	615.87
478.708	547.67
478.917	594.17
479.125	550.97
479.334	563.76
479.543	534.5
479.752	569.18
479.961	581.77
480.169	626.72
480.378	546.51
480.587	711.2
480.796	590.3
481.004	554.26
481.213	613.74
481.422	661.99
481.63	613.36
481.839	651.33
482.048	664.5
482.256	612.39
482.465	627.69
482.674	668.96
482.882	650.17
483.091	702.48
483.299	632.15
483.508	679.81
483.716	646.87
483.925	658.89
484.134	619.56
484.342	647.84
484.551	683.69
484.759	726.5
484.967	694.15
485.176	727.28
485.384	705.58
485.593	697.83
485.801	690.27
486.01	635.83
486.218	625.95
486.426	554.07
486.635	594.95
486.843	616.65
487.051	600.57
487.26	639.51
487.468	628.66
487.676	691.63
487.885	629.63
488.093	673.61
488.301	684.85
488.509	724.18
488.717	740.65
488.926	711.97
489.134	705.97
489.342	732.7
489.55	672.45
489.758	735.22
489.967	708.29
490.175	805.36
490.383	734.45
490.591	798.19
490.799	719.34
491.007	816.21
491.215	745.3
491.423	762.15
491.631	765.64
491.839	758.67
492.047	801.29
492.255	733.09
492.463	674.77
492.671	722.63
492.879	799.55
493.087	741.62
493.295	802.45
493.503	798.97
493.711	798.58
493.919	854.18
494.127	828.41
494.334	839.07
494.542	783.08
494.75	821.83
494.958	795.48
495.166	862.13
495.374	848.95
495.581	840.04
495.789	833.65
495.997	884.02
496.205	819.31
496.412	807.68
496.62	845.85
496.828	868.33
497.035	823.18
497.243	867.16
497.451	850.31
497.658	842.56
497.866	838.1
498.074	907.66
498.281	834.23
498.489	927.42
498.696	839.26
498.904	830.16
499.112	834.81
499.319	953.96
499.527	872.78
499.734	902.04
499.942	826.86
500.149	818.34
500.357	866.2
500.564	839.46
500.771	886.73
500.979	837.33
501.186	835.2
501.394	867.75
501.601	864.84
501.808	888.48
502.016	863.48
502.223	834.61
502.43	894.68
502.638	839.65
502.845	840.62
503.052	939.04
503.26	885.96
503.467	967.33
503.674	930.33
503.881	908.63
504.089	951.64
504.296	952.22
504.503	850.89
504.71	928.58
504.917	834.42
505.125	925.09
505.332	891.77
505.539	930.52
505.746	1003.17
505.953	978.38
506.16	963.26
506.367	1006.86
506.574	1005.5
506.781	1006.66
506.988	950.09
507.195	988.64
507.402	928.19
507.609	977.02
507.816	935.17
508.023	981.09
508.23	953.38
508.437	923.93
508.644	992.91
508.851	1010.73
509.058	993.87
509.265	976.24
509.472	1024.1
509.679	1116.9
509.885	990.77
510.092	995.81
510.299	1044.83
510.506	1005.69
510.713	1025.46
510.92	1011.89
511.126	1053.94
511.333	1041.15
511.54	1056.07
511.746	1114.97
511.953	1087.84
512.16	1083.58
512.367	1044.64
512.573	1044.44
512.78	1050.45
512.987	1045.41
513.193	1041.34
513.4	991.55
513.606	1037.47
513.813	1041.15
514.02	1023.13
514.226	1126.2
514.433	1087.84
514.639	990.39
514.846	1067.5
515.052	1046.38
515.259	1077.38
515.465	1080.29
515.672	1068.86
515.878	1131.63
516.085	1076.02
516.291	1100.24
516.497	1077.38
516.704	1061.69
516.91	1038.24
517.117	972.95
517.323	974.31
517.529	977.6
517.736	1007.05
517.942	996.59
518.148	987.87
518.354	1089
518.561	1047.54
518.767	1018.67
518.973	1076.22
519.179	1108.38
519.386	1085.13
519.592	1073.31
519.798	1033.21
520.004	1180.26
520.21	1110.9
520.417	1145
520.623	1169.8
520.829	1179.48
521.035	1175.22
521.241	1181.81
521.447	1197.31
521.653	1282.36
521.859	1176.58
522.065	1246.71
522.271	1308.52
522.477	1235.09
522.683	1288.56
522.889	1241.68
523.095	1232.77
523.301	1206.8
523.507	1237.61
523.713	1242.26
523.919	1208.74
524.125	1267.64
524.331	1263.18
524.537	1369.16
524.742	1334.09
524.948	1350.18
525.154	1331
525.36	1467.78
525.566	1319.76
525.772	1368.97
525.977	1295.73
526.183	1360.25
526.389	1346.3
526.595	1293.6
526.8	1289.34
527.006	1241.87
527.212	1186.85
527.417	1164.95
527.623	1211.65
527.829	1279.46
528.034	1299.41
528.24	1309.49
528.446	1326.73
528.651	1403.65
528.857	1367.03
529.062	1446.86
529.268	1386.6
529.473	1389.31
529.679	1402.88
529.884	1479.79
530.09	1429.61
530.295	1438.33
530.501	1433.68
530.706	1421.09
530.912	1383.11
531.117	1413.34
531.323	1451.89
531.528	1482.7
531.733	1454.02
531.939	1419.73
532.144	1451.89
532.35	1430.58
532.555	1456.54
532.76	1408.69
532.966	1431.36
533.171	1384.47
533.376	1416.44
533.581	1370.52
533.787	1439.49
533.992	1454.41
534.197	1484.64
534.402	1438.14
534.607	1445.31
534.813	1514.47
535.018	1449.96
535.223	1454.99
535.428	1474.17
535.633	1497.04
535.838	1513.7
536.043	1449.18
536.249	1563.88
536.454	1515.44
536.659	1558.65
536.864	1505.95
537.069	1496.46
537.274	1547.41
537.479	1539.08
537.684	1514.67
537.889	1454.22
538.094	1596.43
538.299	1520.48
538.504	1543.34
538.708	1550.51
538.913	1568.34
539.118	1539.66
539.323	1546.05
539.528	1512.15
539.733	1504.98
539.938	1561.94
540.142	1543.15
540.347	1527.26
540.552	1480.76
540.757	1492.39
540.962	1480.76
541.166	1447.05
541.371	1479.21
541.576	1484.44
541.781	1438.33
541.985	1549.35
542.19	1518.93
542.395	1572.21
542.599	1630.92
542.804	1555.35
543.008	1591.78
543.213	1513.31
543.418	1507.5
543.622	1572.21
543.827	1501.69
544.031	1599.14
544.236	1602.43
544.44	1604.57
544.645	1635.18
544.849	1585.39
545.054	1637.7
545.258	1688.65
545.463	1625.1
545.667	1551.48
545.872	1618.13
546.076	1584.61
546.281	1600.88
546.485	1590.62
546.689	1612.7
546.894	1618.71
547.098	1615.22
547.302	1553.8
547.507	1622.58
547.711	1634.98
547.915	1670.63
548.119	1551.67
548.324	1553.42
548.528	1618.32
548.732	1593.72
548.936	1622.58
549.141	1642.93
549.345	1603.02
549.549	1620.26
549.753	1608.44
549.957	1697.37
550.161	1714.42
550.366	1634.79
550.57	1632.66
550.774	1640.02
550.978	1623.55
551.182	1638.86
551.386	1614.64
551.59	1601.66
551.794	1607.67
551.998	1674.32
552.202	1646.42
552.406	1597.78
552.61	1644.48
552.814	1670.25
553.018	1694.46
553.222	1634.21
553.426	1615.61
553.63	1758.21
553.833	1586.35
554.037	1582.87
554.241	1680.13
554.445	1651.26
554.649	1640.6
554.853	1611.15
555.056	1664.24
555.26	1689.04
555.464	1629.37
555.668	1646.42
555.871	1643.12
556.075	1682.26
556.279	1597.01
556.483	1596.82
556.686	1608.25
556.89	1646.22
557.094	1649.9
557.297	1550.9
557.501	1620.65
557.704	1566.4
557.908	1652.23
558.112	1579.57
558.315	1660.17
558.519	1584.61
558.722	1605.92
558.926	1554.77
559.129	1516.99
559.333	1503.04
559.536	1505.56
559.74	1520.48
559.943	1489.87
560.147	1505.37
560.35	1538.89
560.553	1501.69
560.757	1459.84
560.96	1607.08
561.164	1547.99
561.367	1649.52
561.57	1549.93
561.774	1578.6
561.977	1529.78
562.18	1485.8
562.384	1598.17
562.587	1544.5
562.79	1506.92
562.993	1508.27
563.197	1578.22
563.4	1627.43
563.603	1595.85
563.806	1628.78
564.009	1481.73
564.212	1541.79
564.416	1468.94
564.619	1532.69
564.822	1469.52
565.025	1567.17
565.228	1534.24
565.431	1515.83
565.634	1457.9
565.837	1476.11
566.04	1470.69
566.243	1476.31
566.446	1406.94
566.649	1509.44
566.852	1433.49
567.055	1461.19
567.258	1510.21
567.461	1570.85
567.664	1536.75
567.867	1453.44
568.07	1468.56
568.273	1452.47
568.475	1511.57
568.678	1418.38
568.881	1457.51
569.084	1430.77
569.287	1343.2
569.489	1379.24
569.692	1458.48
569.895	1481.15
570.098	1384.86
570.3	1344.56
570.503	1311.04
570.706	1360.25
570.909	1366.45
571.111	1306.58
571.314	1338.55
571.516	1320.92
571.719	1362.77
571.922	1326.15
572.124	1354.24
572.327	1384.66
572.529	1298.83
572.732	1321.11
572.935	1348.04
573.137	1428.84
573.34	1342.23
573.542	1401.71
573.745	1372.46
573.947	1373.23
574.15	1316.08
574.352	1317.82
574.554	1363.35
574.757	1318.21
574.959	1270.93
575.162	1286.63
575.364	1303.29
575.566	1383.89
575.769	1276.75
575.971	1304.84
576.173	1177.16
576.376	1257.76
576.578	1354.24
576.78	1362.58
576.982	1230.44
577.185	1289.34
577.387	1262.21
577.589	1266.48
577.791	1301.74
577.993	1278.49
578.196	1269.58
578.398	1289.53
578.6	1326.35
578.802	1228.31
579.004	1225.4
579.206	1224.24
579.408	1270.93
579.61	1212.03
579.812	1296.31
580.014	1238.97
580.216	1214.17
580.418	1280.23
580.62	1230.83
580.822	1226.37
581.024	1256.01
581.226	1321.11
581.428	1273.45
581.63	1345.91
581.832	1227.15
582.034	1333.32
582.236	1260.08
582.438	1303.87
582.64	1318.6
582.841	1359.09
583.043	1348.24
583.245	1311.43
583.447	1312.2
583.649	1297.09
583.85	1308.91
584.052	1349.4
584.254	1245.36
584.456	1331.96
584.657	1272.68
584.859	1321.89
585.061	1275.2
585.262	1245.55
585.464	1244.78
585.666	1289.15
585.867	1228.5
586.069	1314.72
586.27	1254.85
586.472	1272.68
586.674	1258.73
586.875	1239.55
587.077	1250.78
587.278	1262.99
587.48	1207.19
587.681	1371.88
587.883	1288.37
588.084	1223.66
588.285	1253.69
588.487	1215.13
588.688	1218.43
588.89	1162.63
589.091	1104.31
589.292	1128.53
589.494	1125.43
589.695	1080.29
589.896	1029.52
590.098	1046.57
590.299	1132.99
590.5	1050.26
590.702	1064.21
590.903	1115.16
591.104	1189.75
591.305	1159.14
591.507	1201.77
591.708	1186.07
591.909	1147.9
592.11	1207.97
592.311	1181.23
592.512	1135.89
592.714	1088.81
592.915	1120.97
593.116	1100.63
593.317	1157.4
593.518	1139.96
593.719	1160.88
593.92	1170.57
594.121	1182.58
594.322	1151
594.523	1136.67
594.724	1096.56
594.925	1110.32
595.126	1136.28
595.327	1154.69
595.528	1151.59
595.729	1153.52
595.929	1128.53
596.13	1138.6
596.331	1165.15
596.532	1140.74
596.733	1201.77
596.934	1189.17
597.135	1185.49
597.335	1167.28
597.536	1095.4
597.737	1156.62
597.938	1112.45
598.138	1119.62
598.339	1125.62
598.54	1165.15
598.74	1154.49
598.941	1143.64
599.142	1187.62
599.342	1169.8
599.543	1121.36
599.744	1131.44
599.944	1133.95
600.145	1146.74
600.345	1145.19
600.546	1197.12
600.746	1190.33
600.947	1219.98
601.147	1174.83
601.348	1190.33
601.548	1117.29
601.749	1162.43
601.949	1089.59
602.15	1107.6
602.35	1121.94
602.551	1166.5
602.751	1103.92
602.951	1122.91
603.152	1080.67
603.352	1180.84
603.552	1146.16
603.753	1136.28
603.953	1148.29
604.153	1139.19
604.354	1159.53
604.554	1131.24
604.754	1136.67
604.954	1095.79
605.155	1135.12
605.355	1145.77
605.555	1182.39
605.755	1213.58
605.955	1177.93
606.155	1164.76
606.356	1135.7
606.556	1192.27
606.756	1167.28
606.956	1101.79
607.156	1178.52
607.356	1102.57
607.556	1172.32
607.756	1143.64
607.956	1199.63
608.156	1138.99
608.356	1119.42
608.556	1164.76
608.756	1124.46
608.956	1080.67
609.156	1122.33
609.356	1065.37
609.556	1065.17
609.755	1094.43
609.955	1103.34
610.155	1069.63
610.355	1123.69
610.555	1089.78
610.755	1092.69
610.954	1010.15
611.154	1115.35
611.354	1142.09
611.554	1067.31
611.753	1091.52
611.953	1025.26
612.153	1097.72
612.352	1091.72
612.552	1028.75
612.752	999.49
612.951	1054.71
613.151	1064.21
613.351	1037.66
613.55	1065.76
613.75	1025.46
613.949	1058.2
614.149	1059.75
614.348	1025.65
614.548	1008.41
614.747	1007.63
614.947	1016.35
615.146	993.29
615.346	1073.7
615.545	1041.54
615.745	1050.26
615.944	1056.46
616.144	1032.43
616.343	1066.92
616.542	966.56
616.742	1044.83
616.941	1012.47
617.14	982.06
617.34	1035.92
617.539	1004.92
617.738	944.47
617.938	1037.86
618.137	1028.75
618.336	991.55
618.535	1050.26
