Data from pine_FLMT105791__158__17-23-12-074.txt Node

Date: Mon Mar 20 17:23:12 GMT 2023
User: antho
Spectrometer: FLMT10579
Trigger mode: 0
Integration Time (sec): 1.000000E-1
Scans to average: 10
Electric dark correction enabled: true
Nonlinearity correction enabled: false
Boxcar width: 0
XAxis mode: Wavelengths
Number of Pixels in Spectrum: 3648
>>>>>Begin Spectral Data<<<<<
345.248	-162.34
345.464	-162.34
345.681	-162.34
345.898	-161.76
346.114	-169.13
346.331	-31.76
346.548	46.52
346.764	2.15
346.981	-5.6
347.197	-41.25
347.414	15.9
347.631	-12.38
347.847	59.3
348.064	13.58
348.28	19.58
348.497	-47.45
348.713	-18.58
348.93	43.61
349.146	39.93
349.363	-9.48
349.579	11.83
349.796	-28.46
350.012	-1.73
350.229	-0.57
350.445	-6.96
350.661	1.57
350.878	-2.31
351.094	-4.83
351.311	27.53
351.527	26.56
351.743	1.18
351.96	46.52
352.176	58.92
352.392	38.38
352.609	14.74
352.825	-21.1
353.041	-8.12
353.257	-14.32
353.474	35.86
353.69	21.13
353.906	9.7
354.122	-7.35
354.339	35.08
354.555	-13.55
354.771	-5.6
354.987	35.08
355.203	57.75
355.42	18.23
355.636	-3.47
355.852	-1.53
356.068	-14.51
356.284	-17.81
356.5	74.03
356.716	22.68
356.932	10.87
357.148	23.46
357.364	-4.83
357.58	37.6
357.796	40.12
358.012	50.97
358.228	21.52
358.444	-37.57
358.66	86.23
358.876	40.32
359.092	5.25
359.308	13.38
359.524	21.72
359.74	-19.94
359.956	-2.12
360.172	14.74
360.388	55.04
360.604	-9.09
360.819	108.51
361.035	27.33
361.251	42.83
361.467	22.3
361.683	51.75
361.898	4.28
362.114	41.67
362.33	11.45
362.546	67.63
362.762	17.65
362.977	17.45
363.193	-43.38
363.409	57.95
363.624	-22.46
363.84	-18.97
364.056	-5.99
364.271	44.38
364.487	9.9
364.703	5.63
364.918	-31.95
365.134	-5.41
365.35	5.25
365.565	109.1
365.781	5.05
365.996	15.32
366.212	53.88
366.427	20.75
366.643	-4.25
366.858	15.32
367.074	-38.93
367.289	66.67
367.505	106.38
367.72	-46.1
367.936	-14.32
368.151	58.33
368.367	28.5
368.582	22.3
368.798	-9.48
369.013	51.94
369.228	25.59
369.444	11.06
369.659	59.11
369.874	29.47
370.09	46.71
370.305	-47.84
370.52	-14.9
370.736	50.2
370.951	-0.37
371.166	49.62
371.381	63.57
371.597	36.05
371.812	-35.44
372.027	-19.94
372.242	-1.73
372.458	80.61
372.673	15.71
372.888	4.86
373.103	66.28
373.318	91.08
373.533	31.6
373.749	20.94
373.964	-21.3
374.179	56.78
374.394	-23.62
374.609	39.35
374.824	-21.1
375.039	79.26
375.254	17.84
375.469	32.76
375.684	18.23
375.899	56.2
376.114	9.7
376.329	8.35
376.544	79.07
376.759	50.39
376.974	-4.25
377.189	22.1
377.404	-17.61
377.619	50.2
377.834	-33.11
378.049	-23.23
378.264	-28.08
378.478	44
378.693	14.93
378.908	20.75
379.123	-8.31
379.338	34.12
379.553	9.9
379.767	38.38
379.982	20.55
380.197	50.97
380.412	15.13
380.626	45.55
380.841	101.54
381.056	37.22
381.271	82.75
381.485	6.8
381.7	-11.22
381.915	22.68
382.129	33.34
382.344	-1.15
382.559	0.4
382.773	65.89
382.988	-6.38
383.202	29.66
383.417	-10.45
383.632	117.23
383.846	17.65
384.061	30.24
384.275	5.25
384.49	56.2
384.704	27.72
384.919	15.71
385.133	4.86
385.348	38.77
385.562	-13.55
385.777	56.4
385.991	21.13
386.206	3.5
386.42	1.76
386.634	55.23
386.849	21.72
387.063	25.78
387.277	-8.9
387.492	12.22
387.706	-11.22
387.92	-8.51
388.135	44.38
388.349	24.62
388.563	27.72
388.778	2.53
388.992	30.82
389.206	43.8
389.42	100.76
389.635	30.43
389.849	46.52
390.063	79.84
390.277	29.08
390.491	73.45
390.706	60.47
390.92	44
391.134	16.87
391.348	46.32
391.562	-28.85
391.776	26.56
391.99	-6.18
392.205	48.45
392.419	-3.47
392.633	25.01
392.847	73.45
393.061	7.38
393.275	67.44
393.489	35.08
393.703	39.35
393.917	56.2
394.131	5.05
394.345	52.91
394.559	55.23
394.773	20.75
394.986	70.93
395.2	11.25
395.414	71.51
395.628	-8.12
395.842	53.68
396.056	5.05
396.27	-11.03
396.484	33.15
396.697	53.49
396.911	76.35
397.125	56.59
397.339	64.34
397.553	60.47
397.766	71.51
397.98	51.55
398.194	58.72
398.408	31.79
398.621	47.1
398.835	37.99
399.049	45.55
399.262	75.19
399.476	42.25
399.69	63.95
399.903	95.73
400.117	19.2
400.331	54.46
400.544	22.49
400.758	143.78
400.971	46.52
401.185	65.31
401.398	21.52
401.612	75.19
401.826	47.68
402.039	64.92
402.253	34.31
402.466	73.25
402.68	16.87
402.893	34.89
403.106	36.05
403.32	53.1
403.533	36.44
403.747	59.3
403.96	70.15
404.174	47.1
404.387	-7.35
404.6	30.82
404.814	90.3
405.027	29.08
405.24	56.01
405.454	22.1
405.667	92.24
405.88	-26.72
406.094	61.63
406.307	72.67
406.52	58.53
406.733	-0.95
406.947	-4.25
407.16	97.86
407.373	90.11
407.586	10.09
407.799	31.6
408.012	75.19
408.226	77.32
408.439	56.78
408.652	8.35
408.865	66.28
409.078	88.17
409.291	49.62
409.504	-13.55
409.717	40.9
409.93	37.8
410.143	44.38
410.357	-5.6
410.57	0.02
410.783	36.63
410.996	64.34
411.209	35.47
411.421	62.02
411.634	43.42
411.847	12.8
412.06	27.33
412.273	40.9
412.486	28.5
412.699	112.78
412.912	50.39
413.125	93.6
413.338	54.65
413.55	86.81
413.763	57.17
413.976	58.92
414.189	27.33
414.402	24.23
414.615	99.6
414.827	35.28
415.04	96.31
415.253	68.6
415.466	73.45
415.678	98.83
415.891	36.83
416.104	42.25
416.316	47.1
416.529	31.02
416.742	66.28
416.954	86.81
417.167	37.22
417.38	66.67
417.592	91.46
417.805	28.5
418.017	4.47
418.23	71.9
418.442	49.42
418.655	28.88
418.868	56.2
419.08	73.83
419.293	97.47
419.505	48.07
419.718	64.92
419.93	76.93
420.142	53.49
420.355	78.29
420.567	119.17
420.78	73.25
420.992	49.62
421.205	97.47
421.417	-24.2
421.629	26.37
421.842	21.13
422.054	7.96
422.266	66.86
422.479	74.42
422.691	57.75
422.903	91.85
423.115	54.85
423.328	48.65
423.54	65.12
423.752	28.5
423.964	36.63
424.177	46.32
424.389	43.61
424.601	154.05
424.813	69.57
425.025	98.44
425.238	43.22
425.45	42.83
425.662	38.18
425.874	336.17
426.086	38.77
426.298	88.17
426.51	55.23
426.722	68.41
426.934	51.17
427.146	70.93
427.358	25.59
427.57	113.94
427.782	38.38
427.994	63.57
428.206	37.8
428.418	0.6
428.63	59.5
428.842	94.95
429.054	59.5
429.266	64.15
429.478	38.57
429.69	43.03
429.902	9.12
430.114	103.28
430.325	91.85
430.537	67.63
430.749	62.79
430.961	35.47
431.173	60.66
431.384	86.04
431.596	27.14
431.808	38.38
432.02	62.79
432.231	76.93
432.443	108.32
432.655	70.35
432.867	30.24
433.078	95.73
433.29	119.36
433.502	91.85
433.713	106
433.925	66.08
434.136	114.33
434.348	15.52
434.56	25.01
434.771	167.99
434.983	21.13
435.194	50.58
435.406	78.29
435.617	102.31
435.829	142.03
436.04	88.56
436.252	100.76
436.463	120.53
436.675	96.31
436.886	62.79
437.098	116.65
437.309	146.1
437.521	88.75
437.732	85.65
437.943	69.38
438.155	89.33
438.366	58.14
438.578	137.58
438.789	100.57
439	119.36
439.211	74.22
439.423	107.74
439.634	103.09
439.845	84.68
440.057	84.49
440.268	132.15
440.479	78.1
440.69	79.45
440.902	78.48
441.113	72.87
441.324	87.78
441.535	96.7
441.746	131.57
441.957	85.26
442.168	84.3
442.38	93.98
442.591	121.88
442.802	84.88
443.013	70.73
443.224	83.13
443.435	88.56
443.646	83.91
443.857	79.45
444.068	72.87
444.279	69.57
444.49	145.91
444.701	76.16
444.912	181.56
445.123	130.02
445.334	103.67
445.545	118.2
445.756	94.18
445.967	78.68
446.178	90.88
446.388	139.9
446.599	121.3
446.81	123.82
447.021	84.3
447.232	150.75
447.443	151.53
447.653	82.36
447.864	131.57
448.075	105.03
448.286	141.26
448.496	130.6
448.707	146.88
448.918	83.91
449.129	203.06
449.339	101.15
449.55	133.12
449.761	93.98
449.971	141.26
450.182	97.28
450.393	149.98
450.603	87.2
450.814	153.85
451.024	142.42
451.235	155.21
451.446	170.71
451.656	160.44
451.867	110.26
452.077	158.89
452.288	131.96
452.498	196.86
452.709	122.66
452.919	161.41
453.13	99.99
453.34	144.75
453.55	81.58
453.761	135.83
453.971	136.22
454.182	155.98
454.392	130.99
454.602	193.76
454.813	171.29
455.023	177.88
455.233	76.35
455.444	124.6
455.654	86.43
455.864	147.26
456.075	102.7
456.285	111.61
456.495	154.43
456.705	149.2
456.916	157.73
457.126	171.29
457.336	133.31
457.546	67.25
457.756	111.81
457.967	142.42
458.177	126.92
458.387	158.89
458.597	133.12
458.807	107.55
459.017	132.15
459.227	139.51
459.437	107.74
459.647	146.68
459.857	166.06
460.068	98.44
460.278	185.43
460.488	147.85
460.698	194.15
460.908	149.4
461.117	117.43
461.327	92.05
461.537	152.5
461.747	155.4
461.957	138.93
462.167	216.63
462.377	182.53
462.587	134.48
462.797	213.72
463.007	110.06
463.216	161.8
463.426	198.22
463.636	188.53
463.846	104.25
464.056	133.31
464.265	170.13
464.475	122.08
464.685	123.43
464.895	148.62
465.104	140.1
465.314	182.33
465.524	123.43
465.733	129.05
465.943	231.35
466.153	202.48
466.362	159.47
466.572	150.56
466.782	186.01
466.991	162.18
467.201	191.44
467.41	120.53
467.62	182.33
467.829	139.51
468.039	161.8
468.249	154.24
468.458	151.53
468.668	180.59
468.877	181.36
469.086	182.72
469.296	178.65
469.505	117.04
469.715	214.69
469.924	165.67
470.134	208.29
470.343	220.11
470.552	138.74
470.762	159.47
470.971	140.68
471.18	168.96
471.39	155.79
471.599	124.6
471.808	198.03
472.018	125.76
472.227	217.59
472.436	218.37
472.645	194.54
472.855	130.6
473.064	205.19
473.273	174.78
473.482	207.52
473.691	230.96
473.901	190.47
474.11	161.02
474.319	251.89
474.528	207.33
474.737	239.49
474.946	206.36
475.155	187.95
475.364	209.46
475.573	211.39
475.783	194.73
475.992	188.73
476.201	251.11
476.41	166.06
476.619	172.45
476.828	200.93
477.037	182.91
477.245	198.03
477.454	229.8
477.663	185.82
477.872	187.76
478.081	255.76
478.29	177.88
478.499	279.79
478.708	201.71
478.917	262.16
479.125	187.95
479.334	227.86
479.543	208.1
479.752	188.53
479.961	243.75
480.169	204.81
480.378	199.58
480.587	333.26
480.796	226.7
481.004	214.11
481.213	246.66
481.422	227.48
481.63	219.73
481.839	226.89
482.048	257.31
482.256	225.93
482.465	254.21
482.674	235.03
482.882	232.9
483.091	292.19
483.299	235.61
483.508	252.28
483.716	254.41
483.925	242.59
484.134	241.81
484.342	249.56
484.551	294.32
484.759	242.59
484.967	267.39
485.176	264.48
485.384	261.96
485.593	281.34
485.801	246.85
486.01	275.33
486.218	248.79
486.426	188.92
486.635	258.28
486.843	236.97
487.051	261.57
487.26	231.35
487.468	269.91
487.676	286.96
487.885	234.06
488.093	251.31
488.301	249.18
488.509	272.62
488.717	300.91
488.926	239.1
489.134	240.26
489.342	274.56
489.55	243.94
489.758	274.17
489.967	208.68
490.175	350.12
490.383	263.9
490.591	321.25
490.799	220.69
491.007	311.95
491.215	283.47
491.423	252.28
491.631	264.29
491.839	251.89
492.047	277.66
492.255	228.64
492.463	214.49
492.671	282.31
492.879	346.05
493.087	251.5
493.295	283.08
493.503	312.14
493.711	309.24
493.919	312.92
494.127	343.72
494.334	327.45
494.542	258.28
494.75	306.72
494.958	265.45
495.166	328.61
495.374	309.82
495.581	297.03
495.789	304.59
495.997	347.6
496.205	295.48
496.412	287.92
496.62	266.22
496.828	330.74
497.035	284.44
497.243	309.04
497.451	311.76
497.658	311.17
497.866	324.54
498.074	384.41
498.281	289.28
498.489	382.28
498.696	333.26
498.904	299.36
499.112	302.46
499.319	390.22
499.527	317.18
499.734	339.07
499.942	281.14
500.149	298.39
500.357	328.81
500.564	284.05
500.771	319.89
500.979	278.43
501.186	297.42
501.394	329.97
501.601	336.56
501.808	359.61
502.016	337.72
502.223	318.34
502.43	344.3
502.638	339.46
502.845	308.07
503.052	403.98
503.26	325.32
503.467	389.64
503.674	320.28
503.881	340.82
504.089	430.72
504.296	369.69
504.503	292.19
504.71	349.92
504.917	302.65
505.125	334.04
505.332	352.64
505.539	349.73
505.746	407.66
505.953	365.62
506.16	384.99
506.367	406.5
506.574	381.12
506.781	383.44
506.988	321.64
507.195	371.62
507.402	330.16
507.609	355.54
507.816	358.84
508.023	349.54
508.23	368.72
508.437	325.32
508.644	397
508.851	418.9
509.058	391.77
509.265	385.57
509.472	366.78
509.679	443.5
509.885	351.67
510.092	394.87
510.299	351.67
510.506	368.91
510.713	394.29
510.92	355.15
511.126	407.85
511.333	398.94
511.54	405.53
511.746	449.51
511.953	412.7
512.16	443.7
512.367	375.69
512.573	379.95
512.78	384.99
512.987	364.26
513.193	384.8
513.4	345.27
513.606	358.06
513.813	403.79
514.02	391
514.226	480.9
514.433	470.05
514.639	348.76
514.846	417.54
515.052	390.61
515.259	382.86
515.465	378.02
515.672	398.36
515.878	483.8
516.085	393.9
516.291	442.92
516.497	378.21
516.704	371.62
516.91	378.6
517.117	372.4
517.323	335.97
517.529	394.49
517.736	410.37
517.942	386.74
518.148	352.05
518.354	393.52
518.561	389.64
518.767	382.67
518.973	454.74
519.179	414.83
519.386	384.02
519.592	383.05
519.798	388.09
520.004	437.69
520.21	426.45
520.417	440.98
520.623	448.15
520.829	465.59
521.035	455.32
521.241	447.18
521.447	438.85
521.653	548.9
521.859	431.1
522.065	442.34
522.271	553.94
522.477	466.75
522.683	490.97
522.889	465.78
523.095	496.78
523.301	440.79
523.507	451.25
523.713	457.84
523.919	412.31
524.125	485.74
524.331	457.84
524.537	532.43
524.742	498.14
524.948	497.56
525.154	484.58
525.36	592.69
525.566	507.05
525.772	501.05
525.977	457.45
526.183	519.26
526.389	540.96
526.595	499.3
526.8	466.75
527.006	456.29
527.212	432.46
527.417	431.68
527.623	437.5
527.829	487.48
528.034	528.17
528.24	477.41
528.446	427.42
528.651	499.69
528.857	509.38
529.062	567.5
529.268	500.47
529.473	525.07
529.679	503.37
529.884	537.66
530.09	541.35
530.295	556.85
530.501	526.04
530.706	532.43
530.912	488.07
531.117	522.16
531.323	501.43
531.528	525.07
531.733	524.68
531.939	499.11
532.144	556.07
532.35	519.06
532.555	577.19
532.76	559.75
532.966	577.58
533.171	544.83
533.376	544.45
533.581	505.31
533.787	543.09
533.992	552.97
534.197	582.03
534.402	505.89
534.607	565.56
534.813	636.09
535.018	528.75
535.223	513.25
535.428	551.42
535.633	570.6
535.838	553.16
536.043	537.08
536.249	628.92
536.454	557.04
536.659	564.01
536.864	534.76
537.069	547.55
537.274	564.21
537.479	557.43
537.684	578.55
537.889	544.83
538.094	613.03
538.299	566.15
538.504	586.1
538.708	565.56
538.913	575.25
539.118	552.97
539.323	584.36
539.528	555.49
539.733	557.81
539.938	589.01
540.142	592.3
540.347	585.71
540.552	545.41
540.757	570.02
540.962	575.64
541.166	525.07
541.371	534.18
541.576	594.43
541.781	451.83
541.985	562.66
542.19	578.74
542.395	594.24
542.599	629.31
542.804	565.56
543.008	650.62
543.213	546.77
543.418	538.25
543.622	597.15
543.827	573.51
544.031	644.23
544.236	618.46
544.44	575.64
544.645	663.99
544.849	579.51
545.054	621.94
545.258	682.78
545.463	630.28
545.667	589.4
545.872	625.43
546.076	610.32
546.281	609.35
546.485	569.25
546.689	613.03
546.894	609.16
547.098	625.63
547.302	567.11
547.507	606.83
547.711	612.84
547.915	683.94
548.119	556.26
548.324	605.86
548.528	663.41
548.732	619.81
548.936	625.82
549.141	639.96
549.345	597.15
549.549	615.74
549.753	600.63
549.957	682.59
550.161	668.64
550.366	612.06
550.57	564.6
550.774	614.97
550.978	612.45
551.182	641.51
551.386	627.37
551.59	597.15
551.794	579.71
551.998	603.93
552.202	586.49
552.406	539.02
552.61	594.05
552.814	623.69
553.018	661.66
553.222	600.05
553.426	623.11
553.63	667.28
553.833	603.35
554.037	548.51
554.241	653.72
554.445	597.53
554.649	598.31
554.853	569.63
555.056	660.69
555.26	651.39
555.464	632.99
555.668	604.89
555.871	644.61
556.075	626.59
556.279	603.35
556.483	585.52
556.686	620.39
556.89	613.61
557.094	613.42
557.297	560.53
557.501	662.24
557.704	554.52
557.908	655.27
558.112	554.52
558.315	654.88
558.519	605.67
558.722	611.68
558.926	583.78
559.129	565.76
559.333	533.4
559.536	559.36
559.74	541.54
559.943	561.88
560.147	542.7
560.35	599.08
560.553	556.85
560.757	502.79
560.96	621.94
561.164	555.49
561.367	634.73
561.57	570.6
561.774	599.47
561.977	571.18
562.18	545.03
562.384	636.67
562.587	557.43
562.79	611.29
562.993	587.65
563.197	606.83
563.4	646.36
563.603	623.3
563.806	666.31
564.009	563.24
564.212	586.68
564.416	549.48
564.619	617.1
564.822	577.38
565.025	603.54
565.228	581.84
565.431	576.03
565.634	519.26
565.837	552.58
566.04	543.28
566.243	545.61
566.446	497.75
566.649	578.74
566.852	533.4
567.055	553.36
567.258	595.01
567.461	637.44
567.664	632.79
567.867	513.06
568.07	571.38
568.273	560.33
568.475	579.32
568.678	556.85
568.881	530.88
569.084	587.26
569.287	490.39
569.489	522.75
569.692	600.44
569.895	594.43
570.098	501.43
570.3	541.35
570.503	440.98
570.706	473.73
570.909	514.22
571.111	487.48
571.314	477.8
571.516	508.8
571.719	511.7
571.922	513.06
572.124	476.44
572.327	545.61
572.529	459.97
572.732	467.14
572.935	514.03
573.137	568.08
573.34	495.82
573.542	546.38
573.745	519.65
573.947	528.75
574.15	519.84
574.352	485.93
574.554	552
574.757	492.52
574.959	479.54
575.162	477.02
575.364	482.25
575.566	604.31
575.769	479.35
575.971	519.06
576.173	414.64
576.376	492.72
576.578	529.33
576.78	554.91
576.982	441.57
577.185	497.75
577.387	453.38
577.589	431.1
577.791	489.62
577.993	491.36
578.196	470.24
578.398	524.49
578.6	535.53
578.802	461.72
579.004	470.24
579.206	437.11
579.408	482.83
579.61	453.77
579.812	511.9
580.014	459.39
580.216	483.42
580.418	446.6
580.62	429.36
580.822	409.21
581.024	450.28
581.226	502.79
581.428	435.37
581.63	546.38
581.832	438.08
582.034	519.06
582.236	483.8
582.438	498.92
582.64	510.93
582.841	539.6
583.043	565.18
583.245	490
583.447	516.74
583.649	483.8
583.85	519.26
584.052	554.52
584.254	482.25
584.456	537.47
584.657	459.97
584.859	462.3
585.061	490.2
585.262	456.1
585.464	449.12
585.666	498.72
585.867	477.02
586.069	523.71
586.27	483.8
586.472	481.09
586.674	469.27
586.875	440.02
587.077	443.5
587.278	481.87
587.48	467.14
587.681	550.45
587.883	512.48
588.084	419.48
588.285	462.68
588.487	470.43
588.688	479.54
588.89	440.4
589.091	404.75
589.292	443.31
589.494	426.07
589.695	435.75
589.896	365.62
590.098	380.73
590.299	433.82
590.5	374.34
590.702	395.26
590.903	413.86
591.104	496.78
591.305	422.19
591.507	465.98
591.708	442.15
591.909	448.54
592.11	499.3
592.311	455.9
592.512	444.67
592.714	398.36
592.915	424.32
593.116	422.58
593.317	415.41
593.518	421.61
593.719	400.3
593.92	441.18
594.121	486.52
594.322	435.95
594.523	448.15
594.724	404.37
594.925	433.62
595.126	487.48
595.327	465.01
595.528	440.02
595.729	487.48
595.929	435.56
596.13	420.25
596.331	443.5
596.532	481.48
596.733	487.48
596.934	448.93
597.135	478.57
597.335	469.66
597.536	432.65
597.737	445.44
597.938	448.93
598.138	453.77
598.339	414.64
598.54	458.81
598.74	459.39
598.941	467.14
599.142	499.3
599.342	476.44
599.543	413.09
599.744	446.02
599.944	469.27
600.145	438.08
600.345	455.9
600.546	506.67
600.746	486.71
600.947	521.2
601.147	485.16
601.348	470.63
601.548	439.05
601.749	448.93
601.949	414.83
602.15	425.49
602.35	427.42
602.551	506.47
602.751	432.07
602.951	399.14
603.152	374.72
603.352	468.88
603.552	456.48
603.753	484.58
603.953	478.57
604.153	460.36
604.354	415.41
604.554	428.2
604.754	453.38
604.954	389.84
605.155	455.32
605.355	434.01
605.555	456.48
605.755	498.72
605.955	451.64
606.155	458.81
606.356	451.64
606.556	489.62
606.756	440.21
606.956	403.4
607.156	529.91
607.356	431.1
607.556	426.07
607.756	434.98
607.956	482.25
608.156	439.05
608.356	425.29
608.556	474.89
608.756	417.35
608.956	418.32
609.156	442.73
609.356	398.94
609.556	410.95
609.755	445.83
609.955	420.64
610.155	439.63
610.355	417.74
610.555	411.73
610.755	410.76
610.954	353.22
611.154	434.98
611.354	442.15
611.554	401.27
611.753	413.86
611.953	380.92
612.153	446.99
612.352	464.04
612.552	376.66
612.752	381.5
612.951	434.2
613.151	426.45
613.351	368.72
613.55	413.28
613.75	436.33
613.949	434.59
614.149	427.23
614.348	425.68
614.548	397.39
614.747	385.19
614.947	429.17
615.146	341.79
615.346	463.07
615.545	443.12
615.745	443.89
615.944	443.5
616.144	413.47
616.343	468.69
616.542	428
616.742	429.75
616.941	409.4
617.14	358.25
617.34	417.54
617.539	431.68
617.738	365.62
617.938	474.12
618.137	412.7
618.336	353.22
618.535	383.44
618.734	388.67
618.934	386.93
619.133	400.69
619.332	395.07
619.531	376.27
619.73	395.84
619.929	447.77
620.128	452.61
620.328	470.82
620.527	367.36
620.726	394.29
620.925	407.08
621.124	392.74
621.323	418.7
621.522	340.04
621.721	355.35
621.92	355.74
622.119	403.98
622.318	357.87
622.517	363.68
622.715	370.65
622.914	307.11
623.113	388.87
623.312	332.68
623.511	397.2
623.71	365.42
623.909	355.74
624.107	436.72
624.306	359.03
624.505	324.16
624.704	373.95
624.902	372.01
625.101	407.27
625.3	394.1
625.499	334.81
625.697	362.9
625.896	366
626.095	394.87
626.293	335.97
626.492	345.85
626.69	398.36
626.889	344.11
627.088	386.15
627.286	341.21
627.485	328.03
