Data from pine_FLMT105791__36__17-20-10-079.txt Node

Date: Mon Mar 20 17:20:10 GMT 2023
User: antho
Spectrometer: FLMT10579
Trigger mode: 0
Integration Time (sec): 1.000000E-1
Scans to average: 10
Electric dark correction enabled: true
Nonlinearity correction enabled: false
Boxcar width: 0
XAxis mode: Wavelengths
Number of Pixels in Spectrum: 3648
>>>>>Begin Spectral Data<<<<<
345.248	-181.65
345.464	-181.65
345.681	-181.65
345.898	-177.59
346.114	-164.02
346.331	-42.35
346.548	4.34
346.764	-20.46
346.981	0.47
347.197	-29.95
347.414	5.51
347.631	-30.34
347.847	68.67
348.064	29.34
348.28	40.96
348.497	-24.91
348.713	-1.28
348.93	52.97
349.146	28.76
349.363	-15.03
349.579	22.36
349.796	0.08
350.012	4.54
350.229	27.01
350.445	5.7
350.661	-9.99
350.878	25.46
351.094	19.65
351.311	19.65
351.527	12.67
351.743	-10.96
351.96	28.95
352.176	30.31
352.392	0.66
352.609	33.99
352.825	-12.9
353.041	3.18
353.257	0.27
353.474	24.88
353.69	34.57
353.906	-11.35
354.122	-12.9
354.339	58.2
354.555	4.73
354.771	13.06
354.987	61.3
355.203	64.6
355.42	-4.76
355.636	-28.59
355.852	-3.41
356.068	17.71
356.284	-34.02
356.5	48.13
356.716	31.47
356.932	-4.38
357.148	37.28
357.364	12.09
357.58	56.07
357.796	40.96
358.012	41.16
358.228	28.95
358.444	-37.12
358.66	54.72
358.876	24.69
359.092	6.28
359.308	3.37
359.524	28.76
359.74	-19.29
359.956	0.27
360.172	-3.02
360.388	40.38
360.604	-5.15
360.819	60.14
361.035	21.01
361.251	37.28
361.467	-8.25
361.683	50.26
361.898	38.44
362.114	33.02
362.33	10.54
362.546	41.74
362.762	6.67
362.977	12.87
363.193	-23.75
363.409	60.14
363.624	-20.46
363.84	-15.81
364.056	0.27
364.271	27.01
364.487	24.11
364.703	14.81
364.918	-19.29
365.134	-11.16
365.35	7.06
365.565	106.64
365.781	29.14
365.996	25.85
366.212	75.06
366.427	39.41
366.643	10.93
366.858	5.31
367.074	-12.13
367.289	51.04
367.505	113.23
367.72	-15.03
367.936	-23.56
368.151	38.06
368.367	13.64
368.582	34.37
368.798	-7.86
369.013	73.12
369.228	22.17
369.444	5.7
369.659	58.79
369.874	8.22
370.09	55.1
370.305	-75.09
370.52	7.44
370.736	64.21
370.951	18.1
371.166	64.6
371.381	60.34
371.597	32.63
371.812	-6.12
372.027	-14.84
372.242	6.86
372.458	82.04
372.673	3.76
372.888	8.61
373.103	27.98
373.318	93.66
373.533	40.57
373.749	32.82
373.964	-45.45
374.179	63.24
374.394	-18.52
374.609	71.77
374.824	-17.55
375.039	38.25
375.254	-41.38
375.469	76.22
375.684	48.71
375.899	60.72
376.114	21.01
376.329	22.36
376.544	30.5
376.759	54.72
376.974	-3.99
377.189	-17.94
377.404	7.44
377.619	30.89
377.834	-25.69
378.049	-40.22
378.264	-36.92
378.478	24.3
378.693	-9.99
378.908	48.32
379.123	20.04
379.338	80.87
379.553	33.6
379.767	43.29
379.982	31.86
380.197	39.61
380.412	27.59
380.626	38.25
380.841	80.49
381.056	41.16
381.271	75.64
381.485	-0.31
381.7	-6.12
381.915	58.98
382.129	22.94
382.344	29.53
382.559	5.51
382.773	52.78
382.988	-9.22
383.202	7.83
383.417	-0.69
383.632	108.58
383.846	20.62
384.061	5.31
384.275	-0.69
384.49	24.49
384.704	27.4
384.919	20.81
385.133	37.86
385.348	66.15
385.562	-17.55
385.777	72.15
385.991	32.05
386.206	13.45
386.42	12.09
386.634	65.18
386.849	38.83
387.063	34.18
387.277	6.28
387.492	-18.52
387.706	-8.06
387.92	-30.92
388.135	55.1
388.349	38.83
388.563	30.31
388.778	42.9
388.992	69.05
389.206	48.91
389.42	70.99
389.635	29.34
389.849	40.19
390.063	62.08
390.277	44.26
390.491	85.91
390.706	46.97
390.92	81.84
391.134	30.69
391.348	46.77
391.562	-10.58
391.776	10.16
391.99	7.83
392.205	55.49
392.419	3.18
392.633	10.54
392.847	74.09
393.061	-11.16
393.275	81.07
393.489	35.54
393.703	46.97
393.917	70.22
394.131	12.67
394.345	67.31
394.559	80.1
394.773	15.97
394.986	33.99
395.2	43.09
395.414	62.47
395.628	6.67
395.842	46.77
396.056	-2.44
396.27	-10.58
396.484	30.69
396.697	50.26
396.911	82.04
397.125	73.7
397.339	51.62
397.553	46.97
397.766	89.59
397.98	78.74
398.194	48.32
398.408	33.79
398.621	61.3
398.835	27.59
399.049	41.74
399.262	70.8
399.476	60.34
399.69	60.14
399.903	94.05
400.117	36.12
400.331	31.27
400.544	2.21
400.758	151.78
400.971	59.56
401.185	92.89
401.398	6.67
401.612	91.92
401.826	60.53
402.039	76.22
402.253	37.86
402.466	73.7
402.68	45.81
402.893	57.62
403.106	80.29
403.32	46.97
403.533	66.54
403.747	79.71
403.96	50.26
404.174	59.95
404.387	7.25
404.6	46.97
404.814	61.11
405.027	42.51
405.24	41.54
405.454	50.26
405.667	84.94
405.88	0.08
406.094	56.85
406.307	85.14
406.52	58.4
406.733	11.51
406.947	6.09
407.16	117.1
407.373	95.6
407.586	19.84
407.799	34.18
408.012	70.22
408.226	72.54
408.439	71.96
408.652	21.2
408.865	79.52
409.078	108.19
409.291	80.1
409.504	16.36
409.717	64.4
409.93	69.83
410.143	58.98
410.357	9.96
410.57	14.81
410.783	52
410.996	73.9
411.209	46.39
411.421	84.17
411.634	58.2
411.847	20.04
412.06	63.63
412.273	44.84
412.486	50.07
412.699	138.61
412.912	47.36
413.125	92.89
413.338	37.47
413.55	60.92
413.763	75.06
413.976	89.2
414.189	46.97
414.402	54.72
414.615	103.74
414.827	22.56
415.04	78.94
415.253	60.92
415.466	101.22
415.678	129.89
415.891	73.12
416.104	39.99
416.316	56.07
416.529	30.69
416.742	78.74
416.954	117.3
417.167	68.86
417.38	68.86
417.592	108
417.805	40.19
418.017	15.97
418.23	92.3
418.442	40.77
418.655	55.3
418.868	85.72
419.08	89.79
419.293	116.91
419.505	69.83
419.718	106.45
419.93	115.36
420.142	74.48
420.355	129.31
420.567	121.56
420.78	93.47
420.992	87.46
421.205	137.45
421.417	33.41
421.629	72.93
421.842	48.32
422.054	25.07
422.266	95.4
422.479	112.84
422.691	74.29
422.903	114.97
423.115	73.51
423.328	58.4
423.54	107.8
423.752	78.55
423.964	48.13
424.177	88.82
424.389	72.15
424.601	187.24
424.813	80.68
425.025	111.68
425.238	122.92
425.45	52
425.662	88.43
425.874	384.86
426.086	100.05
426.298	94.44
426.51	98.5
426.722	74.29
426.934	75.64
427.146	107.22
427.358	45.42
427.57	108.39
427.782	102.96
427.994	110.9
428.206	82.42
428.418	40.38
428.63	134.74
428.842	113.23
429.054	92.11
429.266	138.42
429.478	64.79
429.69	102.38
429.902	39.99
430.114	118.65
430.325	126.02
430.537	96.95
430.749	90.75
430.961	37.09
431.173	95.79
431.384	117.3
431.596	41.35
431.808	74.67
432.02	90.56
432.231	120.01
432.443	131.05
432.655	118.27
432.867	70.6
433.078	117.69
433.29	177.75
433.502	139.38
433.713	144.42
433.925	132.02
434.136	123.3
434.348	67.31
434.56	50.07
434.771	209.72
434.983	67.12
435.194	88.82
435.406	98.5
435.617	152.17
435.829	165.15
436.04	126.99
436.252	153.92
436.463	157.98
436.675	136.48
436.886	126.79
437.098	131.25
437.309	188.21
437.521	136.29
437.732	150.23
437.943	129.31
438.155	122.72
438.366	74.87
438.578	193.83
438.789	119.24
439	132.99
439.211	116.14
439.423	142.29
439.634	146.36
439.845	169.8
440.057	160.89
440.268	187.82
440.479	129.89
440.69	159.53
440.902	105.67
441.113	135.12
441.324	163.41
441.535	171.74
441.746	201.58
441.957	120.4
442.168	109.16
442.38	187.63
442.591	165.15
442.802	112.07
443.013	118.85
443.224	173.87
443.435	109.35
443.646	142.68
443.857	141.32
444.068	142.87
444.279	118.85
444.49	203.71
444.701	152.75
444.912	264.74
445.123	204.29
445.334	159.53
445.545	185.3
445.756	172.32
445.967	116.72
446.178	159.53
446.388	193.63
446.599	187.24
446.81	191.31
447.021	160.89
447.232	202.16
447.443	214.56
447.653	141.71
447.864	198.67
448.075	187.24
448.286	215.33
448.496	188.79
448.707	211.85
448.918	157.21
449.129	269.78
449.339	153.33
449.55	202.16
449.761	191.7
449.971	238.58
450.182	170.97
450.393	216.11
450.603	168.06
450.814	228.51
451.024	204.29
451.235	234.13
451.446	251.18
451.656	249.05
451.867	186.66
452.077	206.62
452.288	249.05
452.498	292.25
452.709	203.71
452.919	220.95
453.13	195.57
453.34	232.77
453.55	158.95
453.761	228.31
453.971	219.79
454.182	253.11
454.392	211.46
454.602	289.15
454.813	229.67
455.023	232.19
455.233	189.57
455.444	213.4
455.654	163.02
455.864	194.02
456.075	167.67
456.285	213.4
456.495	204.1
456.705	204.68
456.916	251.56
457.126	271.52
457.336	199.45
457.546	153.72
457.756	196.73
457.967	260.48
458.177	180.27
458.387	227.73
458.597	170.38
458.807	201.19
459.017	219.6
459.227	219.02
459.437	225.8
459.647	261.83
459.857	238.78
460.068	186.08
460.278	239.75
460.488	219.6
460.698	284.11
460.908	228.7
461.117	157.4
461.327	179.3
461.537	230.83
461.747	227.54
461.957	223.08
462.167	297.87
462.377	265.13
462.587	233.93
462.797	270.75
463.007	242.65
463.216	263
463.426	273.26
463.636	278.69
463.846	199.45
464.056	209.91
464.265	275.98
464.475	230.25
464.685	229.28
464.895	261.64
465.104	232.77
465.314	258.93
465.524	240.91
465.733	230.45
465.943	306.4
466.153	310.27
466.362	270.55
466.572	259.7
466.782	227.15
466.991	242.26
467.201	321.7
467.41	193.05
467.62	296.9
467.829	239.55
468.039	292.83
468.249	265.9
468.458	244.59
468.668	275.4
468.877	251.56
469.086	312.6
469.296	308.91
469.505	233.74
469.715	338.56
469.924	282.37
470.134	302.13
470.343	326.74
470.552	280.43
470.762	279.46
470.971	256.41
471.18	287.02
471.39	259.51
471.599	237.23
471.808	305.81
472.018	256.6
472.227	317.44
472.436	320.15
472.645	298.65
472.855	285.28
473.064	343.01
473.273	312.01
473.482	327.13
473.691	327.71
473.901	319.18
474.11	281.4
474.319	396.88
474.528	314.14
474.737	378.08
474.946	325.77
475.155	290.31
475.364	346.69
475.573	332.74
475.783	344.18
475.992	339.33
476.201	352.51
476.41	297.48
476.619	296.71
476.828	346.5
477.037	321.31
477.245	314.92
477.454	337.2
477.663	310.85
477.872	340.49
478.081	367.81
478.29	295.93
478.499	402.88
478.708	351.93
478.917	405.21
479.125	341.46
479.334	373.82
479.543	361.42
479.752	373.04
479.961	386.03
480.169	387.58
480.378	340.3
480.587	469.34
480.796	408.89
481.004	376.53
481.213	373.63
481.422	399.39
481.63	402.49
481.839	402.3
482.048	455
482.256	381.38
482.465	382.15
482.674	408.11
482.882	431.17
483.091	457.32
483.299	423.22
483.508	427.87
483.716	417.22
483.925	432.72
484.134	411.6
484.342	400.94
484.551	451.71
484.759	430.39
484.967	433.88
485.176	452.67
485.384	472.05
485.593	481.54
485.801	420.51
486.01	433.11
486.218	416.64
486.426	368.98
486.635	376.53
486.843	396.68
487.051	431.36
487.26	384.09
487.468	436.59
487.676	443.76
487.885	372.08
488.093	406.76
488.301	440.47
488.509	442.02
488.717	465.07
488.926	448.8
489.134	424.39
489.342	432.33
489.55	417.02
489.758	478.06
489.967	455.19
490.175	535.99
490.383	463.14
490.591	517.58
490.799	416.06
491.007	521.65
491.215	498.4
491.423	457.13
491.631	464.69
491.839	473.41
492.047	535.21
492.255	442.21
492.463	436.79
492.671	469.72
492.879	520.68
493.087	463.33
493.295	511.77
493.503	511.77
493.711	527.65
493.919	537.73
494.127	522.42
494.334	563.3
494.542	468.17
494.75	509.25
494.958	479.22
495.166	539.09
495.374	538.89
495.581	535.21
495.789	538.5
495.997	580.16
496.205	517.39
496.412	523.39
496.62	486.19
496.828	557.69
497.035	511.77
497.243	547.61
497.451	510.6
497.658	552.84
497.866	552.07
498.074	592.17
498.281	536.37
498.489	594.5
498.696	543.93
498.904	523.97
499.112	503.63
499.319	610.38
499.527	546.45
499.734	577.45
499.942	523.78
500.149	502.08
500.357	570.28
500.564	526.1
500.771	592.56
500.979	533.66
501.186	557.88
501.394	557.3
501.601	530.95
501.808	590.04
502.016	569.12
502.223	537.92
502.43	577.64
502.638	541.6
502.845	543.54
503.052	605.54
503.26	548.19
503.467	627.82
503.674	559.82
503.881	574.15
504.089	669.28
504.296	593.14
504.503	559.82
504.71	568.34
504.917	536.57
505.125	544.12
505.332	589.65
505.539	612.52
505.746	634.8
505.953	635.57
506.16	611.93
506.367	657.66
506.574	653.59
506.781	689.43
506.988	572.41
507.195	647.58
507.402	631.12
507.609	641
507.816	603.8
508.023	612.52
508.23	588.68
508.437	572.8
508.644	651.85
508.851	698.73
509.058	649.91
509.265	663.28
509.472	642.16
509.679	721.79
509.885	649.91
510.092	634.8
510.299	627.43
510.506	647
510.713	662.12
510.92	632.08
511.126	670.25
511.333	695.63
511.54	698.73
511.746	727.21
511.953	719.08
512.16	727.8
512.367	662.7
512.573	663.47
512.78	701.06
512.987	641.77
513.193	692.73
513.4	618.13
513.606	654.95
513.813	703.19
514.02	670.06
514.226	729.54
514.433	731.48
514.639	672.77
514.846	694.28
515.052	682.26
515.259	722.18
515.465	715.01
515.672	706.48
515.878	772.94
516.085	701.45
516.291	743.3
516.497	696.6
516.704	692.15
516.91	700.09
517.117	638.09
517.323	619.3
517.529	657.27
517.736	647.39
517.942	671.61
518.148	673.16
518.354	691.76
518.561	704.55
518.767	672.96
518.973	741.75
519.179	707.65
519.386	646.81
519.592	702.61
519.798	716.36
520.004	750.08
520.21	706.68
520.417	763.83
520.623	785.14
520.829	798.71
521.035	794.44
521.241	785.92
521.447	786.89
521.653	904.11
521.859	795.61
522.065	817.11
522.271	888.22
522.477	840.94
522.683	852.18
522.889	854.31
523.095	823.89
523.301	811.3
523.507	826.22
523.713	884.34
523.919	810.14
524.125	899.07
524.331	846.95
524.537	933.75
524.742	876.79
524.948	907.79
525.154	893.06
525.36	988.39
525.566	888.22
525.772	916.51
525.977	843.85
526.183	961.07
526.389	925.8
526.595	898.68
526.8	871.17
527.006	855.28
527.212	831.45
527.417	800.45
527.623	838.23
527.829	879.89
528.034	882.99
528.24	888.61
528.446	851.41
528.651	934.33
528.857	920.19
529.062	1002.53
529.268	914.76
529.473	948.28
529.679	919.99
529.884	980.83
530.09	974.82
530.295	1015.12
530.501	966.49
530.706	968.04
530.912	934.33
531.117	967.85
531.323	959.9
531.528	1014.15
531.733	988
531.939	984.12
532.144	990.9
532.35	964.17
532.555	1022.68
532.76	1015.32
532.966	1037.21
533.171	993.81
533.376	928.32
533.581	914.57
533.787	982.96
533.992	1029.07
534.197	1052.52
534.402	988.77
534.607	1021.32
534.813	1085.26
535.018	986.25
535.223	992.65
535.428	1000.79
535.633	1044.96
535.838	1049.8
536.043	1040.89
536.249	1107.15
536.454	1013.96
536.659	1044.77
536.864	974.44
537.069	999.24
537.274	1031.59
537.479	1032.95
537.684	1007.76
537.889	1029.46
538.094	1131.76
538.299	1045.54
538.504	1063.75
538.708	1081.19
538.913	1100.56
539.118	1038.57
539.323	1078.67
539.528	1041.47
539.733	1041.28
539.938	1093.98
540.142	1068.21
540.347	1049.61
540.552	1005.82
540.757	1053.48
540.962	1040.31
541.166	1010.28
541.371	981.02
541.576	1067.63
541.781	959.13
541.985	1059.1
542.19	1044.38
542.395	1094.56
542.599	1123.04
542.804	1100.76
543.008	1133.31
543.213	1036.43
543.418	1034.3
543.622	1121.49
543.827	999.24
544.031	1113.16
544.236	1131.56
544.44	1086.42
544.645	1178.06
544.849	1066.27
545.054	1109.28
545.258	1166.05
545.463	1185.81
545.667	1055.42
545.872	1120.33
546.076	1143.77
546.281	1100.56
546.485	1106.18
546.689	1115.29
546.894	1160.82
547.098	1118.78
547.302	1049.61
547.507	1134.28
547.711	1101.53
547.915	1181.36
548.119	1091.46
548.324	1085.07
548.528	1160.82
548.732	1131.56
548.936	1180.39
549.141	1155.4
549.345	1130.98
549.549	1138.93
549.753	1118
549.957	1213.13
550.161	1194.34
550.366	1126.14
550.57	1140.67
550.774	1143.38
550.978	1137.57
551.182	1152.3
551.386	1136.41
551.59	1108.51
551.794	1108.12
551.998	1171.28
552.202	1138.35
552.406	1074.99
552.61	1150.75
552.814	1118.58
553.018	1167.21
553.222	1111.61
553.426	1121.88
553.63	1209.06
553.833	1129.05
554.037	1095.53
554.241	1146.1
554.445	1145.9
554.649	1124.2
554.853	1107.93
555.056	1206.35
555.26	1161.98
555.464	1156.56
555.668	1153.26
555.871	1197.83
556.075	1189.69
556.279	1107.93
556.483	1083.52
556.686	1120.33
556.89	1122.46
557.094	1129.24
557.297	1092.04
557.501	1170.31
557.704	1070.34
557.908	1152.3
558.112	1097.85
558.315	1161.79
558.519	1124.98
558.722	1149.58
558.926	1094.95
559.129	1064.14
559.333	1072.86
559.536	1059.49
559.74	1040.7
559.943	1052.71
560.147	1035.08
560.35	1084.87
560.553	1062.01
560.757	988.58
560.96	1120.71
561.164	1047.48
561.367	1149.58
561.57	1090.49
561.774	1114.51
561.977	1073.63
562.18	1060.27
562.384	1177.87
562.587	1064.53
562.79	1037.79
562.993	1103.08
563.197	1104.63
563.4	1139.12
563.603	1138.54
563.806	1197.05
564.009	1052.32
564.212	1103.08
564.416	1018.03
564.619	1103.28
564.822	1022.68
565.025	1113.35
565.228	1052.9
565.431	1079.83
565.634	1007.76
565.837	1027.91
566.04	1034.3
566.243	1036.63
566.446	975.02
566.649	1028.88
566.852	972.5
567.055	1029.85
567.258	1050.19
567.461	1121.49
567.664	1086.03
567.867	956.22
568.07	1029.07
568.273	1056.58
568.475	1072.28
568.678	1034.11
568.881	1028.88
569.084	1028.3
569.287	908.17
569.489	975.02
569.692	1042.44
569.895	999.24
570.098	967.07
570.3	953.12
570.503	943.44
570.706	959.32
570.909	933.75
571.111	889.77
571.314	913.99
571.516	913.99
571.719	933.94
571.922	924.45
572.124	923.48
572.327	934.52
572.529	908.95
572.732	929.68
572.935	950.8
573.137	993.23
573.34	928.32
573.542	930.26
573.745	965.72
573.947	969.2
574.15	919.02
574.352	896.74
574.554	988
574.757	907.79
574.959	871.56
575.162	900.62
575.364	868.84
575.566	1004.27
575.769	865.36
575.971	951.38
576.173	849.86
576.376	903.72
576.578	932.2
576.78	950.41
576.982	831.64
577.185	898.68
577.387	829.71
577.589	832.23
577.791	932.59
577.993	894.42
578.196	873.88
578.398	902.75
578.6	906.43
578.802	818.47
579.004	864.39
579.206	843.27
579.408	896.74
579.61	850.05
579.812	944.6
580.014	886.09
580.216	861.87
580.418	876.98
580.62	850.05
580.822	790.57
581.024	860.9
581.226	898.1
581.428	848.31
581.63	938.79
581.832	845.4
582.034	909.34
582.236	843.46
582.438	910.69
582.64	936.07
582.841	953.32
583.043	986.25
583.245	906.82
583.447	892.48
583.649	883.18
583.85	888.61
584.052	923.87
584.254	855.09
584.456	899.65
584.657	870.2
584.859	892.29
585.061	875.04
585.262	861.87
585.464	843.46
585.666	877.37
585.867	844.43
586.069	968.43
586.27	870.39
586.472	869.42
586.674	857.22
586.875	843.46
587.077	852.96
587.278	865.94
587.48	851.41
587.681	949.64
587.883	882.02
588.084	797.54
588.285	847.14
588.487	808.78
588.688	845.79
588.89	793.09
589.091	776.43
589.292	794.06
589.494	767.51
589.695	790.38
589.896	706.87
590.098	679.75
590.299	746.78
590.5	733.41
590.702	757.24
590.903	776.81
591.104	777.01
591.305	769.06
591.507	844.24
591.708	807.81
591.909	782.63
592.11	877.17
592.311	808.2
592.512	782.04
592.714	729.93
592.915	749.88
593.116	752.4
593.317	792.31
593.518	783.01
593.719	753.56
593.92	814.21
594.121	828.93
594.322	805.68
594.523	795.41
594.724	747.75
594.925	790.76
595.126	776.23
595.327	793.86
595.528	826.41
595.729	791.54
595.929	771.97
596.13	793.48
596.331	775.46
596.532	787.86
596.733	849.86
596.934	805.49
597.135	807.23
597.335	816.73
597.536	746.2
597.737	811.49
597.938	772.94
598.138	805.68
598.339	760.54
598.54	774.49
598.74	790.38
598.941	774.1
599.142	831.06
599.342	784.95
599.543	764.03
599.744	775.46
599.944	760.73
600.145	789.6
600.345	777.59
600.546	867.68
600.746	841.52
600.947	886.28
601.147	789.99
601.348	874.85
601.548	779.33
601.749	789.99
601.949	753.76
602.15	758.41
602.35	793.28
602.551	824.86
602.751	741.94
602.951	769.26
603.152	723.73
603.352	814.21
603.552	788.63
603.753	828.16
603.953	803.74
604.153	797.74
604.354	784.56
604.554	777.39
604.754	783.79
604.954	752.59
605.155	773.13
605.355	760.93
605.555	832.61
605.755	824.28
605.955	822.34
606.155	813.82
606.356	783.01
606.556	796.77
606.756	783.01
606.956	741.16
607.156	839.2
607.356	747.95
607.556	790.18
607.756	787.28
607.956	813.43
608.156	774.1
608.356	751.82
608.556	797.74
608.756	764.8
608.956	728.18
609.156	768.87
609.356	717.14
609.556	749.5
609.755	739.03
609.955	734.96
610.155	742.52
610.355	759.76
610.555	748.53
610.755	777.98
610.954	711.52
611.154	753.95
611.354	792.12
611.554	727.21
611.753	712.88
611.953	691.56
612.153	763.44
612.352	767.32
612.552	719.08
612.752	650.1
612.951	714.81
613.151	722.37
613.351	698.73
613.55	732.25
613.75	724.31
613.949	724.31
614.149	744.07
614.348	711.91
614.548	692.15
614.747	636.54
614.947	691.76
615.146	645.07
615.346	740
615.545	737.48
615.745	704.74
615.944	756.66
616.144	684.01
616.343	724.11
616.542	704.35
616.742	699.7
616.941	725.47
617.14	663.66
617.34	690.79
617.539	676.06
617.738	671.03
617.938	729.73
618.137	727.41
618.336	646.42
618.535	710.94
618.734	668.51
618.934	688.27
619.133	701.64
619.332	714.62
619.531	655.92
619.73	665.02
619.929	724.7
620.128	706.87
620.328	732.06
620.527	643.32
620.726	683.62
620.925	697.18
621.124	657.47
621.323	692.73
621.522	630.15
621.721	668.51
621.92	653.2
622.119	676.26
622.318	634.22
622.517	647
622.715	661.73
622.914	596.63
623.113	660.76
623.312	602.63
623.511	666.96
623.71	691.76
623.909	639.25
624.107	727.99
624.306	599.53
