Data from pine_FLMT105791__86__17-21-26-077.txt Node

Date: Mon Mar 20 17:21:26 GMT 2023
User: antho
Spectrometer: FLMT10579
Trigger mode: 0
Integration Time (sec): 1.000000E-1
Scans to average: 10
Electric dark correction enabled: true
Nonlinearity correction enabled: false
Boxcar width: 0
XAxis mode: Wavelengths
Number of Pixels in Spectrum: 3648
>>>>>Begin Spectral Data<<<<<
345.248	-176.5
345.464	-176.5
345.681	-176.5
345.898	-179.41
346.114	-176.89
346.331	-10.66
346.548	-10.27
346.764	-23.83
346.981	1.36
347.197	-29.26
347.414	11.82
347.631	-31.77
347.847	72.07
348.064	32.16
348.28	37.78
348.497	-35.84
348.713	-13.56
348.93	13.56
349.146	34.87
349.363	-11.62
349.579	2.32
349.796	-16.47
350.012	-15.31
350.229	11.82
350.445	22.28
350.661	-29.84
350.878	-1.36
351.094	23.44
351.311	23.25
351.527	33.13
351.743	-26.54
351.96	18.02
352.176	37.01
352.392	12.79
352.609	27.9
352.825	-12.01
353.041	-0.39
353.257	-23.25
353.474	-1.36
353.69	-5.42
353.906	6.2
354.122	-15.69
354.339	33.91
354.555	-5.42
354.771	-8.52
354.987	41.07
355.203	47.08
355.42	5.04
355.636	-15.31
355.852	-23.83
356.068	15.31
356.284	-36.62
356.5	77.31
356.716	-11.24
356.932	7.17
357.148	26.74
357.364	-8.91
357.58	32.16
357.796	43.98
358.012	52.89
358.228	27.51
358.444	-62.19
358.66	38.17
358.876	11.43
359.092	-23.64
359.308	19.18
359.524	24.8
359.74	-15.5
359.956	0
360.172	-3.29
360.388	43.4
360.604	0.97
360.819	60.84
361.035	5.62
361.251	40.11
361.467	-0.39
361.683	34.29
361.898	18.21
362.114	21.51
362.33	23.64
362.546	32.16
362.762	0.39
362.977	7.56
363.193	2.13
363.409	34.29
363.624	1.55
363.84	-5.81
364.056	5.62
364.271	14.72
364.487	-2.13
364.703	-6.2
364.918	-1.94
365.134	-13.76
365.35	-29.06
365.565	82.92
365.781	15.5
365.996	31.19
366.212	65.68
366.427	12.21
366.643	-25.96
366.858	-11.62
367.074	-36.04
367.289	51.34
367.505	122.45
367.72	-26.35
367.936	-1.94
368.151	33.32
368.367	13.17
368.582	-4.65
368.798	4.46
369.013	68.01
369.228	12.01
369.444	24.8
369.659	40.11
369.874	32.36
370.09	66.46
370.305	-69.17
370.52	-24.8
370.736	39.52
370.951	-2.32
371.166	46.5
371.381	63.55
371.597	26.74
371.812	-21.31
372.027	-35.65
372.242	16.86
372.458	92.03
372.673	3.49
372.888	14.92
373.103	11.04
373.318	64.91
373.533	25.57
373.749	13.17
373.964	-30.42
374.179	34.49
374.394	-29.64
374.609	38.36
374.824	3.1
375.039	52.89
375.254	1.55
375.469	46.11
375.684	28.67
375.899	58.32
376.114	7.56
376.329	27.71
376.544	59.87
376.759	53.28
376.974	-14.34
377.189	-8.91
377.404	11.43
377.619	41.27
377.834	-21.89
378.049	-32.55
378.264	3.87
378.478	8.91
378.693	-9.11
378.908	31.97
379.123	-5.42
379.338	76.34
379.553	7.56
379.767	21.51
379.982	40.11
380.197	27.32
380.412	36.42
380.626	23.25
380.841	91.06
381.056	71.69
381.271	61.03
381.485	5.23
381.7	-19.37
381.915	37.2
382.129	10.27
382.344	27.9
382.559	1.55
382.773	60.06
382.988	-39.14
383.202	13.17
383.417	-25.96
383.632	100.75
383.846	10.66
384.061	28.29
384.275	8.72
384.49	21.7
384.704	37.97
384.919	31.19
385.133	7.36
385.348	14.72
385.562	-21.31
385.777	61.81
385.991	31
386.206	-15.89
386.42	4.46
386.634	71.3
386.849	12.98
387.063	14.53
387.277	4.07
387.492	3.87
387.706	-0.58
387.92	-10.66
388.135	19.18
388.349	45.14
388.563	6.2
388.778	42.04
388.992	35.26
389.206	33.71
389.42	84.67
389.635	15.69
389.849	50.18
390.063	40.11
390.277	28.29
390.491	60.84
390.706	27.32
390.92	45.53
391.134	8.33
391.348	45.92
391.562	-24.8
391.776	28.09
391.99	0.39
392.205	48.82
392.419	6.01
392.633	4.46
392.847	80.99
393.061	-11.43
393.275	94.94
393.489	29.26
393.703	28.67
393.917	53.67
394.131	-17.63
394.345	79.44
394.559	70.14
394.773	-0.58
394.986	30.61
395.2	8.52
395.414	62.97
395.628	-13.56
395.842	37.97
396.056	-2.52
396.27	-18.99
396.484	47.47
396.697	20.92
396.911	79.63
397.125	23.83
397.339	75.56
397.553	38.56
397.766	92.03
397.98	53.09
398.194	56.19
398.408	3.87
398.621	50.37
398.835	33.52
399.049	42.82
399.262	79.82
399.476	50.57
399.69	42.82
399.903	102.49
400.117	30.81
400.331	69.17
400.544	3.68
400.758	135.43
400.971	56.38
401.185	48.44
401.398	-7.36
401.612	77.5
401.826	67.62
402.039	57.54
402.253	11.43
402.466	43.98
402.68	30.03
402.893	62
403.106	51.54
403.32	23.83
403.533	59.29
403.747	38.75
403.96	61.42
404.174	44.76
404.387	18.79
404.6	40.3
404.814	57.93
405.027	65.29
405.24	43.59
405.454	6.01
405.667	67.62
405.88	-2.71
406.094	59.29
406.307	62.39
406.52	27.12
406.733	28.29
406.947	1.94
407.16	107.92
407.373	84.28
407.586	16.27
407.799	5.42
408.012	59.09
408.226	51.34
408.439	86.22
408.652	11.04
408.865	44.56
409.078	87.57
409.291	58.12
409.504	15.31
409.717	67.23
409.93	65.87
410.143	57.54
410.357	11.04
410.57	-5.04
410.783	24.41
410.996	50.37
411.209	20.73
411.421	86.22
411.634	52.51
411.847	50.76
412.06	38.75
412.273	39.33
412.486	34.87
412.699	146.28
412.912	41.85
413.125	50.76
413.338	53.28
413.55	67.04
413.763	59.67
413.976	39.91
414.189	4.26
414.402	36.81
414.615	81.96
414.827	27.71
415.04	54.44
415.253	55.61
415.466	67.04
415.678	147.64
415.891	50.76
416.104	57.74
416.316	31.77
416.529	34.49
416.742	63.94
416.954	78.08
417.167	61.42
417.38	43.79
417.592	95.32
417.805	31.97
418.017	12.59
418.23	86.99
418.442	31.19
418.655	37.2
418.868	62.97
419.08	84.28
419.293	100.75
419.505	35.26
419.718	74.4
419.93	85.83
420.142	49.6
420.355	131.75
420.567	106.95
420.78	92.8
420.992	58.71
421.205	114.89
421.417	52.12
421.629	35.65
421.842	49.6
422.054	30.81
422.266	81.37
422.479	82.34
422.691	50.37
422.903	87.96
423.115	47.08
423.328	63.94
423.54	82.34
423.752	95.9
423.964	52.12
424.177	83.7
424.389	56.57
424.601	168.56
424.813	66.46
425.025	96.68
425.238	116.25
425.45	47.27
425.662	51.54
425.874	366.18
426.086	84.28
426.298	101.52
426.51	94.55
426.722	78.47
426.934	60.64
427.146	114.31
427.358	67.04
427.57	125.74
427.782	66.07
427.994	73.82
428.206	52.7
428.418	49.79
428.63	115.47
428.842	92.22
429.054	99.2
429.266	89.12
429.478	73.24
429.69	93
429.902	52.89
430.114	123.61
430.325	98.42
430.537	67.23
430.749	84.47
430.961	8.33
431.173	78.86
431.384	94.74
431.596	16.27
431.808	89.7
432.02	86.41
432.231	112.95
432.443	146.47
432.655	89.9
432.867	75.56
433.078	123.8
433.29	179.41
433.502	126.9
433.713	152.29
433.925	120.7
434.136	174.18
434.348	50.57
434.56	66.26
434.771	211.77
434.983	85.06
435.194	98.23
435.406	97.07
435.617	161.97
435.829	186.19
436.04	172.82
436.252	156.94
436.463	162.94
436.675	151.12
436.886	151.9
437.098	154.61
437.309	233.85
437.521	124.39
437.732	146.86
437.943	154.8
438.155	143.76
438.366	82.54
438.578	193.75
438.789	119.15
439	180.18
439.211	144.15
439.423	185.42
439.634	175.73
439.845	164.3
440.057	128.45
440.268	172.82
440.479	177.67
440.69	153.45
440.902	166.82
441.113	162.94
441.324	160.62
441.535	171.08
441.746	209.63
441.957	117.41
442.168	153.64
442.38	181.15
442.591	202.08
442.802	152.87
443.013	154.03
443.224	191.42
443.435	160.04
443.646	183.48
443.857	153.64
444.068	162.17
444.279	156.16
444.49	236.18
444.701	164.49
444.912	266.98
445.123	220.1
445.334	225.52
445.545	188.32
445.756	179.6
445.967	125.94
446.178	178.83
446.388	240.63
446.599	220.1
446.81	228.04
447.021	190.65
447.232	229.01
447.443	244.32
447.653	173.02
447.864	237.92
448.075	202.27
448.286	240.05
448.496	221.65
448.707	262.33
448.918	223.2
449.129	299.34
449.339	198.2
449.55	254.39
449.761	224.36
449.971	272.8
450.182	239.28
450.393	235.98
450.603	205.18
450.814	271.25
451.024	245.67
451.235	256.72
451.446	292.36
451.656	282.68
451.867	235.02
452.077	250.13
452.288	315.03
452.498	302.83
452.709	220.1
452.919	250.9
453.13	230.37
453.34	267.56
453.55	199.95
453.761	275.9
453.971	280.16
454.182	268.15
454.392	280.16
454.602	322.78
454.813	295.85
455.023	302.83
455.233	215.45
455.444	281.32
455.654	212.54
455.864	256.33
456.075	241.41
456.285	248
456.495	256.72
456.705	279.96
456.916	319.3
457.126	320.65
457.336	258.85
457.546	213.12
457.756	257.88
457.967	318.91
458.177	254.2
458.387	306.9
458.597	262.72
458.807	276.86
459.017	254.78
459.227	267.56
459.437	250.71
459.647	297.98
459.857	317.16
460.068	286.75
460.278	297.01
460.488	305.73
460.698	345.84
460.908	289.07
461.117	246.64
461.327	265.82
461.537	316
461.747	308.25
461.957	273.96
462.167	393.11
462.377	332.66
462.587	282.29
462.797	331.89
463.007	316.2
463.216	329.18
463.426	337.9
463.636	338.28
463.846	250.32
464.056	297.6
464.265	301.86
464.475	275.31
464.685	300.5
464.895	327.82
465.104	291.01
465.314	325.88
465.524	316.97
465.733	291.01
465.943	394.86
466.153	391.76
466.362	365.6
466.572	341.58
466.782	341.58
466.991	333.44
467.201	364.63
467.41	301.28
467.62	368.89
467.829	336.93
468.039	334.8
468.249	323.75
468.458	335.18
468.668	364.44
468.877	371.41
469.086	392.53
469.296	367.73
469.505	310.58
469.715	423.14
469.924	349.91
470.134	410.16
470.343	393.89
470.552	353.59
470.762	338.86
470.971	339.83
471.18	358.43
471.39	362.69
471.599	332.28
471.808	389.04
472.018	353.98
472.227	401.44
472.436	421.59
472.645	377.03
472.855	356.11
473.064	450.66
473.273	416.56
473.482	393.11
473.691	431.86
473.901	451.43
474.11	400.86
474.319	484.56
474.528	436.9
474.737	445.04
474.946	437.87
475.155	440.19
475.364	474.1
475.573	417.72
475.783	439.03
475.992	422.76
476.201	464.99
476.41	462.09
476.619	417.72
476.828	420.82
477.037	431.48
477.245	424.69
477.454	456.27
477.663	427.99
477.872	440.39
478.081	522.34
478.29	438.64
478.499	544.62
478.708	479.14
478.917	543.85
479.125	461.51
479.334	480.69
479.543	453.37
479.752	487.08
479.961	500.06
480.169	529.51
480.378	507.42
480.587	607.59
480.796	536.1
481.004	537.07
481.213	538.81
481.422	523.7
481.63	508.97
481.839	559.74
482.048	568.84
482.256	529.12
482.465	534.35
482.674	552.95
482.882	583.57
483.091	619.8
483.299	549.85
483.508	542.1
483.716	553.34
483.925	598.1
484.134	555.67
484.342	541.52
484.551	603.14
484.759	568.84
484.967	593.64
485.176	619.99
485.384	609.72
485.593	642.08
485.801	575.43
486.01	584.92
486.218	554.12
486.426	491.15
486.635	553.73
486.843	498.12
487.051	550.24
487.26	508.97
487.468	585.5
487.676	580.47
487.885	544.62
488.093	576.01
488.301	606.82
488.509	595.97
488.717	640.72
488.926	623.09
489.134	604.69
489.342	628.32
489.55	603.33
489.758	609.92
489.967	575.82
490.175	711.63
490.383	643.82
490.591	723.65
490.799	634.13
491.007	693.62
491.215	661.45
491.423	664.17
491.631	681.22
491.839	653.32
492.047	725.78
492.255	611.27
492.463	616.7
492.671	636.27
492.879	708.92
493.087	665.72
493.295	706.98
493.503	689.55
493.711	734.3
493.919	710.47
494.127	739.53
494.334	731.2
494.542	635.49
494.75	698.27
494.958	693.62
495.166	757.55
495.374	779.45
495.581	745.15
495.789	731.59
495.997	778.86
496.205	707.37
496.412	722.48
496.62	749.61
496.828	760.26
497.035	737.4
497.243	770.53
497.451	754.65
497.658	752.13
497.866	722.68
498.074	798.82
498.281	729.07
498.489	785.65
498.696	745.73
498.904	737.98
499.112	721.51
499.319	811.03
499.527	753.87
499.734	786.42
499.942	716.09
500.149	753.48
500.357	758.13
500.564	724.23
500.771	788.16
500.979	708.73
501.186	744.76
501.394	766.46
501.601	762.2
501.808	777.51
502.016	749.8
502.223	730.23
502.43	770.73
502.638	745.35
502.845	759.49
503.052	883.49
503.26	747.28
503.467	851.13
503.674	796.3
503.881	804.44
504.089	901.51
504.296	851.71
504.503	778.28
504.71	786.42
504.917	759.3
505.125	818.58
505.332	847.06
505.539	834.66
505.746	903.83
505.953	863.14
506.16	836.41
506.367	881.55
506.574	898.79
506.781	898.21
506.988	823.43
507.195	884.26
507.402	858.3
507.609	898.79
507.816	849.19
508.023	842.8
508.23	852.29
508.437	799.01
508.644	901.51
508.851	918.56
509.058	904.8
509.265	875.93
509.472	878.06
509.679	988.69
509.885	875.35
510.092	862.18
510.299	887.56
510.506	886.59
510.713	903.25
510.92	878.84
511.126	931.73
511.333	964.86
511.54	956.14
511.746	989.66
511.953	993.73
512.16	981.14
512.367	931.15
512.573	943.74
512.78	912.74
512.987	962.15
513.193	939.67
513.4	891.82
513.606	930.57
513.813	978.62
514.02	964.86
514.226	999.35
514.433	1008.65
514.639	932.51
514.846	956.92
515.052	943.74
515.259	970.48
515.465	940.84
515.672	993.92
515.878	1035.97
516.085	976.1
516.291	1030.35
516.497	943.16
516.704	981.52
516.91	924.37
517.117	908.87
517.323	869.15
517.529	929.41
517.736	880.77
517.942	959.24
518.148	921.85
518.354	967.19
518.561	959.05
518.767	970.29
518.973	1017.17
519.179	1000.51
519.386	971.45
519.592	968.35
519.798	964.28
520.004	1095.06
520.21	1035
520.417	1056.12
520.623	1079.75
520.829	1113.47
521.035	1105.91
521.241	1111.14
521.447	1091.18
521.653	1202.01
521.859	1096.42
522.065	1106.1
522.271	1213.63
522.477	1159
522.683	1181.86
522.889	1147.56
523.095	1151.25
523.301	1156.48
523.507	1109.2
523.713	1141.75
523.919	1103.78
524.125	1211.89
524.331	1173.72
524.537	1267.3
524.742	1233.59
524.948	1236.3
525.154	1209.37
525.36	1291.52
525.566	1243.86
525.772	1282.41
525.977	1205.5
526.183	1262.65
526.389	1270.4
526.595	1197.75
526.8	1198.71
527.006	1133.81
527.212	1124.51
527.417	1115.98
527.623	1108.43
527.829	1210.15
528.034	1201.43
528.24	1231.46
528.446	1195.23
528.651	1278.15
528.857	1286.09
529.062	1322.71
529.268	1277.76
529.473	1299.27
529.679	1295.01
529.884	1350.03
530.09	1350.03
530.295	1336.47
530.501	1313.02
530.706	1304.69
530.912	1287.45
531.117	1294.04
531.323	1320.77
531.528	1349.26
531.733	1364.95
531.939	1317.87
532.144	1387.23
532.35	1373.09
532.555	1406.99
532.76	1388.01
532.966	1333.37
533.171	1344.8
533.376	1299.85
533.581	1298.3
533.787	1332.01
533.992	1338.21
534.197	1384.13
534.402	1337.63
534.607	1345.19
534.813	1447.87
535.018	1360.88
535.223	1351.77
535.428	1359.33
535.633	1432.76
535.838	1436.83
536.043	1441.09
536.249	1487.01
536.454	1417.84
536.659	1423.46
536.864	1382.77
537.069	1442.06
537.274	1421.14
537.479	1408.54
537.684	1436.05
537.889	1345.38
538.094	1484.49
538.299	1404.09
538.504	1420.75
538.708	1433.34
538.913	1465.89
539.118	1442.84
539.323	1446.52
539.528	1390.52
539.733	1421.14
539.938	1449.62
540.142	1460.85
540.347	1414.74
540.552	1382
540.757	1402.54
540.962	1374.64
541.166	1344.22
541.371	1363.4
541.576	1369.79
541.781	1314.96
541.985	1420.55
542.19	1401.95
542.395	1474.03
542.599	1484.3
542.804	1479.07
543.008	1507.74
543.213	1394.79
543.418	1386.84
543.622	1466.47
543.827	1427.72
544.031	1470.54
544.236	1488.17
544.44	1424.62
544.645	1514.33
544.849	1429.85
545.054	1499.99
545.258	1566.25
545.463	1505.03
545.667	1411.25
545.872	1490.5
546.076	1476.35
546.281	1477.52
546.485	1408.15
546.689	1493.21
546.894	1532.15
547.098	1476.74
547.302	1454.07
547.507	1475.77
547.711	1513.36
547.915	1554.82
548.119	1488.37
548.324	1470.74
548.528	1576.91
548.732	1517.23
548.936	1524.6
549.141	1559.47
549.345	1507.35
549.549	1492.24
549.753	1534.67
549.957	1595.9
550.161	1626.51
550.366	1521.3
550.57	1482.36
550.774	1485.85
550.978	1531.38
551.182	1567.03
551.386	1496.31
551.59	1493.6
551.794	1528.86
551.998	1532.93
552.202	1510.07
552.406	1488.17
552.61	1527.89
552.814	1540.87
553.018	1601.71
553.222	1505.8
553.426	1511.03
553.63	1588.15
553.833	1524.02
554.037	1477.13
554.241	1536.22
554.445	1544.94
554.649	1546.49
554.853	1513.55
555.056	1512.2
555.26	1564.12
555.464	1511.81
555.668	1536.8
555.871	1557.15
556.075	1539.9
556.279	1538.35
556.483	1479.84
556.686	1513.17
556.89	1521.88
557.094	1552.11
557.297	1489.92
557.501	1534.28
557.704	1466.09
557.908	1567.61
558.112	1460.27
558.315	1509.1
558.519	1481.78
558.722	1451.36
558.926	1485.07
559.129	1423.85
559.333	1451.55
559.536	1426.75
559.74	1413.58
559.943	1400.4
560.147	1434.5
560.35	1432.76
560.553	1424.43
560.757	1390.14
560.96	1533.32
561.164	1449.42
561.367	1550.75
561.57	1444.97
561.774	1480.81
561.977	1457.56
562.18	1457.95
562.384	1551.14
562.587	1475.77
562.79	1456.79
562.993	1449.23
563.197	1493.6
563.4	1519.56
563.603	1519.37
563.806	1536.8
564.009	1445.74
564.212	1482.17
564.416	1395.56
564.619	1459.11
564.822	1396.14
565.025	1478.1
565.228	1419.78
565.431	1475.58
565.634	1354.68
565.837	1382.19
566.04	1371.15
566.243	1393.24
566.446	1345.77
566.649	1440.7
566.852	1349.26
567.055	1390.52
567.258	1420.36
567.461	1449.04
567.664	1445.94
567.867	1375.41
568.07	1418.04
568.273	1424.04
568.475	1430.63
568.678	1376.19
568.881	1375.99
569.084	1369.02
569.287	1284.35
569.489	1345.96
569.692	1381.03
569.895	1387.42
570.098	1312.44
570.3	1318.84
570.503	1287.26
570.706	1263.62
570.909	1276.6
571.111	1231.84
571.314	1245.79
571.516	1261.29
571.719	1299.66
571.922	1277.18
572.124	1292.49
572.327	1305.28
572.529	1228.94
572.732	1234.94
572.935	1298.49
573.137	1338.99
573.34	1277.76
573.542	1290.55
573.745	1294.43
573.947	1286.87
574.15	1256.84
574.352	1219.64
574.554	1300.43
574.757	1245.02
574.959	1230.29
575.162	1227
575.364	1246.76
575.566	1291.71
575.769	1214.6
575.971	1241.14
576.173	1155.31
576.376	1219.25
576.578	1234.56
576.78	1291.13
576.982	1172.17
577.185	1210.92
577.387	1189.61
577.589	1201.43
577.791	1246.96
577.993	1231.46
578.196	1197.16
578.398	1241.14
578.6	1221.58
578.802	1141.36
579.004	1151.05
579.206	1149.7
579.408	1204.72
579.61	1124.12
579.812	1220.22
580.014	1136.13
580.216	1195.23
580.418	1179.92
580.62	1180.5
580.822	1154.15
581.024	1188.25
581.226	1203.95
581.428	1193.1
581.63	1282.03
581.832	1178.18
582.034	1239.59
582.236	1190.19
582.438	1224.29
582.64	1234.75
582.841	1241.34
583.043	1295.01
583.245	1213.05
583.447	1257.81
583.649	1216.35
583.85	1232.23
584.052	1263.62
584.254	1192.9
584.456	1258
584.657	1197.75
584.859	1186.7
585.061	1177.98
585.262	1144.08
585.464	1152.02
585.666	1201.62
585.867	1191.55
586.069	1220.41
586.27	1164.42
586.472	1155.7
586.674	1126.25
586.875	1156.09
587.077	1155.51
587.278	1180.11
587.48	1147.37
587.681	1260.33
587.883	1205.11
588.084	1092.15
588.285	1158.22
588.487	1117.73
588.688	1106.3
588.89	1084.21
589.091	1047.98
589.292	1064.25
589.494	1060.57
589.695	1020.66
589.896	931.54
590.098	982.49
590.299	1043.14
590.5	1032.29
590.702	1030.15
590.903	1050.5
591.104	1108.82
591.305	1079.17
591.507	1126.83
591.708	1086.73
591.909	1060.96
592.11	1143.88
592.311	1109.78
592.512	1073.75
592.714	1009.04
592.915	1048.56
593.116	1053.98
593.317	1063.09
593.518	1058.44
593.719	1065.61
593.92	1118.5
594.121	1111.33
594.322	1030.35
594.523	1084.21
594.724	1037.52
594.925	1043.33
595.126	1077.04
595.327	1063.87
595.528	1050.5
595.729	1059.8
595.929	1042.17
596.13	1084.79
596.331	1096.8
596.532	1041.39
596.733	1121.41
596.934	1128.97
597.135	1097.19
597.335	1062.7
597.536	1029.38
597.737	1102.81
597.938	1019.89
598.138	1073.17
598.339	1039.07
598.54	1064.45
598.74	1049.53
598.941	1057.47
599.142	1123.35
599.342	1067.16
599.543	1012.52
599.744	1053.79
599.944	1068.32
600.145	1028.02
600.345	1073.94
600.546	1102.03
600.746	1109.01
600.947	1144.85
601.147	1074.13
601.348	1084.02
601.548	1041
601.749	1058.63
601.949	1027.05
602.15	1018.72
602.35	1017.17
602.551	1102.23
602.751	1038.49
602.951	1049.53
603.152	964.67
603.352	1092.35
603.552	1057.28
603.753	1100.87
603.953	1077.04
604.153	1083.43
604.354	1033.25
604.554	1053.79
604.754	1044.49
604.954	1018.14
605.155	1087.12
605.355	1029.77
605.555	1078.98
605.755	1083.82
605.955	1043.33
606.155	1083.63
606.356	1081.3
606.556	1086.92
606.756	1097.19
606.956	1030.15
607.156	1128.97
607.356	1031.51
607.556	1069.68
607.756	1050.3
607.956	1078.98
608.156	1077.23
608.356	1048.17
608.556	1048.17
608.756	1026.47
608.956	1013.88
609.156	1066
609.356	996.83
609.556	991.02
609.755	1068.52
609.955	1020.47
610.155	1038.87
610.355	1062.7
610.555	1011.55
610.755	1000.51
610.954	978.81
611.154	1039.07
611.354	1070.07
611.554	1013.69
611.753	978.04
611.953	964.28
612.153	1044.49
612.352	1012.14
612.552	954.01
612.752	941.22
612.951	990.05
613.151	991.79
613.351	972.22
613.55	948.01
613.75	998.96
613.949	993.73
614.149	995.09
614.348	974.35
614.548	939.29
614.747	910.81
614.947	974.74
615.146	929.41
615.346	1025.31
615.545	986.75
615.745	956.34
615.944	990.63
616.144	990.82
616.343	1020.47
616.542	941.22
616.742	912.74
616.941	966.41
617.14	897.82
617.34	977.07
617.539	956.72
617.738	939.48
617.938	1021.44
618.137	939.67
618.336	954.01
618.535	985.79
618.734	962.54
618.934	969.12
619.133	996.64
619.332	984.82
619.531	929.6
619.73	970.29
619.929	965.44
620.128	973.39
620.328	1005.16
620.527	928.44
