Data from pine_FLMT105791__3__17-19-37-080.txt Node

Date: Mon Mar 20 17:19:37 GMT 2023
User: antho
Spectrometer: FLMT10579
Trigger mode: 0
Integration Time (sec): 1.000000E-1
Scans to average: 10
Electric dark correction enabled: true
Nonlinearity correction enabled: false
Boxcar width: 0
XAxis mode: Wavelengths
Number of Pixels in Spectrum: 3648
>>>>>Begin Spectral Data<<<<<
345.248	-152.64
345.464	-152.64
345.681	-152.64
345.898	-178.8
346.114	-150.7
346.331	-22.83
346.548	22.7
346.764	10.88
346.981	-6.75
347.197	-12.95
347.414	23.09
347.631	-26.32
347.847	59.9
348.064	-18.37
348.28	24.83
348.497	-37.17
348.713	-17.02
348.93	31.61
349.146	33.55
349.363	10.49
349.579	5.84
349.796	11.85
350.012	0.61
350.229	52.54
350.445	-6.56
350.661	-14.69
350.878	5.84
351.094	12.04
351.311	25.22
351.527	19.41
351.743	-0.55
351.96	17.86
352.176	50.99
352.392	34.71
352.609	22.12
352.825	-12.76
353.041	20.57
353.257	14.56
353.474	1.39
353.69	7.2
353.906	14.56
354.122	-20.89
354.339	64.94
354.555	-3.84
354.771	-9.46
354.987	61.84
355.203	57.96
355.42	14.95
355.636	-10.62
355.852	-16.63
356.068	-15.85
356.284	-22.83
356.5	70.75
356.716	7.39
356.932	26.58
357.148	19.41
357.364	8.94
357.58	49.05
357.796	40.14
358.012	42.46
358.228	15.34
358.444	-47.44
358.66	45.76
358.876	28.51
359.092	-10.82
359.308	6.04
359.524	37.43
359.74	1.19
359.956	-15.66
360.172	29.09
360.388	42.27
360.604	-7.14
360.819	78.5
361.035	30.06
361.251	30.45
361.467	-2.29
361.683	61.06
361.898	-5.97
362.114	18.63
362.33	17.47
362.546	41.3
362.762	25.8
362.977	36.46
363.193	-11.98
363.409	13.4
363.624	-9.27
363.84	7.59
364.056	-31.94
364.271	41.11
364.487	22.12
364.703	0.42
364.918	-19.15
365.134	-2.68
365.35	-4.62
365.565	100.59
365.781	-7.14
365.996	14.76
366.212	53.31
366.427	8.17
366.643	9.33
366.858	-15.08
367.074	-55.57
367.289	48.08
367.505	117.64
367.72	-27.87
367.936	9.53
368.151	56.22
368.367	23.67
368.582	-2.49
368.798	-4.23
369.013	63.58
369.228	18.44
369.444	2.94
369.659	48.66
369.874	39.56
370.09	57.38
370.305	-29.03
370.52	-23.41
370.736	47.31
370.951	-6.94
371.166	40.14
371.381	81.79
371.597	43.24
371.812	-16.44
372.027	-19.34
372.242	9.14
372.458	98.65
372.673	9.91
372.888	26.96
373.103	39.56
373.318	105.82
373.533	44.98
373.749	-0.36
373.964	-34.07
374.179	70.75
374.394	-9.85
374.609	59.9
374.824	-24.19
375.039	45.56
375.254	-17.99
375.469	72.11
375.684	29.09
375.899	45.76
376.114	31.81
376.329	33.94
376.544	77.53
376.759	38.78
376.974	8.17
377.189	17.47
377.404	23.86
377.619	40.72
377.834	-14.89
378.049	-33.87
378.264	-12.56
378.478	14.37
378.693	-8.11
378.908	52.93
379.123	-14.11
379.338	73.46
379.553	52.34
379.767	18.24
379.982	12.82
380.197	25.8
380.412	6.04
380.626	37.43
380.841	85.28
381.056	18.44
381.271	69.39
381.485	-6.56
381.7	-8.3
381.915	16.31
382.129	-8.3
382.344	19.79
382.559	10.69
382.773	65.52
382.988	-18.37
383.202	33.16
383.417	-0.94
383.632	124.81
383.846	26.19
384.061	48.66
384.275	9.91
384.49	35.49
384.704	38.98
384.919	31.23
385.133	22.31
385.348	35.1
385.562	-21.47
385.777	76.37
385.991	23.86
386.206	16.31
386.42	0.81
386.634	58.16
386.849	35.1
387.063	53.31
387.277	-23.41
387.492	-26.12
387.706	-2.87
387.92	-15.47
388.135	58.74
388.349	39.75
388.563	43.04
388.778	21.73
388.992	61.84
389.206	51.18
389.42	99.23
389.635	22.12
389.849	70.56
390.063	69.01
390.277	47.31
390.491	74.62
390.706	45.76
390.92	49.44
391.134	32.58
391.348	69.59
391.562	-57.12
391.776	3.33
391.99	-3.26
392.205	63.97
392.419	-3.84
392.633	-4.42
392.847	78.31
393.061	-6.56
393.275	67.07
393.489	19.99
393.703	33.36
393.917	54.28
394.131	-6.17
394.345	44.79
394.559	70.56
394.773	11.27
394.986	19.79
395.2	10.69
395.414	41.11
395.628	1
395.842	19.6
396.056	16.11
396.27	-33.68
396.484	23.09
396.697	39.56
396.911	82.37
397.125	38.59
397.339	59.71
397.553	39.56
397.766	110.08
397.98	75.79
398.194	100.59
398.408	12.43
398.621	18.24
398.835	74.62
399.049	62.61
399.262	92.64
399.476	41.11
399.69	26.96
399.903	92.45
400.117	21.73
400.331	75.4
400.544	27.54
400.758	132.36
400.971	51.38
401.185	51.18
401.398	-7.91
401.612	109.89
401.826	62.81
402.039	93.81
402.253	33.94
402.466	39.36
402.68	33.16
402.893	38.59
403.106	62.81
403.32	33.94
403.533	53.89
403.747	53.31
403.96	34.91
404.174	54.09
404.387	-6.17
404.6	40.14
404.814	33.74
405.027	53.12
405.24	18.05
405.454	27.35
405.667	85.28
405.88	-43.75
406.094	36.07
406.307	63.97
406.52	53.89
406.733	-4.42
406.947	-13.53
407.16	102.52
407.373	71.14
407.586	15.14
407.799	3.71
408.012	89.54
408.226	59.9
408.439	95.16
408.652	-7.91
408.865	56.8
409.078	87.02
409.291	69.98
409.504	-3.26
409.717	51.18
409.93	38.78
410.143	45.95
410.357	1.19
410.57	-3.26
410.783	33.94
410.996	80.24
411.209	24.83
411.421	66.49
411.634	32.97
411.847	11.08
412.06	49.63
412.273	45.76
412.486	55.83
412.699	125.77
412.912	11.85
413.125	48.47
413.338	56.03
413.55	89.54
413.763	53.51
413.976	75.21
414.189	-4.62
414.402	52.54
414.615	94.39
414.827	20.57
415.04	59.71
415.253	56.03
415.466	96.13
415.678	123.26
415.891	58.35
416.104	34.52
416.316	34.13
416.529	34.71
416.742	76.56
416.954	78.69
417.167	64.55
417.38	56.8
417.592	96.32
417.805	6.23
418.017	12.82
418.23	76.17
418.442	46.14
418.655	45.56
418.868	68.62
419.08	90.9
419.293	82.76
419.505	70.17
419.718	71.91
419.93	117.06
420.142	33.36
420.355	92.26
420.567	106.98
420.78	84.89
420.992	55.44
421.205	121.71
421.417	15.34
421.629	23.28
421.842	5.46
422.054	17.47
422.266	83.15
422.479	100.97
422.691	45.18
422.903	76.76
423.115	20.96
423.328	83.92
423.54	69.59
423.752	64.94
423.964	65.52
424.177	76.76
424.389	79.86
424.601	183.9
424.813	75.59
425.025	87.8
425.238	98.46
425.45	75.21
425.662	55.83
425.874	356.91
426.086	69.2
426.298	94.58
426.51	81.41
426.722	57.96
426.934	44.01
427.146	67.26
427.358	44.01
427.57	106.01
427.782	71.91
427.994	62.42
428.206	34.71
428.418	28.13
428.63	93.61
428.842	98.65
429.054	102.91
429.266	90.9
429.478	55.44
429.69	63.78
429.902	26.58
430.114	106.21
430.325	94.39
430.537	69.39
430.749	85.86
430.961	45.37
431.173	58.93
431.384	74.04
431.596	8.75
431.808	51.38
432.02	87.22
432.231	89.93
432.443	125.97
432.655	98.65
432.867	89.54
433.078	102.33
433.29	143.21
433.502	109.69
433.713	147.67
433.925	114.73
434.136	134.69
434.348	77.92
434.56	61.64
434.771	206.57
434.983	57.38
435.194	52.93
435.406	85.86
435.617	139.34
435.829	161.23
436.04	146.7
436.252	150.96
436.463	171.11
436.675	133.72
436.886	121.51
437.098	125.77
437.309	169.56
437.521	104.27
437.732	130.23
437.943	115.51
438.155	105.82
438.366	60.87
438.578	160.26
438.789	111.82
439	140.69
439.211	96.13
439.423	113.37
439.634	153.87
439.845	162.2
440.057	111.05
440.268	164.52
440.479	107.17
440.69	125.58
440.902	141.08
441.113	141.66
441.324	111.44
441.535	140.69
441.746	165.1
441.957	97.1
442.168	113.76
442.38	157.94
442.591	158.71
442.802	115.12
443.013	100.39
443.224	152.12
443.435	150.19
443.646	147.67
443.857	159.1
444.068	118.22
444.279	122.09
444.49	205.6
444.701	172.08
444.912	247.06
445.123	196.1
445.334	186.22
445.545	157.94
445.756	151.93
445.967	128.1
446.178	199.98
446.388	229.62
446.599	219.35
446.81	190.49
447.021	143.21
447.232	224
447.443	227.69
447.653	137.01
447.864	183.7
448.075	191.65
448.286	177.12
448.496	180.99
448.707	211.41
448.918	170.53
449.129	272.44
449.339	171.69
449.55	194.75
449.761	197.85
449.971	235.82
450.182	157.74
450.393	187.97
450.603	172.85
450.814	204.05
451.024	227.69
451.235	238.54
451.446	241.25
451.656	232.14
451.867	198.04
452.077	219.74
452.288	249.58
452.498	258.1
452.709	179.83
452.919	211.41
453.13	184.48
453.34	219.74
453.55	167.82
453.761	230.59
453.971	233.11
454.182	227.69
454.392	211.8
454.602	264.5
454.813	223.81
455.023	253.65
455.233	173.05
455.444	216.45
455.654	131.97
455.864	222.26
456.075	194.94
456.285	210.64
456.495	193.59
456.705	242.41
456.916	256.17
457.126	279.8
457.336	214.7
457.546	160.26
457.756	180.22
457.967	262.75
458.177	195.52
458.387	208.89
458.597	177.31
458.807	217.22
459.017	245.12
459.227	228.27
459.437	212.77
459.647	283.68
459.857	257.33
460.068	196.1
460.278	301.89
460.488	239.89
460.698	287.75
460.908	243.38
461.117	172.85
461.327	190.49
461.537	226.14
461.747	202.11
461.957	248.61
462.167	327.66
462.377	287.17
462.587	262.37
462.797	267.79
463.007	251.9
463.216	245.12
463.426	296.85
463.636	296.66
463.846	209.09
464.056	214.9
464.265	313.71
464.475	201.92
464.685	245.32
464.895	293.75
465.104	229.43
465.314	285.42
465.524	243.38
465.733	244.15
465.943	335.99
466.153	305.96
466.362	295.88
466.572	271.28
466.782	254.23
466.991	287.75
467.201	330.37
467.41	220.71
467.62	304.99
467.829	259.46
468.039	280.19
468.249	262.56
468.458	244.54
468.668	295.5
468.877	285.62
469.086	328.05
469.296	323.78
469.505	249.38
469.715	374.35
469.924	295.11
470.134	346.06
470.343	372.03
470.552	271.47
470.762	282.32
470.971	244.74
471.18	311.58
471.39	270.7
471.599	266.63
471.808	350.91
472.018	272.25
472.227	323.78
472.436	363.5
472.645	295.5
472.855	290.46
473.064	358.66
473.273	305.57
473.482	325.72
473.691	358.27
473.901	346.45
474.11	322.62
474.319	418.72
474.528	317.78
474.737	417.56
474.946	338.31
475.155	351.88
475.364	376.87
475.573	314.48
475.783	362.53
475.992	342.19
476.201	407.87
476.41	352.46
476.619	317.39
476.828	345.87
477.037	363.31
477.245	342.19
477.454	380.94
477.663	326.88
477.872	353.43
478.081	437.13
478.29	335.99
478.499	445.07
478.708	382.88
478.917	431.7
479.125	393.34
479.334	410
479.543	376.87
479.752	372.41
479.961	409.23
480.169	421.43
480.378	390.05
480.587	496.61
480.796	435.19
481.004	421.24
481.213	434.41
481.422	425.5
481.63	390.24
481.839	431.31
482.048	483.04
482.256	409.61
482.465	450.69
482.674	462.31
482.882	483.82
483.091	496.99
483.299	447.59
483.508	478.98
483.716	457.86
483.925	442.94
484.134	441.58
484.342	434.8
484.551	483.24
484.759	496.41
484.967	483.04
485.176	490.41
485.384	492.73
485.593	499.71
485.801	481.88
486.01	477.04
486.218	438.29
486.426	386.75
486.635	442.74
486.843	428.6
487.051	447.98
487.26	448.17
487.468	469.87
487.676	496.22
487.885	436.35
488.093	466.77
488.301	481.69
488.509	484.01
488.717	522.18
488.926	484.21
489.134	499.51
489.342	518.31
489.55	474.13
489.758	524.89
489.967	469.87
490.175	616.15
490.383	513.07
490.591	582.24
490.799	461.73
491.007	550.47
491.215	541.17
491.423	506.49
491.631	530.51
491.839	537.1
492.047	564.42
492.255	519.47
492.463	489.63
492.671	502.23
492.879	563.64
493.087	526.64
493.295	560.35
493.503	563.26
493.711	585.15
493.919	596
494.127	591.35
494.334	618.28
494.542	516.56
494.75	571.01
494.958	564.81
495.166	625.06
495.374	589.99
495.581	613.24
495.789	591.35
495.997	644.63
496.205	597.35
496.412	575.66
496.62	581.47
496.828	617.5
497.035	566.74
497.243	605.88
497.451	600.65
497.658	597.35
497.866	590.96
498.074	660.71
498.281	602.59
498.489	684.73
498.696	611.69
498.904	606.27
499.112	593.67
499.319	674.47
499.527	583.21
499.734	634.75
499.942	572.36
500.149	575.85
500.357	640.56
500.564	591.35
500.771	623.51
500.979	605.88
501.186	578.95
501.394	624.67
501.601	607.24
501.808	626.61
502.016	599.29
502.223	599.1
502.43	628.35
502.638	618.47
502.845	580.31
503.052	670.4
503.26	636.88
503.467	700.82
503.674	630.87
503.881	618.86
504.089	709.73
504.296	665.75
504.503	590.38
504.71	640.56
504.917	576.62
505.125	640.95
505.332	608.01
505.539	670.2
505.746	692.87
505.953	714.18
506.16	679.5
506.367	745.96
506.574	744.99
506.781	726.97
506.988	680.28
507.195	728.33
507.402	686.87
507.609	731.82
507.816	665.94
508.023	686.28
508.23	679.31
508.437	645.4
508.644	686.28
508.851	751.77
509.058	719.03
509.265	729.1
509.472	721.55
509.679	819.39
509.885	692.87
510.092	720.19
510.299	729.68
510.506	712.25
510.713	736.66
510.92	695.2
511.126	753.9
511.333	753.13
511.54	782.19
511.746	787.81
511.953	784.51
512.16	833.53
512.367	738.98
512.573	704.69
512.78	722.52
512.987	759.13
513.193	750.22
513.4	643.27
513.606	754.87
513.813	781.03
514.02	769.98
514.226	852.91
514.433	821.33
514.639	729.88
514.846	770.57
515.052	751.38
515.259	746.15
515.465	785.1
515.672	790.71
515.878	858.91
516.085	796.91
516.291	812.03
516.497	746.73
516.704	753.13
516.91	698.68
517.117	710.7
517.323	658.19
517.529	724.26
517.736	729.1
517.942	732.98
518.148	758.36
518.354	763.2
518.561	769.21
518.767	766.5
518.973	789.36
519.179	819
519.386	777.54
519.592	791.88
519.798	781.61
520.004	883.71
520.21	813.19
520.417	881.97
520.623	921.69
520.829	906.38
521.035	883.33
521.241	865.69
521.447	896.5
521.653	1000.93
521.859	860.27
522.065	888.56
522.271	995.31
522.477	949.01
522.683	971.48
522.889	936.99
523.095	955.79
523.301	935.06
523.507	903.48
523.713	924.79
523.919	870.54
524.125	980.97
524.331	922.85
524.537	995.12
524.742	993.57
524.948	974.58
525.154	982.33
525.36	1070.87
525.566	977.87
525.772	1037.16
525.977	954.62
526.183	991.44
526.389	1031.93
526.595	950.36
526.8	956.95
527.006	907.54
527.212	909.09
527.417	891.46
527.623	879.06
527.829	953.27
528.034	956.56
528.24	979.23
528.446	948.04
528.651	1038.9
528.857	1005.97
529.062	1070.87
529.268	1005
529.473	1044.52
529.679	1008.29
529.884	1080.56
530.09	1071.26
530.295	1083.27
530.501	1066.8
530.706	1052.85
530.912	1030.57
531.117	1092.77
531.323	1059.44
531.528	1106.72
531.733	1091.02
531.939	1061.77
532.144	1092.57
532.35	1066.42
532.555	1112.53
532.76	1088.31
532.966	1107.69
533.171	1056.92
533.376	1040.07
533.581	1042
533.787	1051.5
533.992	1084.44
534.197	1129
534.402	1032.71
534.607	1074.94
534.813	1176.27
535.018	1104.2
535.223	1073.59
535.428	1134.62
535.633	1182.28
535.838	1176.47
536.043	1129.38
536.249	1215.41
536.454	1135.39
536.659	1147.6
536.864	1128.61
537.069	1141.59
537.274	1122.6
537.479	1141.4
537.684	1146.05
537.889	1118.92
538.094	1218.9
538.299	1155.15
538.504	1175.11
538.708	1177.05
538.913	1196.81
539.118	1153.02
539.323	1179.57
539.528	1130.55
539.733	1148.37
539.938	1164.26
540.142	1187.9
540.347	1126.67
540.552	1130.16
540.757	1161.55
540.962	1134.62
541.166	1105.94
541.371	1118.34
541.576	1160.97
541.781	1039.87
541.985	1169.49
542.19	1144.5
542.395	1212.7
542.599	1212.11
542.804	1172.4
543.008	1203.59
543.213	1150.5
543.418	1131.32
543.622	1192.74
543.827	1154.96
544.031	1245.83
544.236	1205.14
544.44	1211.92
544.645	1241.56
544.849	1196.23
545.054	1196.62
545.258	1266.75
545.463	1245.63
545.667	1182.86
545.872	1253
546.076	1193.9
546.281	1212.31
546.485	1175.3
546.689	1261.52
546.894	1236.14
547.098	1205.92
547.302	1185.77
547.507	1224.71
547.711	1226.84
547.915	1279.54
548.119	1183.44
548.324	1205.33
548.528	1256.48
548.732	1204.75
548.936	1233.04
549.141	1268.3
549.345	1236.14
549.549	1267.72
549.753	1242.73
549.957	1340.96
550.161	1303.37
550.366	1256.48
550.57	1189.83
550.774	1267.91
550.978	1237.5
551.182	1273.53
551.386	1220.06
551.59	1231.88
551.794	1204.95
551.998	1277.8
552.202	1262.49
552.406	1245.44
552.61	1247.57
552.814	1246.02
553.018	1292.52
553.222	1244.28
553.426	1209.21
553.63	1323.91
553.833	1246.21
554.037	1181.7
554.241	1289.23
554.445	1268.5
554.649	1231.88
554.853	1216.18
555.056	1280.31
555.26	1305.31
555.464	1272.18
555.668	1264.04
555.871	1310.34
556.075	1287.1
556.279	1248.15
556.483	1207.47
556.686	1233.04
556.89	1189.06
557.094	1270.24
557.297	1165.03
557.501	1258.42
557.704	1168.52
557.908	1275.66
558.112	1200.88
558.315	1259.39
558.519	1195.07
558.722	1228.97
558.926	1209.98
559.129	1143.33
559.333	1167.36
559.536	1189.06
559.74	1170.46
559.943	1147.21
560.147	1115.63
560.35	1170.65
560.553	1161.55
560.757	1091.22
560.96	1236.33
561.164	1155.35
561.367	1283.22
561.57	1180.73
561.774	1189.83
561.977	1184.6
562.18	1191.77
562.384	1274.7
562.587	1170.07
562.79	1172.01
562.993	1157.87
563.197	1255.32
563.4	1220.45
563.603	1228.97
563.806	1286.9
564.009	1141.59
564.212	1187.32
564.416	1100.9
564.619	1165.42
564.822	1129.77
565.025	1203.98
565.228	1168.33
565.431	1172.01
565.634	1067.97
565.837	1135.2
566.04	1132.87
566.243	1126.48
566.446	1041.81
566.649	1136.36
566.852	1093.15
567.055	1099.16
567.258	1176.08
567.461	1189.45
567.664	1203.2
567.867	1095.48
568.07	1153.41
568.273	1132.1
568.475	1181.7
568.678	1123.96
568.881	1121.44
569.084	1097.22
569.287	1039.87
569.489	1051.69
569.692	1105.75
569.895	1131.9
570.098	1036.19
570.3	1079.79
570.503	991.63
570.706	992.79
570.909	1016.04
571.111	974.97
571.314	1000.93
571.516	1039.68
571.719	1061.57
571.922	1025.92
572.124	1030.96
572.327	1038.13
572.529	997.06
572.732	1014.69
572.935	1069.32
573.137	1105.17
573.34	985.62
573.542	1060.22
573.745	1045.49
573.947	1042.39
574.15	1028.83
574.352	1005
574.554	1096.64
574.757	1000.16
574.959	984.27
575.162	997.83
575.364	1013.14
575.566	1076.49
575.769	968.38
575.971	997.44
576.173	900.76
576.376	982.52
576.578	1039.1
576.78	1037.55
576.982	914.71
577.185	997.44
577.387	936.8
577.589	970.32
577.791	960.24
577.993	984.07
578.196	982.33
578.398	977.87
578.6	1036.97
578.802	930.6
579.004	951.33
579.206	971.09
579.408	1002.67
579.61	952.49
579.812	994.92
580.014	964.89
580.216	960.63
580.418	941.06
580.62	953.46
580.822	872.09
581.024	953.46
581.226	1024.57
581.428	957.14
581.63	1038.71
581.832	953.27
582.034	1003.84
582.236	975.36
582.438	968.77
582.64	1002.87
582.841	1021.66
583.043	1054.99
583.245	1018.17
583.447	1029.02
583.649	974.97
583.85	992.79
584.052	1007.91
584.254	947.65
584.456	1008.87
584.657	942.81
584.859	977.68
585.061	942.61
585.262	948.04
585.464	928.08
585.666	965.47
585.867	917.43
586.069	990.47
586.27	954.04
586.472	948.42
586.674	953.07
586.875	926.53
587.077	918.59
587.278	945.71
587.48	939.51
587.681	1019.72
587.883	973.81
588.084	886.04
588.285	928.28
588.487	924.01
588.688	934.09
588.89	877.51
589.091	855.23
589.292	916.65
589.494	840.51
589.695	825.59
589.896	767.66
590.098	775.8
590.299	858.72
590.5	805.63
590.702	848.45
590.903	846.71
591.104	930.21
591.305	859.11
591.507	931.96
591.708	921.88
591.909	867.05
592.11	896.69
592.311	919.75
592.512	885.46
592.714	831.98
592.915	818.23
593.116	859.49
593.317	870.34
593.518	853.49
593.719	847.1
593.92	904.64
594.121	943.39
594.322	870.15
594.523	884.68
594.724	820.94
594.925	850.97
595.126	835.28
595.327	897.08
595.528	853.88
595.729	902.31
595.929	855.62
596.13	845.74
596.331	857.75
596.532	859.49
596.733	930.99
596.934	905.8
597.135	894.37
597.335	880.42
597.536	827.72
597.737	866.86
597.938	849.81
598.138	885.46
598.339	890.69
598.54	859.11
598.74	872.48
598.941	867.44
599.142	934.67
599.342	884.88
599.543	872.48
599.744	846.13
599.944	853.88
600.145	866.47
600.345	875.38
600.546	972.26
600.746	909.48
600.947	963.73
601.147	883.52
601.348	950.17
601.548	848.26
601.749	856.98
601.949	867.05
602.15	867.63
602.35	826.56
602.551	893.21
602.751	834.11
602.951	852.52
603.152	792.65
603.352	884.68
603.552	833.15
603.753	900.57
603.953	897.08
604.153	868.21
604.354	869.57
604.554	847.29
604.754	881.78
604.954	828.69
605.155	902.12
605.355	838.18
605.555	941.64
605.755	895.92
605.955	870.73
606.155	872.09
606.356	873.64
606.556	901.34
606.756	872.48
606.956	823.65
607.156	904.25
607.356	827.33
607.556	878.68
607.756	884.88
607.956	937.38
608.156	916.65
608.356	851.75
608.556	899.21
608.756	880.42
608.956	832.18
609.156	850.2
609.356	847.68
609.556	844.19
609.755	862.4
609.955	807.38
610.155	863.76
610.355	842.45
610.555	840.7
610.755	822.1
610.954	767.66
611.154	869.57
611.354	866.86
611.554	799.24
611.753	829.85
611.953	764.17
612.153	838.96
612.352	836.63
612.552	809.9
612.752	756.23
612.951	823.65
613.151	833.73
613.351	791.88
613.55	798.46
613.75	868.6
613.949	818.81
614.149	825.98
614.348	844.38
614.548	800.01
614.747	738.4
614.947	752.55
615.146	757.39
615.346	833.15
615.545	816.29
615.745	826.75
615.944	829.46
616.144	775.6
616.343	823.46
616.542	789.55
616.742	797.69
616.941	785.48
617.14	740.34
617.34	770.95
617.539	781.8
617.738	741.7
617.938	837.41
618.137	776.57
618.336	749.25
618.535	813.77
618.734	784.13
618.934	817.45
619.133	817.65
619.332	798.27
619.531	764.56
619.73	777.54
619.929	797.3
620.128	789.75
620.328	857.36
620.527	774.25
620.726	763.2
620.925	805.25
621.124	806.02
621.323	768.43
621.522	767.27
621.721	758.75
621.92	753.52
622.119	794.2
622.318	752.74
622.517	779.86
622.715	787.23
622.914	675.44
623.113	735.69
