Data from pine_FLMT105791__194__17-23-48-072.txt Node

Date: Mon Mar 20 17:23:48 GMT 2023
User: antho
Spectrometer: FLMT10579
Trigger mode: 0
Integration Time (sec): 1.000000E-1
Scans to average: 10
Electric dark correction enabled: true
Nonlinearity correction enabled: false
Boxcar width: 0
XAxis mode: Wavelengths
Number of Pixels in Spectrum: 3648
>>>>>Begin Spectral Data<<<<<
345.248	-175.12
345.464	-175.12
345.681	-175.12
345.898	-163.68
346.114	-169.69
346.331	-27.87
346.548	38.01
346.764	-30.58
346.981	16.69
347.197	-29.03
347.414	-0.36
347.631	-17.79
347.847	54.86
348.064	14.37
348.28	19.6
348.497	-53.44
348.713	15.53
348.93	25.8
349.146	20.76
349.363	-20.12
349.579	7.98
349.796	1.39
350.012	-12.37
350.229	19.21
350.445	17.28
350.661	-32.13
350.878	-14.89
351.094	49.05
351.311	6.62
351.527	2.16
351.743	-23.8
351.96	30.45
352.176	47.11
352.392	19.99
352.609	28.32
352.825	-7.52
353.041	10.11
353.257	-32.13
353.474	-6.36
353.69	23.48
353.906	3.52
354.122	-31.55
354.339	48.66
354.555	-18.76
354.771	-5.2
354.987	69.2
355.203	50.99
355.42	-11.4
355.636	-12.56
355.852	-6.75
356.068	-9.46
356.284	-36.97
356.5	53.7
356.716	14.76
356.932	-14.11
357.148	4.88
357.364	-17.4
357.58	33.94
357.796	29.48
358.012	32
358.228	53.7
358.444	-74.37
358.66	44.4
358.876	-9.85
359.092	9.14
359.308	-8.88
359.524	10.69
359.74	-38.91
359.956	-22.25
360.172	2.55
360.388	53.7
360.604	-24.96
360.819	78.89
361.035	29.68
361.251	20.38
361.467	-30.19
361.683	45.95
361.898	-3.65
362.114	32.39
362.33	14.95
362.546	41.49
362.762	5.84
362.977	-3.65
363.193	-52.09
363.409	18.44
363.624	-24.96
363.84	-4.62
364.056	-1.91
364.271	23.09
364.487	-2.1
364.703	5.07
364.918	-12.17
365.134	-4.81
365.35	4.49
365.565	80.05
365.781	23.09
365.996	16.5
366.212	59.32
366.427	20.38
366.643	7.59
366.858	-14.31
367.074	-23.8
367.289	32.97
367.505	100.78
367.72	-52.09
367.936	-25.93
368.151	32.19
368.367	30.06
368.582	15.53
368.798	-0.36
369.013	40.14
369.228	9.33
369.444	-12.17
369.659	44.4
369.874	37.04
370.09	71.72
370.305	-52.09
370.52	-0.16
370.736	50.6
370.951	-11.98
371.166	57.19
371.381	70.36
371.597	21.54
371.812	-47.05
372.027	-34.45
372.242	-14.5
372.458	61.84
372.673	-17.21
372.888	-23.41
373.103	19.21
373.318	78.89
373.533	19.6
373.749	-0.16
373.964	-28.45
374.179	48.47
374.394	6.43
374.609	53.89
374.824	-38.72
375.039	52.54
375.254	-10.24
375.469	59.32
375.684	29.48
375.899	50.21
376.114	3.33
376.329	39.17
376.544	35.1
376.759	59.71
376.974	13.4
377.189	-18.37
377.404	1.19
377.619	41.3
377.834	-17.99
378.049	-40.07
378.264	-46.66
378.478	11.85
378.693	2.55
378.908	13.59
379.123	-1.32
379.338	43.43
379.553	14.56
379.767	10.3
379.982	14.76
380.197	21.54
380.412	23.67
380.626	21.54
380.841	77.92
381.056	28.13
381.271	37.81
381.485	-13.14
381.7	-30.58
381.915	28.13
382.129	25.8
382.344	6.81
382.559	-4.42
382.773	58.16
382.988	-43.56
383.202	27.74
383.417	-1.32
383.632	96.13
383.846	19.6
384.061	5.07
384.275	4.29
384.49	21.15
384.704	16.11
384.919	26.58
385.133	7.78
385.348	17.86
385.562	-35.62
385.777	38.01
385.991	-15.27
386.206	-30.39
386.42	-8.88
386.634	60.29
386.849	13.98
387.063	14.76
387.277	-23.8
387.492	-18.95
387.706	-18.37
387.92	-29.61
388.135	30.64
388.349	19.41
388.563	-5.2
388.778	-5.01
388.992	45.56
389.206	38.59
389.42	84.12
389.635	18.63
389.849	41.11
390.063	51.18
390.277	-1.52
390.491	63.39
390.706	12.43
390.92	41.88
391.134	-7.91
391.348	22.31
391.562	-44.92
391.776	17.28
391.99	-31.94
392.205	41.3
392.419	-44.53
392.633	2.55
392.847	52.15
393.061	-22.83
393.275	68.43
393.489	24.25
393.703	40.72
393.917	77.72
394.131	11.85
394.345	49.24
394.559	51.57
394.773	-5.97
394.986	30.84
395.2	13.98
395.414	25.41
395.628	-28.06
395.842	32.39
396.056	-15.47
396.27	-54.8
396.484	12.24
396.697	14.18
396.911	57.77
397.125	53.12
397.339	42.85
397.553	53.31
397.766	101.75
397.98	46.34
398.194	50.21
398.408	-2.87
398.621	20.76
398.835	28.9
399.049	19.21
399.262	51.96
399.476	57.96
399.69	20.96
399.903	95.94
400.117	13.4
400.331	32.39
400.544	-0.74
400.758	93.42
400.971	19.6
401.185	57.58
401.398	-25.93
401.612	40.33
401.826	43.43
402.039	23.09
402.253	-1.13
402.466	36.46
402.68	9.14
402.893	44.01
403.106	23.09
403.32	-15.66
403.533	42.85
403.747	10.69
403.96	24.44
404.174	28.9
404.387	-23.6
404.6	14.76
404.814	40.53
405.027	5.07
405.24	25.22
405.454	-24.77
405.667	47.11
405.88	-34.07
406.094	29.68
406.307	55.06
406.52	34.52
406.733	-4.23
406.947	-31.55
407.16	73.07
407.373	45.18
407.586	-4.23
407.799	-8.88
408.012	41.69
408.226	9.14
408.439	64.94
408.652	-26.7
408.865	25.03
409.078	29.09
409.291	16.89
409.504	-34.65
409.717	39.75
409.93	39.36
410.143	23.28
410.357	-16.63
410.57	-8.3
410.783	-9.27
410.996	33.74
411.209	4.88
411.421	38.01
411.634	18.63
411.847	-17.02
412.06	25.22
412.273	12.04
412.486	33.36
412.699	97.49
412.912	-18.95
413.125	20.57
413.338	8.94
413.55	53.31
413.763	12.04
413.976	35.68
414.189	-20.7
414.402	24.83
414.615	35.1
414.827	-8.88
415.04	46.92
415.253	44.79
415.466	23.86
415.678	69.59
415.891	13.4
416.104	19.99
416.316	5.26
416.529	-6.94
416.742	34.71
416.954	67.26
417.167	13.79
417.38	5.07
417.592	63.39
417.805	16.89
418.017	-27.48
418.23	44.98
418.442	9.53
418.655	12.24
418.868	17.66
419.08	47.5
419.293	36.07
419.505	34.52
419.718	32.39
419.93	58.35
420.142	26.38
420.355	76.76
420.567	38.98
420.78	40.53
420.992	16.5
421.205	94.58
421.417	-12.95
421.629	18.05
421.842	-20.89
422.054	-18.18
422.266	61.84
422.479	51.76
422.691	2.55
422.903	30.64
423.115	30.45
423.328	11.66
423.54	14.37
423.752	-4.81
423.964	-24.38
424.177	31.42
424.389	12.63
424.601	134.11
424.813	22.7
425.025	51.18
425.238	39.75
425.45	5.07
425.662	-7.72
425.874	296.08
426.086	22.7
426.298	62.23
426.51	42.46
426.722	42.66
426.934	18.44
427.146	46.92
427.358	-18.18
427.57	36.07
427.782	-11.4
427.994	43.43
428.206	35.49
428.418	-30.39
428.63	35.49
428.842	48.66
429.054	26.96
429.266	69.59
429.478	-6.17
429.69	36.46
429.902	-0.74
430.114	58.93
430.325	37.81
430.537	39.56
430.749	41.11
430.961	-25.15
431.173	23.67
431.384	64.74
431.596	-23.02
431.808	-3.07
432.02	6.81
432.231	6.23
432.443	40.72
432.655	21.15
432.867	-5.01
433.078	29.29
433.29	67.07
433.502	35.49
433.713	67.26
433.925	17.28
434.136	47.31
434.348	13.98
434.56	-49.95
434.771	106.79
434.983	-18.57
435.194	-29.22
435.406	8.36
435.617	41.11
435.829	81.21
436.04	42.46
436.252	58.54
436.463	71.53
436.675	36.07
436.886	43.82
437.098	25.8
437.309	62.23
437.521	31.61
437.732	45.76
437.943	38.01
438.155	17.08
438.366	-19.54
438.578	78.31
438.789	19.41
439	71.72
439.211	29.87
439.423	60.09
439.634	70.75
439.845	65.91
440.057	26.96
440.268	53.31
440.479	-5.59
440.69	26.96
440.902	16.5
441.113	27.35
441.324	39.94
441.535	36.65
441.746	107.17
441.957	2.36
442.168	0.03
442.38	41.49
442.591	32.19
442.802	-2.68
443.013	13.59
443.224	49.44
443.435	-5.59
443.646	29.09
443.857	0.61
444.068	5.65
444.279	-16.63
444.49	67.26
444.701	35.68
444.912	140.11
445.123	63.19
445.334	21.54
445.545	38.2
445.756	21.93
445.967	-11.21
446.178	35.49
446.388	83.54
446.599	95.16
446.81	65.91
447.021	22.51
447.232	77.34
447.443	63.78
447.653	29.29
447.864	63.97
448.075	12.04
448.286	40.14
448.496	68.04
448.707	70.36
448.918	28.51
449.129	108.34
449.339	9.33
449.55	23.67
449.761	44.98
449.971	100.39
450.182	55.64
450.393	54.28
450.603	11.66
450.814	72.3
451.024	77.72
451.235	60.09
451.446	125.58
451.656	87.99
451.867	31.23
452.077	37.23
452.288	94.19
452.498	105.82
452.709	12.04
452.919	49.44
453.13	30.26
453.34	105.04
453.55	6.81
453.761	75.01
453.971	98.07
454.182	73.66
454.392	86.83
454.602	121.12
454.813	48.47
455.023	78.11
455.233	23.48
455.444	60.29
455.654	-17.02
455.864	83.15
456.075	36.07
456.285	36.46
456.495	64.36
456.705	54.86
456.916	107.56
457.126	113.18
457.336	70.75
457.546	5.84
457.756	28.51
457.967	105.62
458.177	35.88
458.387	56.61
458.597	43.63
458.807	57.38
459.017	30.64
459.227	34.52
459.437	49.83
459.647	106.21
459.857	66.88
460.068	41.49
460.278	84.12
460.488	73.85
460.698	130.62
460.908	42.08
461.117	3.52
461.327	24.44
461.537	28.32
461.747	35.88
461.957	30.84
462.167	132.94
462.377	75.98
462.587	57.58
462.797	69.39
463.007	51.18
463.216	73.07
463.426	84.12
463.636	75.01
463.846	10.11
464.056	25.99
464.265	101.36
464.475	19.02
464.685	74.04
464.895	62.23
465.104	74.24
465.314	84.7
465.524	63.97
465.733	43.04
465.943	107.56
466.153	127.52
466.362	97.29
466.572	63.97
466.782	48.66
466.991	71.72
467.201	119.57
467.41	31.23
467.62	64.16
467.829	78.11
468.039	68.81
468.249	86.83
468.458	51.96
468.668	85.47
468.877	64.16
469.086	112.6
469.296	94
469.505	35.1
469.715	151.93
469.924	87.22
470.134	105.82
470.343	111.24
470.552	39.36
470.762	95.55
470.971	64.94
471.18	70.94
471.39	68.62
471.599	32
471.808	79.47
472.018	20.38
472.227	96.91
472.436	89.35
472.645	56.8
472.855	23.67
473.064	68.62
473.273	59.9
473.482	92.26
473.691	120.93
473.901	93.61
474.11	79.66
474.319	160.45
474.528	68.62
474.737	111.63
474.946	73.85
475.155	88.38
475.364	85.67
475.573	90.32
475.783	87.22
475.992	113.57
476.201	122.29
476.41	52.15
476.619	53.51
476.828	73.66
477.037	76.76
477.245	70.36
477.454	131.2
477.663	62.03
477.872	69.2
478.081	129.65
478.29	48.28
478.499	123.45
478.708	62.42
478.917	130.81
479.125	98.84
479.334	108.92
479.543	86.06
479.752	81.6
479.961	75.4
480.169	109.69
480.378	47.11
480.587	188.55
480.796	108.92
481.004	67.46
481.213	112.21
481.422	90.71
481.63	69.39
481.839	91.48
482.048	140.69
482.256	94
482.465	83.92
482.674	85.09
482.882	105.82
483.091	166.07
483.299	110.47
483.508	119.57
483.716	88.77
483.925	77.72
484.134	92.26
484.342	83.34
484.551	132.56
484.759	113.37
484.967	116.86
485.176	123.06
485.384	121.9
485.593	155.81
485.801	121.12
486.01	88.96
486.218	125.77
486.426	79.86
486.635	118.8
486.843	88.77
487.051	140.31
487.26	114.73
487.468	102.72
487.676	130.81
487.885	87.61
488.093	117.83
488.301	118.22
488.509	86.83
488.717	119.77
488.926	96.71
489.134	97.29
489.342	137.21
489.55	86.06
489.758	110.86
489.967	63.78
490.175	177.5
490.383	81.6
490.591	156
490.799	36.46
491.007	151.54
491.215	104.85
491.423	106.59
491.631	119.96
491.839	141.47
492.047	156.39
492.255	95.74
492.463	53.31
492.671	109.11
492.879	156.19
493.087	104.85
493.295	114.54
493.503	130.23
493.711	102.52
493.919	155.22
494.127	160.45
494.334	175.37
494.542	100.39
494.75	121.12
494.958	102.33
495.166	162.59
495.374	133.14
495.581	117.83
495.789	111.44
495.997	161.04
496.205	124.03
496.412	112.41
496.62	106.21
496.828	154.64
497.035	82.57
497.243	148.25
497.451	124.61
497.658	143.21
497.866	123.06
498.074	204.44
498.281	119.96
498.489	212.19
498.696	152.51
498.904	120.35
499.112	125.19
499.319	194.17
499.527	113.18
499.734	165.1
499.942	97.87
500.149	113.76
500.357	142.05
500.564	120.35
500.771	141.27
500.979	133.72
501.186	124.42
501.394	140.89
501.601	137.4
501.808	185.25
502.016	135.27
502.223	171.3
502.43	142.05
502.638	156.77
502.845	106.79
503.052	186.22
503.26	105.62
503.467	185.06
503.674	141.47
503.881	140.31
504.089	215.87
504.296	157.55
504.503	94.58
504.71	172.47
504.917	121.32
505.125	127.32
505.332	165.69
505.539	133.72
505.746	199.98
505.953	181.96
506.16	162
506.367	191.65
506.574	180.99
506.781	198.43
506.988	134.49
507.195	149.99
507.402	158.52
507.609	187.77
507.816	145.15
508.023	111.05
508.23	164.33
508.437	129.84
508.644	173.63
508.851	217.8
509.058	188.55
509.265	161.04
509.472	177.12
509.679	236.79
509.885	121.32
510.092	143.21
510.299	134.11
510.506	178.47
510.713	158.32
510.92	190.68
511.126	176.73
511.333	235.05
511.54	183.7
511.746	229.62
511.953	205.21
512.16	225.17
512.367	156.19
512.573	185.64
512.78	146.12
512.987	197.65
513.193	183.32
513.4	106.79
513.606	172.47
513.813	190.29
514.02	187.77
514.226	234.47
514.433	241.05
514.639	158.52
514.846	205.21
515.052	151.54
515.259	186.22
515.465	165.69
515.672	151.54
515.878	250.55
516.085	156
516.291	200.75
516.497	132.75
516.704	179.25
516.91	139.53
517.117	120.54
517.323	153.67
517.529	180.02
517.736	175.76
517.942	183.7
518.148	164.14
518.354	205.21
518.561	176.54
518.767	193.97
518.973	212.57
519.179	224.78
519.386	139.14
519.592	176.92
519.798	147.67
520.004	197.46
520.21	165.3
520.417	178.47
520.623	202.89
520.829	226.52
521.035	218.39
521.241	202.11
521.447	209.09
521.653	270.12
521.859	176.92
522.065	169.37
522.271	298.02
522.477	223.23
522.683	239.7
522.889	246.29
523.095	236.4
523.301	223.42
523.507	207.54
523.713	199.98
523.919	175.95
524.125	242.02
524.331	186.22
524.537	231.75
524.742	236.99
524.948	245.7
525.154	201.34
525.36	314.1
525.566	248.22
525.772	267.6
525.977	192.42
526.183	248.8
526.389	300.15
526.595	224
526.8	238.15
527.006	194.94
527.212	207.73
527.417	205.4
527.623	177.31
527.829	256.75
528.034	237.76
528.24	233.89
528.446	213.15
528.651	296.27
528.857	237.18
529.062	298.6
529.268	247.83
529.473	223.23
529.679	194.94
529.884	320.3
530.09	259.27
530.295	295.11
530.501	280.38
530.706	263.14
530.912	202.11
531.117	240.67
531.323	249.58
531.528	253.45
531.733	243.57
531.939	227.49
532.144	286.39
532.35	291.82
532.555	305.38
532.76	296.27
532.966	304.99
533.171	298.6
533.376	279.03
533.581	213.93
533.787	273.41
533.992	273.8
534.197	318.94
534.402	264.5
534.607	259.85
534.813	344.13
535.018	270.31
535.223	259.07
535.428	264.88
535.633	294.92
535.838	269.92
536.043	242.6
536.249	326.3
536.454	273.41
536.659	295.88
536.864	259.27
537.069	242.8
537.274	292.59
537.479	284.65
537.684	273.22
537.889	253.45
538.094	349.36
538.299	294.33
538.504	289.49
538.708	302.86
538.913	307.9
539.118	279.61
539.323	281.16
539.528	274.18
539.733	293.56
539.938	311.58
540.142	303.05
540.347	261.78
540.552	250.35
540.757	292.01
540.962	312.16
541.166	251.13
541.371	247.06
541.576	306.73
541.781	204.63
541.985	267.79
542.19	279.42
542.395	321.85
542.599	340.06
542.804	325.14
543.008	338.12
543.213	306.35
543.418	278.06
543.622	289.49
543.827	249.38
544.031	331.92
544.236	331.92
544.44	275.15
544.645	366.6
544.849	275.73
545.054	319.91
545.258	387.14
545.463	355.56
545.667	275.73
545.872	294.33
546.076	291.23
546.281	305.96
546.485	278.25
546.689	320.88
546.894	350.71
547.098	304.6
547.302	237.76
547.507	295.88
547.711	315.26
547.915	353.04
548.119	299.18
548.324	323.4
548.528	387.33
548.732	327.08
548.936	349.16
549.141	370.48
549.345	303.63
549.549	318.17
549.753	315.26
549.957	374.16
550.161	365.25
550.366	301.5
550.57	288.52
550.774	311.77
550.978	288.33
551.182	358.46
551.386	320.88
551.59	290.07
551.794	279.42
551.998	333.28
552.202	295.69
552.406	273.6
552.61	287.94
552.814	324.17
553.018	377.45
553.222	286.97
553.426	290.65
553.63	362.34
553.833	288.33
554.037	259.46
554.241	330.57
554.445	326.11
554.649	301.89
554.853	278.25
555.056	352.07
555.26	343.93
555.464	366.02
555.668	310.03
555.871	345.29
556.075	331.34
556.279	260.23
556.483	264.5
556.686	295.3
556.89	311.77
557.094	336.96
557.297	282.13
557.501	353.23
557.704	276.32
557.908	359.63
558.112	295.88
558.315	367.76
558.519	313.13
558.722	334.25
558.926	312.35
559.129	255
559.333	255.58
559.536	285.03
559.74	294.92
559.943	284.45
560.147	239.12
560.35	288.72
560.553	272.44
560.757	239.89
560.96	341.03
561.164	271.47
561.367	364.86
561.57	316.42
561.774	304.41
561.977	317.97
562.18	278.25
562.384	390.43
562.587	300.92
562.79	252.48
562.993	293.17
563.197	344.71
563.4	352.07
563.603	359.82
563.806	369.12
564.009	276.7
564.212	321.46
564.416	272.05
564.619	313.13
564.822	284.65
565.025	357.88
565.228	298.21
565.431	321.46
565.634	208.5
565.837	282.13
566.04	263.53
566.243	313.71
566.446	227.3
566.649	321.65
566.852	265.27
567.055	287.36
567.258	316.23
567.461	364.08
567.664	363.7
567.867	219.55
568.07	306.73
568.273	280.38
568.475	346.84
568.678	285.42
568.881	283.29
569.084	320.68
569.287	220.32
569.489	244.54
569.692	326.3
569.895	306.35
570.098	241.83
570.3	222.45
570.503	203.47
570.706	255
570.909	246.48
571.111	238.15
571.314	250.55
571.516	273.41
571.719	308.67
571.922	246.67
572.124	266.05
572.327	282.9
572.529	213.35
572.732	208.7
572.935	271.28
573.137	317.58
573.34	248.03
573.542	260.04
573.745	285.42
573.947	272.25
574.15	249.97
574.352	238.15
574.554	308.28
574.757	245.12
574.959	233.3
575.162	230.01
575.364	228.46
575.566	353.04
575.769	218.97
575.971	277.48
576.173	151.74
576.376	245.9
576.578	278.45
576.78	341.8
576.982	190.87
577.185	226.91
577.387	204.82
577.589	199.01
577.791	262.75
577.993	286.2
578.196	225.36
578.398	259.27
578.6	290.46
578.802	214.12
579.004	229.24
579.206	232.14
579.408	259.27
579.61	226.52
579.812	238.15
580.014	233.5
580.216	208.5
580.418	222.84
580.62	184.09
580.822	182.93
581.024	255
581.226	273.6
581.428	223.42
581.63	295.88
581.832	205.79
582.034	254.81
582.236	239.5
582.438	249
582.64	288.91
582.841	295.11
583.043	280.38
583.245	250.55
583.447	265.47
583.649	219.35
583.85	244.54
584.052	276.51
584.254	215.09
584.456	278.25
584.657	206.57
584.859	224
585.061	239.12
585.262	206.37
585.464	199.79
585.666	259.46
585.867	229.82
586.069	315.84
586.27	261.78
586.472	251.32
586.674	230.59
586.875	220.9
587.077	212.57
587.278	241.05
587.48	221.87
587.681	310.22
587.883	256.17
588.084	175.57
588.285	218.97
588.487	236.4
588.688	229.62
588.89	208.7
589.091	201.92
589.292	262.17
589.494	235.05
589.695	228.65
589.896	165.88
590.098	178.28
590.299	255
590.5	182.93
590.702	185.84
590.903	203.08
591.104	277.28
591.305	245.32
591.507	254.42
591.708	228.46
591.909	195.72
592.11	287.36
592.311	242.41
592.512	226.33
592.714	209.67
592.915	192.81
593.116	225.17
593.317	232.53
593.518	199.01
593.719	208.31
593.92	230.01
594.121	254.81
594.322	227.49
594.523	240.28
594.724	208.7
594.925	231.17
595.126	237.18
595.327	244.74
595.528	216.64
595.729	226.72
595.929	191.07
596.13	216.06
596.331	201.72
596.532	219.94
596.733	261.4
596.934	254.03
597.135	248.42
597.335	228.85
597.536	184.29
597.737	237.76
597.938	191.26
598.138	241.05
598.339	221.29
598.54	223.04
598.74	208.12
598.941	223.62
599.142	285.03
599.342	231.75
599.543	162.59
599.744	224.2
599.944	201.14
600.145	194.75
600.345	219.74
600.546	304.6
600.746	251.52
600.947	289.49
601.147	230.79
601.348	250.16
601.548	204.63
601.749	236.99
601.949	188.55
602.15	205.4
602.35	232.34
602.551	255.78
602.751	186.03
602.951	201.34
603.152	147.09
603.352	262.56
603.552	223.04
603.753	243.19
603.953	227.1
604.153	208.31
604.354	193.59
604.554	214.51
604.754	213.15
604.954	172.66
605.155	229.43
605.355	215.29
605.555	238.34
605.755	257.72
605.955	211.02
606.155	255.97
606.356	214.51
606.556	253.65
606.756	254.42
606.956	196.88
607.156	263.72
607.356	189.71
607.556	227.49
607.756	216.25
607.956	271.47
608.156	246.29
608.356	193.39
608.556	255.97
608.756	230.01
608.956	184.48
609.156	241.44
609.356	191.26
609.556	203.47
609.755	248.03
609.955	204.24
610.155	230.4
610.355	235.05
610.555	199.98
610.755	237.57
610.954	188.94
611.154	215.29
611.354	286.78
611.554	197.85
611.753	194.75
611.953	167.62
612.153	247.64
612.352	255.2
612.552	182.93
612.752	152.9
612.951	191.26
613.151	229.62
613.351	173.44
613.55	229.82
613.75	231.95
613.949	235.82
614.149	252.87
614.348	224
614.548	183.32
614.747	139.14
614.947	215.29
615.146	155.03
615.346	232.34
615.545	215.48
615.745	210.25
615.944	244.74
616.144	195.91
616.343	254.23
616.542	201.14
616.742	243.57
616.941	210.83
617.14	157.36
617.34	218.77
617.539	211.6
617.738	181.57
617.938	248.42
618.137	207.92
618.336	155.22
618.535	236.79
618.734	190.29
618.934	241.83
619.133	199.2
619.332	210.05
619.531	177.31
619.73	184.48
619.929	242.99
620.128	206.18
620.328	249.77
620.527	203.08
620.726	167.43
620.925	192.23
621.124	177.31
621.323	218
621.522	156
621.721	160.26
621.92	162.59
622.119	211.99
622.318	179.44
622.517	184.87
622.715	188.94
622.914	152.9
623.113	177.12
623.312	143.79
623.511	175.76
623.71	167.24
623.909	189.13
624.107	242.02
624.306	169.95
624.505	152.32
624.704	199.98
624.902	179.25
625.101	214.51
625.3	189.9
625.499	167.04
625.697	166.65
625.896	181.38
626.095	201.34
626.293	150.19
626.492	167.82
626.69	222.45
626.889	168.2
627.088	214.7
627.286	154.26
627.485	179.25
627.683	177.5
627.882	204.44
628.08	114.73
628.279	161.81
628.477	237.76
628.676	152.51
628.874	182.74
629.073	174.02
629.271	145.92
