Data from pine_FLMT105791__174__17-23-28-073.txt Node

Date: Mon Mar 20 17:23:28 GMT 2023
User: antho
Spectrometer: FLMT10579
Trigger mode: 0
Integration Time (sec): 1.000000E-1
Scans to average: 10
Electric dark correction enabled: true
Nonlinearity correction enabled: false
Boxcar width: 0
XAxis mode: Wavelengths
Number of Pixels in Spectrum: 3648
>>>>>Begin Spectral Data<<<<<
345.248	-164.96
345.464	-164.96
345.681	-164.96
345.898	-179.68
346.114	-183.56
346.331	-45.03
346.548	15.61
346.764	-3.18
346.981	-8.41
347.197	-2.41
347.414	29.56
347.631	-41.16
347.847	56.3
348.064	9.03
348.28	29.76
348.497	-30.69
348.713	-9.38
348.93	21.23
349.146	14.64
349.363	-4.34
349.579	8.64
349.796	-15.19
350.012	5.73
350.229	26.27
350.445	9.8
350.661	-39.22
350.878	0.5
351.094	2.63
351.311	23.36
351.527	13.48
351.743	-5.89
351.96	25.49
352.176	22.78
352.392	27.04
352.609	36.73
352.825	0.5
353.041	12.51
353.257	-17.13
353.474	16.19
353.69	17.55
353.906	21.43
354.122	-48.32
354.339	47.58
354.555	28.4
354.771	-14.22
354.987	49.91
355.203	44.48
355.42	-18.1
355.636	-10.93
355.852	-6.67
356.068	-25.66
356.284	-37.67
356.5	62.11
356.716	7.67
356.932	16
357.148	24.14
357.364	-13.45
357.58	17.74
357.796	37.51
358.012	24.53
358.228	33.24
358.444	-34.76
358.66	44.48
358.876	36.34
359.092	-17.91
359.308	12.13
359.524	12.51
359.74	-4.54
359.956	-32.63
360.172	-13.06
360.388	31.5
360.604	-25.07
360.819	94.86
361.035	14.45
361.251	31.69
361.467	-21.59
361.683	41.77
361.898	17.94
362.114	35.96
362.33	3.02
362.546	12.71
362.762	12.13
362.977	27.63
363.193	-7.83
363.409	38.28
363.624	-34.37
363.84	-8.22
364.056	-35.73
364.271	24.72
364.487	-7.83
364.703	-14.42
364.918	-41.74
365.134	-8.41
365.35	-3.18
365.565	121.98
365.781	14.84
365.996	-5.51
366.212	71.99
366.427	13.87
366.643	-18.68
366.858	-15.97
367.074	-7.25
367.289	43.71
367.505	80.52
367.72	-36.51
367.936	-21.59
368.151	27.04
368.367	21.81
368.582	-10.74
368.798	-1.05
369.013	66.57
369.228	22.2
369.444	3.21
369.659	20.46
369.874	40.99
370.09	60.17
370.305	-35.34
370.52	-8.8
370.736	42.74
370.951	-5.7
371.166	51.84
371.381	52.81
371.597	56.3
371.812	-25.27
372.027	-11.51
372.242	0.11
372.458	59.59
372.673	-26.82
372.888	1.66
373.103	49.52
373.318	92.72
373.533	27.04
373.749	34.41
373.964	-9.19
374.179	48.55
374.394	-8.02
374.609	42.54
374.824	-7.64
375.039	45.06
375.254	-6.28
375.469	57.46
375.684	4.18
375.899	46.42
376.114	29.18
376.329	17.16
376.544	36.15
376.759	36.92
376.974	-15.39
377.189	-13.84
377.404	-17.91
377.619	28.01
377.834	-16.55
378.049	-14.81
378.264	-12.09
378.478	26.08
378.693	0.89
378.908	51.07
379.123	1.08
379.338	32.86
379.553	18.71
379.767	15.23
379.982	29.95
380.197	34.99
380.412	-4.73
380.626	9.8
380.841	108.22
381.056	30.53
381.271	64.63
381.485	-19.26
381.7	-35.15
381.915	10.96
382.129	-10.93
382.344	41.96
382.559	22.98
382.773	42.35
382.988	-45.42
383.202	6.7
383.417	-13.64
383.632	107.84
383.846	6.12
384.061	12.32
384.275	16.97
384.49	11.16
384.704	37.89
384.919	11.74
385.133	47.19
385.348	44.67
385.562	-19.26
385.777	48.16
385.991	1.86
386.206	7.09
386.42	-16.74
386.634	57.66
386.849	31.31
387.063	-0.27
387.277	-36.7
387.492	-2.02
387.706	-20.23
387.92	-10.74
388.135	58.43
388.349	-16.36
388.563	6.51
388.778	7.09
388.992	31.69
389.206	23.75
389.42	98.15
389.635	8.06
389.849	48.16
390.063	58.82
390.277	13.29
390.491	55.33
390.706	43.32
390.92	35.38
391.134	7.67
391.348	27.24
391.562	-15.58
391.776	10.38
391.99	-15.58
392.205	30.73
392.419	-13.26
392.633	-21.59
392.847	56.69
393.061	7.48
393.275	65.79
393.489	4.57
393.703	50.1
393.917	43.71
394.131	7.48
394.345	54.36
394.559	49.32
394.773	-22.56
394.986	18.91
395.2	1.08
395.414	38.86
395.628	-27.4
395.842	24.53
396.056	-0.47
396.27	-25.66
396.484	51.65
396.697	47.97
396.911	99.12
397.125	32.66
397.339	65.02
397.553	72.19
397.766	55.72
397.98	53.01
398.194	57.27
398.408	-11.51
398.621	42.35
398.835	65.02
399.049	34.99
399.262	41.38
399.476	42.93
399.69	46.03
399.903	102.61
400.117	16.58
400.331	24.72
400.544	-11.71
400.758	131.28
400.971	23.17
401.185	62.11
401.398	0.5
401.612	49.71
401.826	55.52
402.039	20.65
402.253	2.63
402.466	41.77
402.68	40.41
402.893	35.96
403.106	10.77
403.32	26.27
403.533	14.06
403.747	69.47
403.96	47.97
404.174	48.16
404.387	-22.94
404.6	19.1
404.814	65.99
405.027	15.61
405.24	39.25
405.454	-2.99
405.667	72.57
405.88	-35.73
406.094	42.54
406.307	70.06
406.52	62.11
406.733	11.35
406.947	-2.02
407.16	72.77
407.373	77.22
407.586	-1.05
407.799	-3.76
408.012	73.54
408.226	42.54
408.439	89.43
408.652	-9.57
408.865	31.5
409.078	71.61
409.291	42.54
409.504	-2.6
409.717	66.18
409.93	53.2
410.143	31.89
410.357	-11.9
410.57	-12.48
410.783	14.26
410.996	29.37
411.209	52.23
411.421	64.24
411.634	21.81
411.847	4.18
412.06	33.44
412.273	14.26
412.486	41.38
412.699	112.68
412.912	28.98
413.125	58.82
413.338	18.13
413.55	21.23
413.763	31.89
413.976	59.21
414.189	4.38
414.402	25.69
414.615	81.29
414.827	-9.19
415.04	58.04
415.253	46.81
415.466	74.32
415.678	84.78
415.891	36.54
416.104	28.79
416.316	37.89
416.529	7.48
416.742	55.72
416.954	58.82
417.167	20.26
417.38	31.31
417.592	73.35
417.805	-8.8
418.017	-22.36
418.23	83.42
418.442	25.11
418.655	20.26
418.868	29.76
419.08	68.31
419.293	78.77
419.505	47
419.718	71.22
419.93	79.55
420.142	16.58
420.355	66.76
420.567	83.23
420.78	49.91
420.992	11.74
421.205	123.72
421.417	-4.34
421.629	24.14
421.842	22.98
422.054	-8.8
422.266	76.64
422.479	67.92
422.691	38.67
422.903	78.39
423.115	9.61
423.328	16.39
423.54	57.66
423.752	47.58
423.964	-6.09
424.177	75.09
424.389	20.46
424.601	125.27
424.813	34.41
425.025	73.93
425.238	74.32
425.45	18.33
425.662	43.9
425.874	317.66
426.086	59.01
426.298	55.14
426.51	52.04
426.722	68.12
426.934	49.91
427.146	71.8
427.358	9.99
427.57	78.19
427.782	59.59
427.994	26.27
428.206	37.12
428.418	9.03
428.63	81.1
428.842	71.41
429.054	65.6
429.266	97.37
429.478	24.53
429.69	59.4
429.902	-9.77
430.114	89.82
430.325	80.52
430.537	48.16
430.749	51.26
430.961	5.15
431.173	54.56
431.384	84.39
431.596	-32.24
431.808	54.36
432.02	64.05
432.231	68.7
432.443	96.79
432.655	45.84
432.867	-0.27
433.078	83.62
433.29	104.16
433.502	85.56
433.713	90.01
433.925	60.17
434.136	108.22
434.348	45.45
434.56	11.93
434.771	144.07
434.983	16.58
435.194	71.22
435.406	42.93
435.617	92.53
435.829	148.33
436.04	111.91
436.252	113.46
436.463	111.13
436.675	98.34
436.886	61.14
437.098	93.31
437.309	124.89
437.521	100.09
437.732	53.2
437.943	75.87
438.155	72.38
438.366	51.46
438.578	123.14
438.789	87.49
439	123.72
439.211	61.14
439.423	108.42
439.634	93.31
439.845	98.92
440.057	90.01
440.268	117.14
440.479	69.86
440.69	64.05
440.902	45.45
441.113	92.72
441.324	84.2
441.535	124.5
441.746	138.06
441.957	70.83
442.168	98.73
442.38	101.83
442.591	110.74
442.802	64.63
443.013	51.07
443.224	119.85
443.435	93.5
443.646	117.72
443.857	80.71
444.068	74.9
444.279	74.71
444.49	142.52
444.701	81.29
444.912	197.15
445.123	132.25
445.334	145.04
445.545	123.34
445.756	106.29
445.967	72.96
446.178	137.67
446.388	128.37
446.599	141.35
446.81	134.38
447.021	79.74
447.232	154.72
447.443	153.95
447.653	60.17
447.864	148.72
448.075	125.47
448.286	148.14
448.496	143.1
448.707	149.69
448.918	122.56
449.129	211.49
449.339	96.02
449.55	147.36
449.761	120.82
449.971	142.9
450.182	118.49
450.393	142.71
450.603	69.47
450.814	155.11
451.024	141.16
451.235	145.62
451.446	183.59
451.656	190.57
451.867	118.11
452.077	144.07
452.288	175.07
452.498	166.15
452.709	140.97
452.919	145.42
453.13	132.83
453.34	158.02
453.55	79.55
453.761	166.54
453.971	168.48
454.182	146.59
454.392	149.69
454.602	208.59
454.813	147.17
455.023	162.28
455.233	109.97
455.444	124.3
455.654	72.57
455.864	116.94
456.075	131.28
456.285	120.04
456.495	138.06
456.705	123.34
456.916	186.11
457.126	203.16
457.336	134.19
457.546	74.71
457.756	137.67
457.967	191.54
458.177	134.57
458.387	171.77
458.597	116.36
458.807	162.47
459.017	137.87
459.227	130.89
459.437	139.42
459.647	171.97
459.857	148.72
460.068	106.29
460.278	173.13
460.488	145.42
460.698	218.66
460.908	142.52
461.117	122.76
461.327	123.14
461.537	155.3
461.747	183.4
461.957	152.4
462.167	226.6
462.377	188.05
462.587	151.62
462.797	181.27
463.007	145.04
463.216	179.14
463.426	181.07
463.636	204.13
463.846	85.17
464.056	132.05
464.265	182.24
464.475	149.69
464.685	142.9
464.895	206.26
465.104	137.48
465.314	178.75
465.524	137.29
465.733	152.2
465.943	220.4
466.153	202.39
466.362	195.22
466.572	172.74
466.782	152.79
466.991	161.31
467.201	212.07
467.41	150.46
467.62	173.32
467.829	173.71
468.039	192.89
468.249	171.97
468.458	144.84
468.668	179.33
468.877	182.43
469.086	210.33
469.296	219.43
469.505	162.86
469.715	242.49
469.924	213.04
470.134	208.59
470.343	231.45
470.552	166.93
470.762	184.17
470.971	169.06
471.18	173.32
471.39	185.34
471.599	148.72
471.808	204.9
472.018	182.62
472.227	220.6
472.436	203.16
472.645	152.2
472.855	157.24
473.064	247.92
473.273	196.19
473.482	196.96
473.691	208.59
473.901	225.05
474.11	191.73
474.319	267.48
474.528	228.15
474.737	228.73
474.946	210.72
475.155	218.66
475.364	250.05
475.573	202.77
475.783	209.94
475.992	239.58
476.201	258.77
476.41	180.88
476.619	179.14
476.828	218.47
477.037	182.43
477.245	211.49
477.454	237.45
477.663	203.35
477.872	182.04
478.081	272.33
478.29	171.58
478.499	270.39
478.708	199.87
478.917	278.72
479.125	212.46
479.334	267.68
479.543	206.07
479.752	218.85
479.961	236.48
480.169	257.22
480.378	219.24
480.587	338.78
480.796	273.1
481.004	263.22
481.213	292.28
481.422	241.13
481.63	253.53
481.839	242.1
482.048	308.56
482.256	242.3
482.465	229.12
482.674	254.7
482.882	280.27
483.091	293.06
483.299	287.25
483.508	269.23
483.716	242.49
483.925	236.87
484.134	249.85
484.342	251.02
484.551	302.55
484.759	284.15
484.967	275.23
485.176	310.88
485.384	310.5
485.593	323.86
485.801	306.23
486.01	276.98
486.218	248.11
486.426	216.92
486.635	283.37
486.843	255.86
487.051	275.43
487.26	251.21
487.468	258.96
487.676	307.4
487.885	225.63
488.093	266.13
488.301	285.89
488.509	248.88
488.717	303.13
488.926	267.87
489.134	277.75
489.342	275.04
489.55	256.83
489.758	287.05
489.967	289.18
490.175	383.15
490.383	281.82
490.591	347.11
490.799	258.77
491.007	328.51
491.215	299.84
491.423	304.68
491.631	307.01
491.839	317.08
492.047	327.55
492.255	276.59
492.463	238.81
492.671	307.59
492.879	349.05
493.087	296.93
493.295	295.19
493.503	349.05
493.711	331.23
493.919	361.45
494.127	361.45
494.334	336.07
494.542	287.05
494.75	307.01
494.958	316.11
495.166	345.95
495.374	317.86
495.581	325.03
495.789	314.76
495.997	382.76
496.205	326.19
496.412	315.34
496.62	324.45
496.828	319.6
497.035	300.03
497.243	341.69
497.451	337.62
497.658	345.76
497.866	345.76
498.074	397.29
498.281	331.61
498.489	416.67
498.696	354.67
498.904	351.76
499.112	363.58
499.319	416.09
499.527	338.59
499.734	372.11
499.942	310.11
500.149	320.96
500.357	335.49
500.564	295.58
500.771	352.73
500.979	332
501.186	331.61
501.394	366.68
501.601	342.85
501.808	392.06
502.016	376.95
502.223	336.85
502.43	375.01
502.638	328.71
502.845	311.46
503.052	437.21
503.26	346.92
503.467	432.94
503.674	344.6
503.881	376.56
504.089	446.89
504.296	379.86
504.503	313.4
504.71	342.08
504.917	335.1
505.125	402.91
505.332	360.1
505.539	403.49
505.746	405.04
505.953	387.22
506.16	407.76
506.367	418.99
506.574	400.98
506.781	406.01
506.988	338.78
507.195	371.14
507.402	370.36
507.609	409.5
507.816	372.5
508.023	386.64
508.23	367.07
508.437	361.84
508.644	403.88
508.851	436.82
509.058	396.91
509.265	396.33
509.472	447.48
509.679	468.59
509.885	397.1
510.092	418.41
510.299	395.94
510.506	413.18
510.713	433.33
510.92	393.42
511.126	378.5
511.333	435.85
511.54	424.42
511.746	452.32
511.953	462.01
512.16	466.46
512.367	403.69
512.573	391.09
512.78	402.14
512.987	426.16
513.193	451.35
513.4	350.8
513.606	404.85
513.813	436.63
514.02	407.56
514.226	486.81
514.433	459.68
514.639	403.11
514.846	432.75
515.052	381.99
515.259	415.7
515.465	425.78
515.672	426.16
515.878	500.17
516.085	391.48
516.291	445.93
516.497	419.19
516.704	418.03
516.91	384.31
517.117	364.75
517.323	365.13
517.529	398.07
517.736	412.99
517.942	395.16
518.148	399.62
518.354	425.97
518.561	445.54
518.767	409.5
518.973	492.42
519.179	461.43
519.386	402.91
519.592	406.01
519.798	424.23
520.004	471.69
520.21	389.54
520.417	464.33
520.623	487.77
520.829	480.22
521.035	496.88
521.241	486.61
521.447	515.48
521.653	553.26
521.859	461.43
522.065	469.18
522.271	563.72
522.477	520.32
522.683	533.31
522.889	493.97
523.095	490.29
523.301	484.29
523.507	447.48
523.713	503.08
523.919	448.06
524.125	509.67
524.331	462.39
524.537	534.27
524.742	531.17
524.948	508.7
525.154	533.11
525.36	618.94
525.566	541.06
525.772	590.27
525.977	491.07
526.183	563.72
526.389	559.27
526.595	493.97
526.8	507.73
527.006	477.89
527.212	464.91
527.417	466.27
527.623	451.74
527.829	537.37
528.034	552.68
528.24	514.71
528.446	480.41
528.651	549
528.857	557.33
529.062	574.96
529.268	488.16
529.473	517.22
529.679	529.82
529.884	600.92
530.09	583.87
530.295	625.34
530.501	585.62
530.706	567.21
530.912	522.07
531.117	599.37
531.323	545.9
531.528	532.92
531.733	598.79
531.939	546.09
532.144	600.54
532.35	583.29
532.555	619.33
532.76	628.05
532.966	635.6
533.171	574.96
533.376	551.52
533.581	511.61
533.787	582.9
533.992	573.8
534.197	604.8
534.402	587.17
534.607	587.94
534.813	662.53
535.018	593.17
535.223	584.07
535.428	601.7
535.633	634.64
535.838	600.34
536.043	610.8
536.249	693.15
536.454	591.24
536.659	616.81
536.864	591.43
537.069	596.47
537.274	617
537.479	650.72
537.684	606.74
537.889	593.17
538.094	675.13
538.299	615.65
538.504	615.26
538.708	633.86
538.913	622.82
539.118	590.85
539.323	640.25
539.528	596.27
539.733	603.83
539.938	638.7
540.142	650.33
540.347	605.38
540.552	611.39
540.757	623.2
540.962	617.59
541.166	552.87
541.371	576.12
541.576	606.35
541.781	525.36
541.985	620.49
542.19	628.05
542.395	659.82
542.599	660.79
542.804	667.77
543.008	699.54
543.213	613.71
543.418	588.14
543.622	659.63
543.827	596.66
544.031	679.2
544.236	679.2
544.44	619.33
544.645	704
544.849	620.1
545.054	655.56
545.258	733.25
545.463	712.13
545.667	622.04
545.872	683.07
546.076	661.57
546.281	639.09
546.485	633.86
546.689	674.74
546.894	691.02
547.098	645.29
547.302	611.77
547.507	641.61
547.711	664.08
547.915	704
548.119	616.23
548.324	624.37
548.528	684.43
548.732	656.33
548.936	700.51
549.141	704.19
549.345	622.62
549.549	638.9
549.753	656.33
549.957	704.38
550.161	712.91
550.366	665.25
550.57	622.24
550.774	670.48
550.978	635.22
551.182	677.07
551.386	637.54
551.59	635.41
551.794	634.25
551.998	657.11
552.202	634.64
552.406	582.13
552.61	646.65
552.814	661.76
553.018	739.26
553.222	650.91
553.426	655.56
553.63	700.32
553.833	659.63
554.037	626.3
554.241	700.12
554.445	672.42
554.649	638.32
554.853	637.54
555.056	692.57
555.26	688.88
555.464	673.77
555.668	687.72
555.871	708.07
556.075	719.11
556.279	636.19
556.483	616.04
556.686	670.87
556.89	674.16
557.094	680.17
557.297	621.27
557.501	700.12
557.704	606.93
557.908	703.8
558.112	624.17
558.315	744.3
558.519	650.13
558.722	670.28
558.926	660.02
559.129	591.82
559.333	585.04
559.536	576.32
559.74	607.51
559.943	601.31
560.147	572.25
560.35	636.96
560.553	607.32
560.757	543.38
560.96	676.1
561.164	592.79
561.367	691.02
561.57	592.01
561.774	642.19
561.977	603.05
562.18	598.79
562.384	685.2
562.587	634.05
562.79	610.22
562.993	639.29
563.197	665.83
563.4	683.07
563.603	688.5
563.806	738.29
564.009	599.95
564.212	666.41
564.416	604.6
564.619	676.87
564.822	584.07
565.025	685.4
565.228	610.22
565.431	650.72
565.634	539.7
565.837	575.54
566.04	608.09
566.243	616.42
566.446	532.92
566.649	615.65
566.852	576.7
567.055	593.75
567.258	614.1
567.461	692.76
567.664	655.75
567.867	537.18
568.07	649.94
568.273	617.78
568.475	664.47
568.678	610.8
568.881	605.38
569.084	636.96
569.287	519.16
569.489	559.07
569.692	613.52
569.895	626.3
570.098	571.28
570.3	555.59
570.503	485.26
570.706	557.33
570.909	536.02
571.111	514.12
571.314	529.24
571.516	563.92
571.719	558.11
571.922	531.17
572.124	511.99
572.327	580.39
572.529	524.59
572.732	505.79
572.935	572.25
573.137	595.69
573.34	554.23
573.542	612.35
573.745	554.42
573.947	562.56
574.15	557.14
574.352	531.17
574.554	599.37
574.757	518.77
574.959	556.17
575.162	535.63
575.364	500.95
575.566	634.25
575.769	494.75
575.971	556.56
576.173	459.49
576.376	511.22
576.578	566.63
576.78	638.12
576.982	474.79
577.185	507.34
577.387	497.27
577.589	490.1
577.791	567.4
577.993	559.07
578.196	526.91
578.398	530.01
578.6	591.24
578.802	494.56
579.004	453.87
579.206	493.01
579.408	533.11
579.61	500.56
579.812	551.52
580.014	499.4
580.216	495.91
580.418	500.95
580.62	486.42
580.822	466.85
581.024	483.32
581.226	525.17
581.428	488.74
581.63	568.18
581.832	483.51
582.034	562.95
582.236	525.17
582.438	531.17
582.64	586.39
582.841	598.21
583.043	620.49
583.245	530.01
583.447	525.36
583.649	525.36
583.85	522.26
584.052	587.75
584.254	504.63
584.456	567.02
584.657	478.28
584.859	534.27
585.061	532.34
585.262	519.74
585.464	490.1
585.666	542.99
585.867	511.02
586.069	563.92
586.27	541.64
586.472	525.75
586.674	501.14
586.875	468.98
587.077	485.45
587.278	526.91
587.48	506.76
587.681	604.8
587.883	523.62
588.084	480.8
588.285	499.98
588.487	503.08
588.688	526.52
588.89	493.97
589.091	491.65
589.292	510.64
589.494	469.56
589.695	494.17
589.896	412.41
590.098	395.94
590.299	477.7
590.5	419.58
590.702	418.41
590.903	459.29
591.104	504.63
591.305	468.79
591.507	514.71
591.708	505.6
591.909	460.26
592.11	533.31
592.311	510.25
592.512	465.11
592.714	426.16
592.915	448.06
593.116	466.66
593.317	478.86
593.518	448.64
593.719	455.81
593.92	532.53
594.121	519.16
594.322	491.65
594.523	496.88
594.724	438.18
594.925	446.7
595.126	512.77
595.327	526.52
595.528	479.64
595.729	498.43
595.929	490.29
596.13	462.2
596.331	482.54
596.532	482.93
596.733	561.59
596.934	507.92
597.135	502.11
597.335	476.92
597.536	454.64
597.737	490.68
597.938	451.74
598.138	488.36
598.339	464.53
598.54	504.63
598.74	487.77
598.941	509.67
599.142	545.32
599.342	515.87
599.543	453.87
599.744	495.72
599.944	478.67
600.145	454.26
600.345	526.14
600.546	561.2
600.746	527.11
600.947	575.15
601.147	482.74
601.348	534.66
601.548	481.57
601.749	489.32
601.949	442.44
602.15	475.76
602.35	472.47
602.551	539.89
602.751	448.64
602.951	479.64
603.152	387.8
603.352	510.25
603.552	492.23
603.753	538.15
603.953	517.81
604.153	475.18
604.354	455.03
604.554	477.89
604.754	464.53
604.954	439.14
605.155	485.64
605.355	456.78
605.555	489.32
605.755	546.29
605.955	493.59
606.155	491.07
606.356	475.57
606.556	520.91
606.756	479.25
606.956	444.38
607.156	517.81
607.356	460.65
607.556	490.87
607.756	474.41
607.956	537.76
608.156	466.27
608.356	466.08
608.556	513.93
608.756	476.15
608.956	469.37
609.156	486.61
609.356	452.71
609.556	463.94
609.755	498.04
609.955	466.46
610.155	466.08
610.355	449.61
610.555	436.63
610.755	494.75
610.954	428.49
611.154	483.12
611.354	499.79
611.554	470.92
611.753	446.51
611.953	436.43
612.153	508.89
612.352	504.63
612.552	428.88
612.752	423.06
612.951	445.54
613.151	468.01
613.351	412.6
613.55	450.58
613.75	456
613.949	484.87
614.149	494.36
614.348	478.86
614.548	438.18
614.747	411.63
614.947	447.28
615.146	386.44
615.346	492.04
615.545	473.63
615.745	444.57
615.944	487.77
616.144	464.14
616.343	470.73
616.542	429.46
616.742	453.87
616.941	453.29
617.14	392.06
617.34	454.06
617.539	446.51
617.738	429.07
617.938	527.11
618.137	435.27
618.336	385.48
618.535	461.23
618.734	422.87
618.934	450.19
619.133	455.61
619.332	441.28
619.531	433.53
619.73	441.66
619.929	467.04
620.128	455.42
620.328	480.61
620.527	397.1
620.726	432.75
620.925	461.81
621.124	424.23
621.323	443.79
621.522	411.05
621.721	388.19
621.92	398.65
622.119	451.74
622.318	425.78
622.517	454.64
622.715	433.14
622.914	355.83
623.113	414.73
623.312	367.85
623.511	444.76
623.71	417.64
623.909	411.24
624.107	460.07
624.306	379.28
624.505	378.11
624.704	400.98
624.902	409.89
625.101	458.71
625.3	402.91
625.499	386.06
625.697	415.31
625.896	388.77
626.095	438.37
626.293	372.3
626.492	382.18
626.69	409.31
