Data from pine_FLMT105791__150__17-23-04-074.txt Node

Date: Mon Mar 20 17:23:04 GMT 2023
User: antho
Spectrometer: FLMT10579
Trigger mode: 0
Integration Time (sec): 1.000000E-1
Scans to average: 10
Electric dark correction enabled: true
Nonlinearity correction enabled: false
Boxcar width: 0
XAxis mode: Wavelengths
Number of Pixels in Spectrum: 3648
>>>>>Begin Spectral Data<<<<<
345.248	-171.79
345.464	-171.79
345.681	-171.79
345.898	-178.18
346.114	-155.71
346.331	-29.97
346.548	21.96
346.764	2
346.981	-9.43
347.197	-14.85
347.414	8.59
347.631	-26.09
347.847	63.03
348.064	16.73
348.28	16.92
348.497	-46.43
348.713	-2.45
348.93	-0.71
349.146	36.68
349.363	23.7
349.579	12.66
349.796	-1.29
350.012	0.45
350.229	55.28
350.445	9.75
350.661	-11.56
350.878	14.4
351.094	16.34
351.311	18.47
351.527	17.5
351.743	-10.79
351.96	48.89
352.176	26.03
352.392	26.03
352.609	33.39
352.825	-4.59
353.041	3.16
353.257	33.2
353.474	23.9
353.69	2.58
353.906	11.11
354.122	-16.02
354.339	52.57
354.555	-3.81
354.771	-0.71
354.987	69.04
355.203	49.86
355.42	7.04
355.636	9.56
355.852	-6.52
356.068	21.18
356.284	-5.36
356.5	68.65
356.716	16.53
356.932	22.54
357.148	32.61
357.364	2.78
357.58	33.78
357.796	76.01
358.012	31.26
358.228	23.12
358.444	-36.17
358.66	71.75
358.876	30.68
359.092	11.3
359.308	42.5
359.524	17.7
359.74	40.95
359.956	-14.08
360.172	9.36
360.388	26.22
360.604	19.63
360.819	80.86
361.035	22.35
361.251	35.71
361.467	-23.57
361.683	53.54
361.898	15.18
362.114	65.74
362.33	32.23
362.546	43.85
362.762	12.27
362.977	22.35
363.193	-24.54
363.409	41.33
363.624	-5.17
363.84	-19.5
364.056	2.58
364.271	32.81
364.487	11.88
364.703	3.55
364.918	-12.92
365.134	15.95
365.35	-25.9
365.565	95.97
365.781	16.73
365.996	34.75
366.212	68.07
366.427	33.58
366.643	-31.32
366.858	19.63
367.074	-23.96
367.289	67.49
367.505	107.79
367.72	-40.43
367.936	-19.5
368.151	53.54
368.367	58.58
368.582	38.81
368.798	11.3
369.013	67.49
369.228	25.64
369.444	28.16
369.659	46.56
369.874	51.8
370.09	69.04
370.305	-40.62
370.52	-8.07
370.736	56.06
370.951	14.01
371.166	66.13
371.381	96.74
371.597	43.08
371.812	-8.27
372.027	-13.89
372.242	-13.3
372.458	63.42
372.673	-0.9
372.888	12.46
373.103	24.67
373.318	94.03
373.533	17.5
373.749	33
373.964	-19.7
374.179	30.1
374.394	14.4
374.609	42.88
374.824	-17.57
375.039	48.5
375.254	13.43
375.469	78.53
375.684	38.04
375.899	55.67
376.114	22.15
376.329	35.33
376.544	55.48
376.759	51.41
376.974	3.36
377.189	10.91
377.404	0.65
377.619	44.82
377.834	-34.81
378.049	-15.82
378.264	-29.77
378.478	-2.45
378.693	-17.57
378.908	41.33
379.123	18.66
379.338	71.17
379.553	52.76
379.767	35.71
379.982	52.38
380.197	29.51
380.412	43.08
380.626	52.76
380.841	86.67
381.056	44.63
381.271	90.54
381.485	-0.52
381.7	-2.45
381.915	35.33
382.129	22.93
382.344	22.93
382.559	15.56
382.773	66.52
382.988	-36.94
383.202	20.8
383.417	-18.73
383.632	109.14
383.846	2.58
384.061	33.39
384.275	13.43
384.49	9.75
384.704	31.65
384.919	41.53
385.133	7.43
385.348	28.74
385.562	-39.65
385.777	33.39
385.991	16.15
386.206	17.5
386.42	14.21
386.634	73.88
386.849	22.73
387.063	37.85
387.277	-4.59
387.492	0.65
387.706	-7.49
387.92	-8.65
388.135	38.04
388.349	36.1
388.563	40.75
388.778	44.43
388.992	45.79
389.206	42.88
389.42	93.64
389.635	39.4
389.849	72.91
390.063	35.91
390.277	28.16
390.491	93.45
390.706	40.17
390.92	47.15
391.134	41.33
391.348	57.41
391.562	-37.72
391.776	21.38
391.99	-2.45
392.205	60.51
392.419	2
392.633	9.56
392.847	59.93
393.061	23.9
393.275	91.71
393.489	50.25
393.703	41.14
393.917	79.69
394.131	-4.97
394.345	67.68
394.559	99.07
394.773	11.69
394.986	46.18
395.2	22.15
395.414	58.96
395.628	-13.5
395.842	40.17
396.056	2.97
396.27	-13.11
396.484	20.8
396.697	33.97
396.911	63.81
397.125	45.4
397.339	60.9
397.553	47.15
397.766	106.04
397.98	30.68
398.194	84.93
398.408	11.5
398.621	41.53
398.835	63.03
399.049	42.88
399.262	75.24
399.476	82.99
399.69	50.25
399.903	106.04
400.117	39.59
400.331	68.65
400.544	24.67
400.758	166.49
400.971	69.04
401.185	73.3
401.398	7.04
401.612	107.98
401.826	82.41
402.039	82.41
402.253	26.03
402.466	40.56
402.68	34.16
402.893	49.08
403.106	52.38
403.32	50.83
403.533	79.31
403.747	81.83
403.96	52.38
404.174	85.12
404.387	-9.24
404.6	68.46
404.814	88.03
405.027	32.42
405.24	37.65
405.454	48.31
405.667	81.83
405.88	4.91
406.094	44.43
406.307	106.04
406.52	76.98
406.733	13.43
406.947	-12.53
407.16	94.23
407.373	95.97
407.586	34.75
407.799	9.95
408.012	91.13
408.226	72.14
408.439	101.59
408.652	20.99
408.865	70.59
409.078	83.38
409.291	40.56
409.504	12.27
409.717	70.01
409.93	83.57
410.143	64.19
410.357	25.45
410.57	8.4
410.783	50.44
410.996	63.42
411.209	59.35
411.421	67.88
411.634	58.19
411.847	42.11
412.06	27.58
412.273	44.24
412.486	71.56
412.699	135.11
412.912	28.55
413.125	90.16
413.338	62.45
413.55	62.84
413.763	79.11
413.976	66.13
414.189	39.78
414.402	61.87
414.615	115.54
414.827	25.64
415.04	66.71
415.253	80.66
415.466	95.19
415.678	113.6
415.891	54.9
416.104	82.21
416.316	49.47
416.529	34.75
416.742	98.88
416.954	111.66
417.167	51.21
417.38	55.67
417.592	101.39
417.805	40.75
418.017	36.3
418.23	106.82
418.442	54.51
418.655	52.57
418.868	70.39
419.08	107.21
419.293	90.54
419.505	93.64
419.718	70.39
419.93	108.18
420.142	45.6
420.355	111.66
420.567	114.96
420.78	81.24
420.992	68.46
421.205	115.93
421.417	42.69
421.629	37.46
421.842	60.32
422.054	26.22
422.266	108.76
422.479	96.94
422.691	68.65
422.903	101.98
423.115	22.73
423.328	59.35
423.54	97.33
423.752	69.04
423.964	52.38
424.177	69.43
424.389	44.24
424.601	194.39
424.813	77.18
425.025	103.72
425.238	84.73
425.45	56.64
425.662	62.26
425.874	414.49
426.086	92.48
426.298	105.85
426.51	102.56
426.722	80.47
426.934	70.2
427.146	129.29
427.358	47.53
427.57	121.54
427.782	84.34
427.994	81.05
428.206	71.75
428.418	47.53
428.63	122.9
428.842	126.39
429.054	87.25
429.266	109.92
429.478	78.73
429.69	89.38
429.902	39.98
430.114	138.4
430.325	98.49
430.537	82.21
430.749	91.71
430.961	9.56
431.173	84.15
431.384	119.8
431.596	7.81
431.808	73.3
432.02	102.36
432.231	145.96
432.443	152.74
432.655	116.51
432.867	65.74
433.078	106.63
433.29	145.76
433.502	138.01
433.713	164.17
433.925	104.11
434.136	156.22
434.348	92.87
434.56	54.9
434.771	207.76
434.983	74.27
435.194	72.91
435.406	116.12
435.617	151.38
435.829	198.85
436.04	165.33
436.252	162.23
436.463	186.84
436.675	156.22
436.886	149.06
437.098	150.8
437.309	206.79
437.521	121.74
437.732	149.25
437.943	147.12
438.155	141.69
438.366	84.73
438.578	201.76
438.789	146.15
439	182.96
439.211	125.23
439.423	167.07
439.634	155.45
439.845	174.24
440.057	168.04
440.268	202.72
440.479	126.39
440.69	175.21
440.902	155.45
441.113	152.74
441.324	130.07
441.535	183.35
441.746	239.92
441.957	130.07
442.168	140.92
442.38	185.67
442.591	234.11
442.802	147.51
443.013	165.33
443.224	180.25
443.435	176.96
443.646	171.92
443.857	172.31
444.068	163.59
444.279	159.32
444.49	255.23
444.701	191.29
444.912	303.86
445.123	209.89
445.334	202.92
445.545	212.41
445.756	186.06
445.967	166.49
446.178	191.49
446.388	233.72
446.599	237.6
446.81	213.77
447.021	175.21
447.232	247.48
447.443	261.24
447.653	176.57
447.864	262.79
448.075	204.27
448.286	261.62
448.496	228.88
448.707	270.34
448.918	225.01
449.129	296.11
449.339	230.04
449.55	248.06
449.761	187.22
449.971	269.76
450.182	210.86
450.393	235.47
450.603	220.94
450.814	270.54
451.024	256.97
451.235	278.87
451.446	300.57
451.656	282.16
451.867	232.76
452.077	308.7
452.288	303.28
452.498	317.62
452.709	240.31
452.919	289.33
453.13	226.17
453.34	285.07
453.55	215.32
453.761	288.94
453.971	262.79
454.182	291.65
454.392	266.27
454.602	317.62
454.813	267.44
455.023	279.25
455.233	231.79
455.444	250
455.654	196.72
455.864	278.48
456.075	251.74
456.285	272.09
456.495	253.1
456.705	278.29
456.916	316.45
457.126	320.52
457.336	274.22
457.546	188
457.756	242.64
457.967	340.09
458.177	262.4
458.387	284.49
458.597	275.38
458.807	282.16
459.017	265.69
459.227	263.75
459.437	238.57
459.647	328.85
459.857	305.6
460.068	267.82
460.278	320.14
460.488	287.39
460.698	357.14
460.908	307.93
461.117	250.97
461.327	279.25
461.537	325.37
461.747	330.98
461.957	307.54
462.167	380
462.377	325.95
462.587	319.75
462.797	336.02
463.007	310.84
463.216	350.36
463.426	379.81
463.636	331.95
463.846	280.61
464.056	294.75
464.265	351.13
464.475	314.32
464.685	326.92
464.895	314.13
465.104	311.22
465.314	348.62
465.524	318.78
465.733	283.71
465.943	406.55
466.153	386.01
466.362	361.02
466.572	343.38
466.782	326.33
466.991	333.7
467.201	398.99
467.41	262.59
467.62	344.55
467.829	337.18
468.039	372.83
468.249	338.15
468.458	346.48
468.668	352.49
468.877	364.12
469.086	432.9
469.296	382.13
469.505	378.07
469.715	415.46
469.924	374
470.134	417.4
470.343	412.36
470.552	342.03
470.762	367.6
470.971	367.99
471.18	375.55
471.39	375.16
471.599	347.45
471.808	418.75
472.018	344.35
472.227	412.36
472.436	440.06
472.645	397.05
472.855	364.12
473.064	472.03
473.273	444.71
473.482	430.57
473.691	439.87
473.901	436.96
474.11	429.02
474.319	537.13
474.528	417.4
474.737	488.11
474.946	452.27
475.155	454.4
475.364	488.5
475.573	442.39
475.783	441.61
475.992	465.25
476.201	514.66
476.41	456.34
476.619	412.94
476.828	443.55
477.037	437.55
477.245	487.15
477.454	503.23
477.663	453.24
477.872	459.63
478.081	523.38
478.29	473.97
478.499	592.16
478.708	496.83
478.917	549.92
479.125	524.54
479.334	518.73
479.543	504.97
479.752	505.94
479.961	499.54
480.169	583.44
480.378	506.52
480.587	642.53
480.796	574.53
481.004	532.48
481.213	587.12
481.422	546.24
481.63	538.49
481.839	592.35
482.048	614.24
482.256	562.9
482.465	600.68
482.674	604.17
482.882	581.89
483.091	688.64
483.299	603.97
483.508	599.52
483.716	578.4
483.925	636.52
484.134	558.44
484.342	598.36
484.551	621.41
484.759	621.02
484.967	621.8
485.176	637.49
485.384	651.06
485.593	660.74
485.801	639.82
486.01	611.53
486.218	584.6
486.426	540.43
486.635	573.75
486.843	519.69
487.051	557.86
487.26	580.14
487.468	613.08
487.676	665.39
487.885	585.76
488.093	623.74
488.301	655.51
488.509	654.16
488.717	687.87
488.926	674.11
489.134	652.99
489.342	651.64
489.55	630.32
489.758	689.61
489.967	666.75
490.175	761.68
490.383	656.48
490.591	770.4
490.799	689.61
491.007	777.96
491.215	741.92
491.423	714.8
491.631	681.67
491.839	686.51
492.047	743.28
492.255	667.14
492.463	651.25
492.671	699.3
492.879	753.55
493.087	700.46
493.295	736.5
493.503	758
493.711	781.25
493.919	782.22
494.127	786.29
494.334	812.06
494.542	715.38
494.75	745.6
494.958	746.57
495.166	805.08
495.374	760.72
495.581	792.3
495.789	769.82
495.997	840.54
496.205	757.04
496.412	783.58
496.62	765.17
496.828	784.16
497.035	809.93
497.243	813.22
497.451	818.07
497.658	815.74
497.866	784.35
498.074	866.31
498.281	788.81
498.489	886.65
498.696	828.14
498.904	785.71
499.112	822.91
499.319	871.54
499.527	814.97
499.734	853.52
499.942	788.23
500.149	818.45
500.357	800.63
500.564	796.75
500.771	828.53
500.979	755.87
501.186	787.65
501.394	842.48
501.601	805.67
501.808	830.08
502.016	797.33
502.223	806.83
502.43	800.05
502.638	801.21
502.845	778.73
503.052	885.49
503.26	814
503.467	930.83
503.674	796.95
503.881	862.24
504.089	909.71
504.296	881.61
504.503	812.64
504.71	826.2
504.917	810.9
505.125	852.55
505.332	845.58
505.539	858.56
505.746	941.87
505.953	923.46
506.16	915.52
506.367	951.56
506.574	960.86
506.781	931.21
506.988	874.06
507.195	925.79
507.402	878.71
507.609	958.92
507.816	887.04
508.023	877.93
508.23	881.42
508.437	849.26
508.644	929.86
508.851	953.88
509.058	929.28
509.265	909.71
509.472	953.88
509.679	1054.44
509.885	954.85
510.092	947.88
510.299	941.48
510.506	950.2
510.713	964.54
510.92	958.73
511.126	943.81
511.333	995.73
511.54	1017.63
511.746	1020.92
511.953	1005.03
512.16	1059.86
512.367	973.84
512.573	1006.39
512.78	1015.3
512.987	963.96
513.193	1005.61
513.4	936.25
513.606	929.86
513.813	1007.94
514.02	1005.61
514.226	1055.99
514.433	1014.33
514.639	965.89
514.846	989.92
515.052	965.7
515.259	986.24
515.465	981.39
515.672	998.44
515.878	1112.75
516.085	989.73
516.291	1029.64
516.497	1007.55
516.704	1017.24
516.91	930.25
517.117	906.61
517.323	891.69
517.529	937.61
517.736	911.45
517.942	923.85
518.148	942.84
518.354	973.84
518.561	982.75
518.767	934.89
518.973	1038.74
519.179	1015.88
519.386	975.19
519.592	953.88
519.798	997.67
520.004	1085.44
520.21	1012.78
520.417	1056.18
520.623	1098.03
520.829	1110.04
521.035	1088.73
521.241	1097.06
521.447	1094.16
521.653	1209.24
521.859	1095.9
522.065	1119.15
522.271	1199.17
522.477	1154.02
522.683	1180.57
522.889	1121.86
523.095	1183.09
523.301	1139.88
523.507	1111.59
523.713	1174.37
523.919	1117.99
524.125	1223.77
524.331	1189.29
524.537	1274.34
524.742	1241.6
524.948	1267.56
525.154	1205.75
525.36	1317.16
525.566	1204.78
525.772	1288.29
525.977	1188.12
526.183	1238.88
526.389	1278.8
526.595	1186.38
526.8	1166.81
527.006	1153.64
527.212	1083.69
527.417	1093.38
527.623	1122.64
527.829	1185.41
528.034	1188.32
528.24	1214.67
528.446	1157.7
528.651	1282.09
528.857	1261.17
529.062	1324.33
529.268	1251.67
529.473	1296.62
529.679	1293.52
529.884	1336.53
530.09	1341.57
530.295	1329.56
530.501	1366.76
530.706	1342.73
530.912	1268.53
531.117	1337.11
531.323	1319.87
531.528	1342.73
531.733	1366.37
531.939	1321.23
532.144	1330.33
532.35	1332.08
532.555	1353.2
532.76	1347.19
532.966	1373.93
533.171	1308.25
533.376	1280.73
533.581	1276.08
533.787	1300.3
533.992	1353.39
534.197	1359.2
534.402	1322.97
534.607	1325.3
534.813	1423.33
535.018	1337.7
535.223	1326.07
535.428	1388.65
535.633	1414.61
535.838	1396.21
536.043	1415
536.249	1470.02
536.454	1369.28
536.659	1428.76
536.864	1371.21
537.069	1334.01
537.274	1397.18
537.479	1393.49
537.684	1390.01
537.889	1361.14
538.094	1501.41
538.299	1402.6
538.504	1387.1
538.708	1399.11
538.913	1426.24
539.118	1419.26
539.323	1397.95
539.528	1400.08
539.733	1377.99
539.938	1402.99
540.142	1438.25
540.347	1378.77
540.552	1357.07
540.757	1362.11
540.962	1362.69
541.166	1329.75
541.371	1369.08
541.576	1370.63
541.781	1310.38
541.985	1400.66
542.19	1425.46
542.395	1433.02
542.599	1438.25
542.804	1436.7
543.008	1472.54
543.213	1398.14
543.418	1342.35
543.622	1427.98
543.827	1363.27
544.031	1450.26
544.236	1457.24
544.44	1410.54
544.645	1495.21
544.849	1442.32
545.054	1458.4
545.258	1521.95
545.463	1487.07
545.667	1399.5
545.872	1471.38
546.076	1466.15
546.281	1455.88
546.485	1420.43
546.689	1468.47
546.894	1497.92
547.098	1446.19
547.302	1432.24
547.507	1436.89
547.711	1460.72
547.915	1508
548.119	1422.17
548.324	1421.01
548.528	1493.66
548.732	1447.55
548.936	1483.01
549.141	1499.28
549.345	1452.2
549.549	1443.68
549.753	1455.49
549.957	1529.7
550.161	1513.62
550.366	1469.64
550.57	1443.09
550.774	1472.74
550.978	1483.97
551.182	1482.23
551.386	1447.94
551.59	1459.56
551.794	1466.92
551.998	1501.41
552.202	1495.6
552.406	1431.28
552.61	1448.13
552.814	1487.07
553.018	1551.98
553.222	1467.7
553.426	1463.24
553.63	1559.92
553.833	1503.93
554.037	1447.94
554.241	1475.26
554.445	1514.39
554.649	1499.86
554.853	1465.37
555.056	1524.27
555.26	1532.02
555.464	1489.98
555.668	1512.07
555.871	1542.68
556.075	1543.46
556.279	1477
556.483	1439.22
556.686	1481.07
556.89	1467.51
557.094	1480.1
557.297	1409.77
557.501	1526.6
557.704	1405.7
557.908	1480.49
558.112	1431.28
558.315	1498.31
558.519	1430.89
558.722	1440.58
558.926	1454.33
559.129	1407.44
559.333	1359.98
559.536	1395.63
559.74	1372.18
559.943	1380.13
560.147	1327.81
560.35	1378.58
560.553	1395.82
560.757	1364.63
560.96	1459.37
561.164	1417.52
561.367	1492.11
561.57	1416.16
561.774	1414.42
561.977	1416.16
562.18	1374.89
562.384	1490.95
562.587	1435.73
562.79	1394.66
562.993	1385.74
563.197	1453.56
563.4	1459.95
563.603	1465.76
563.806	1505.87
564.009	1382.45
564.212	1441.16
564.416	1361.72
564.619	1431.08
564.822	1341.38
565.025	1406.86
565.228	1352.81
565.431	1394.08
565.634	1280.35
565.837	1378.38
566.04	1345.25
566.243	1313.28
566.446	1264.46
566.649	1371.21
566.852	1312.31
567.055	1315.8
567.258	1360.95
567.461	1431.28
567.664	1388.84
567.867	1315.41
568.07	1337.89
568.273	1350.87
568.475	1372.18
568.678	1344.86
568.881	1312.12
569.084	1329.75
569.287	1220.87
569.489	1251.09
569.692	1324.52
569.895	1306.7
570.098	1256.52
570.3	1225.32
570.503	1194.32
570.706	1240.82
570.909	1241.21
571.111	1175.72
571.314	1175.53
571.516	1223.97
571.719	1224.35
571.922	1217.18
572.124	1216.6
572.327	1229
572.529	1200.13
572.732	1196.26
572.935	1228.62
573.137	1311.73
573.34	1206.33
573.542	1257.29
573.745	1267.56
573.947	1244.89
574.15	1210.79
574.352	1204.2
574.554	1323.36
574.757	1193.16
574.959	1191.22
575.162	1165.84
575.364	1175.34
575.566	1281.51
575.769	1163.13
575.971	1180.18
576.173	1099.58
576.376	1161.19
576.578	1212.92
576.78	1246.63
576.982	1113.72
577.185	1162.74
577.387	1143.17
577.589	1149.76
577.791	1220.28
577.993	1213.7
578.196	1171.85
578.398	1205.75
578.6	1209.05
578.802	1122.44
579.004	1136.78
579.206	1137.55
579.408	1167.39
579.61	1126.7
579.812	1211.76
580.014	1158.67
580.216	1122.25
580.418	1164.68
580.62	1136
580.822	1071.49
581.024	1168.17
581.226	1180.18
581.428	1121.67
581.63	1224.35
581.832	1126.12
582.034	1218.35
582.236	1141.43
582.438	1195.1
582.64	1224.16
582.841	1258.07
583.043	1255.93
583.245	1213.5
583.447	1197.42
583.649	1170.1
583.85	1204.01
584.052	1231.52
584.254	1145.69
584.456	1219.7
584.657	1129.8
584.859	1168.17
585.061	1157.7
585.262	1155.19
585.464	1109.46
585.666	1186.57
585.867	1130.58
586.069	1188.9
586.27	1146.08
586.472	1127.87
586.674	1112.56
586.875	1135.04
587.077	1105.2
587.278	1138.91
587.48	1104.81
587.681	1243.34
587.883	1146.08
588.084	1085.63
588.285	1106.56
588.487	1114.89
588.688	1121.86
588.89	1042.23
589.091	1027.12
589.292	1021.89
589.494	980.04
589.695	979.84
589.896	915.52
590.098	948.07
590.299	989.92
590.5	961.44
590.702	986.82
590.903	997.09
591.104	1046.69
591.305	1045.33
591.507	1116.24
591.708	1073.42
591.909	1042.81
592.11	1144.14
592.311	1053.86
592.512	1042.62
592.714	1005.61
592.915	1039.13
593.116	1001.93
593.317	1039.71
593.518	1037.19
593.719	1045.14
593.92	1089.89
594.121	1058.7
594.322	1070.91
594.523	1067.03
594.724	1011.43
594.925	1049.98
595.126	1007.16
595.327	1044.17
595.528	1049.79
595.729	1052.11
595.929	1029.44
596.13	1037.77
596.331	1053.47
596.532	1056.76
596.733	1086.79
596.934	1085.63
597.135	1091.06
597.335	1093.19
597.536	1002.51
597.737	1076.52
597.938	1015.69
598.138	1077.49
598.339	1070.13
598.54	1068.97
598.74	1026.73
598.941	1061.02
599.142	1106.36
599.342	1087.76
599.543	1027.89
599.744	1046.11
599.944	1012.78
600.145	1074.2
600.345	1073.04
600.546	1157.12
600.746	1100.74
600.947	1130.58
601.147	1044.17
601.348	1092.41
601.548	1005.42
601.749	1058.51
601.949	1013.17
602.15	1004.64
602.35	1043.2
602.551	1054.63
602.751	992.24
602.951	1019.37
603.152	952.53
603.352	1096.87
603.552	1020.92
603.753	1071.29
603.953	1056.57
604.153	1040.29
604.354	1041.07
604.554	1012.01
604.754	1041.07
604.954	1018.98
605.155	1061.99
605.355	1036.81
605.555	1092.61
605.755	1114.3
605.955	1059.09
606.155	1067.61
606.356	1025.18
606.556	1051.34
606.756	1059.67
606.956	1016.46
607.156	1094.74
607.356	1030.22
607.556	1082.14
607.756	1045.91
607.956	1105.97
608.156	1072.07
608.356	1008.33
608.556	1087.37
608.756	1031.19
608.956	997.09
609.156	1048.24
609.356	1003.29
609.556	961.83
609.755	1036.61
609.955	988.95
610.155	1014.91
610.355	1038.36
610.555	1013.56
610.755	1017.63
610.954	942.84
611.154	1031.77
611.354	1074.01
611.554	986.24
611.753	983.53
611.953	950.39
612.153	1024.21
612.352	1010.07
612.552	942.06
612.752	916.49
612.951	982.75
613.151	994.57
613.351	944.78
613.55	992.83
613.75	1019.56
613.949	997.48
614.149	971.51
614.348	979.26
614.548	974.23
614.747	895.76
614.947	944.19
615.146	881.23
615.346	977.52
615.545	980.81
615.745	986.43
615.944	990.89
616.144	951.56
616.343	989.73
616.542	943.23
616.742	964.73
616.941	942.64
617.14	856.04
617.34	937.61
617.539	946.91
617.738	904.86
617.938	1019.95
618.137	939.54
618.336	894.4
618.535	983.14
618.734	947.49
618.934	971.13
619.133	957.76
619.332	934.51
619.531	925.01
619.73	926.56
619.929	979.07
620.128	995.73
