Data from pine_FLMT105791__144__17-22-43-074.txt Node

Date: Mon Mar 20 17:22:43 GMT 2023
User: antho
Spectrometer: FLMT10579
Trigger mode: 0
Integration Time (sec): 1.000000E-1
Scans to average: 10
Electric dark correction enabled: true
Nonlinearity correction enabled: false
Boxcar width: 0
XAxis mode: Wavelengths
Number of Pixels in Spectrum: 3648
>>>>>Begin Spectral Data<<<<<
345.248	-154.87
345.464	-154.87
345.681	-154.87
345.898	-174.44
346.114	-175.6
346.331	-30.87
346.548	29
346.764	0.71
346.981	3.81
347.197	-33.97
347.414	44.69
347.631	-14.21
347.847	61.16
348.064	-13.63
348.28	23.96
348.497	-70.98
348.713	0.32
348.93	50.7
349.146	35.97
349.363	4.78
349.579	34.81
349.796	2.84
350.012	8.85
350.229	32.29
350.445	19.7
350.661	-12.85
350.878	26.09
351.094	20.28
351.311	39.27
351.527	25.32
351.743	-10.14
351.96	44.11
352.176	37.13
352.392	4.97
352.609	51.08
352.825	13.5
353.041	10.4
353.257	16.79
353.474	22.99
353.69	22.22
353.906	4.39
354.122	-8.59
354.339	67.94
354.555	11.17
354.771	10.4
354.987	62.71
355.203	54.18
355.42	3.23
355.636	13.3
355.852	3.04
356.068	17.76
356.284	-8.01
356.5	69.68
356.716	25.12
356.932	8.07
357.148	36.94
357.364	0.13
357.58	33.07
357.796	72.2
358.012	58.45
358.228	33.26
358.444	-38.04
358.66	67.94
358.876	23.96
359.092	-3.36
359.308	11.56
359.524	43.53
359.74	0.71
359.956	12.14
360.172	6.91
360.388	54.57
360.604	5.17
360.819	99.52
361.035	-3.36
361.251	35.78
361.467	-6.07
361.683	46.43
361.898	18.54
362.114	36.75
362.33	7.69
362.546	39.27
362.762	15.05
362.977	28.61
363.193	-21.76
363.409	20.47
363.624	-11.5
363.84	-16.34
364.056	-14.01
364.271	20.09
364.487	22.41
364.703	-1.61
364.918	-16.73
365.134	-5.3
365.35	20.28
365.565	136.53
365.781	6.52
365.996	21.05
366.212	72.01
366.427	43.33
366.643	2.65
366.858	4.2
367.074	-27
367.289	56.9
367.505	115.6
367.72	-10.33
367.936	1.49
368.151	33.84
368.367	33.26
368.582	46.24
368.798	-4.91
369.013	68.13
369.228	24.54
369.444	-2.97
369.659	40.43
369.874	28.22
370.09	64.65
370.305	-63.23
370.52	-4.71
370.736	65.23
370.951	30.93
371.166	84.99
371.381	84.41
371.597	17.57
371.812	-15.56
372.027	-13.05
372.242	36.36
372.458	84.6
372.673	-7.23
372.888	29.58
373.103	27.06
373.318	96.03
373.533	56.7
373.749	40.43
373.964	-19.63
374.179	71.43
374.394	-19.83
374.609	60.38
374.824	-22.93
375.039	58.83
375.254	0.13
375.469	84.8
375.684	36.94
375.899	87.12
376.114	16.6
376.329	32.1
376.544	54.57
376.759	44.11
376.974	-5.1
377.189	4.97
377.404	15.24
377.619	84.8
377.834	-26.41
378.049	-17.89
378.264	-18.08
378.478	7.69
378.693	-2.39
378.908	43.92
379.123	27.45
379.338	61.55
379.553	21.64
379.767	38.88
379.982	60.38
380.197	34.23
380.412	11.56
380.626	33.65
380.841	113.28
381.056	41.01
381.271	90.03
381.485	14.85
381.7	-17.31
381.915	11.75
382.129	-2
382.344	36.17
382.559	9.04
382.773	56.51
382.988	-38.43
383.202	33.45
383.417	-19.25
383.632	127.23
383.846	34.23
384.061	40.43
384.275	15.44
384.49	15.44
384.704	34.23
384.919	47.21
385.133	26.67
385.348	37.72
385.562	-9.17
385.777	44.69
385.991	17.37
386.206	26.87
386.42	-2.39
386.634	75.3
386.849	41.78
387.063	36.55
387.277	8.27
387.492	-1.81
387.706	-33.39
387.92	-8.78
388.135	66.58
388.349	25.51
388.563	24.15
388.778	22.6
388.992	71.62
389.206	64.65
389.42	103.98
389.635	16.4
389.849	44.3
390.063	55.54
390.277	39.07
390.491	71.62
390.706	63.48
390.92	21.44
391.134	22.8
391.348	53.8
391.562	-30.68
391.776	5.75
391.99	-11.5
392.205	62.71
392.419	12.72
392.633	20.67
392.847	59.61
393.061	9.43
393.275	91.58
393.489	58.45
393.703	33.84
393.917	48.37
394.131	7.88
394.345	32.48
394.559	71.23
394.773	35.39
394.986	17.76
395.2	37.13
395.414	77.43
395.628	-22.93
395.842	41.98
396.056	2.07
396.27	-8.2
396.484	35
396.697	51.86
396.911	59.42
397.125	49.73
397.339	64.45
397.553	35.78
397.766	113.47
397.98	77.63
398.194	47.02
398.408	17.18
398.621	57.67
398.835	85.57
399.049	60
399.262	97
399.476	65.23
399.69	56.32
399.903	112.5
400.117	26.29
400.331	53.99
400.544	45.66
400.758	149.51
400.971	63.29
401.185	67.94
401.398	7.3
401.612	77.05
401.826	85.77
402.039	61.16
402.253	32.29
402.466	51.08
402.68	37.33
402.893	56.32
403.106	69.68
403.32	35.97
403.533	54.57
403.747	47.98
403.96	52.25
404.174	90.22
404.387	25.51
404.6	44.69
404.814	90.22
405.027	35
405.24	42.95
405.454	30.74
405.667	78.4
405.88	-23.31
406.094	47.02
406.307	75.88
406.52	67.94
406.733	17.95
406.947	24.74
407.16	134.78
407.373	55.35
407.586	44.69
407.799	-2.58
408.012	86.35
408.226	60.38
408.439	126.06
408.652	10.59
408.865	54.77
409.078	92.35
409.291	60.38
409.504	31.52
409.717	72.01
409.93	80.92
410.143	44.11
410.357	-5.68
410.57	25.7
410.783	44.3
410.996	62.71
411.209	41.78
411.421	105.92
411.634	68.72
411.847	45.66
412.06	36.75
412.273	50.7
412.486	53.8
412.699	129.16
412.912	41.78
413.125	82.67
413.338	59.61
413.55	72.01
413.763	58.64
413.976	77.43
414.189	38.49
414.402	46.05
414.615	109.4
414.827	25.51
415.04	74.33
415.253	76.66
415.466	100.68
415.678	132.85
415.891	77.43
416.104	48.57
416.316	50.31
416.529	31.52
416.742	88.28
416.954	97.58
417.167	64.84
417.38	48.37
417.592	99.33
417.805	47.21
418.017	24.74
418.23	74.92
418.442	57.48
418.655	68.33
418.868	92.16
419.08	96.03
419.293	119.67
419.505	52.63
419.718	83.05
419.93	101.46
420.142	74.53
420.355	84.22
420.567	110.95
420.78	78.21
420.992	66
421.205	140.21
421.417	25.9
421.629	67.55
421.842	50.12
422.054	28.42
422.266	96.42
422.479	119.28
422.691	57.48
422.903	114.83
423.115	38.68
423.328	56.9
423.54	76.27
423.752	92.93
423.964	45.27
424.177	53.99
424.389	80.92
424.601	133.43
424.813	91.77
425.025	116.38
425.238	95.26
425.45	70.46
425.662	69.49
425.874	337.06
426.086	70.27
426.298	66.39
426.51	69.68
426.722	106.11
426.934	54.57
427.146	77.43
427.358	67.17
427.57	125.48
427.782	96.23
427.994	73.95
428.206	68.13
428.418	45.08
428.63	100.88
428.842	126.65
429.054	90.8
429.266	130.13
429.478	51.08
429.69	91
429.902	47.6
430.114	107.47
430.325	93.52
430.537	40.82
430.749	75.5
430.961	36.94
431.173	75.69
431.384	101.07
431.596	27.84
431.808	64.84
432.02	94.48
432.231	102.43
432.443	113.86
432.655	90.61
432.867	46.63
433.078	129.55
433.29	178.96
433.502	125.68
433.713	116.76
433.925	94.1
434.136	126.84
434.348	76.27
434.56	41.98
434.771	174.7
434.983	68.52
435.194	96.03
435.406	88.28
435.617	133.04
435.829	148.93
436.04	135.75
436.252	111.53
436.463	136.53
436.675	171.01
436.886	125.48
437.098	113.08
437.309	164.04
437.521	85.38
437.732	116.96
437.943	110.18
438.155	110.95
438.366	45.85
438.578	164.04
438.789	122.96
439	132.85
439.211	109.6
439.423	122.38
439.634	139.63
439.845	113.86
440.057	119.86
440.268	153
440.479	84.02
440.69	122.77
440.902	111.53
441.113	102.04
441.324	141.18
441.535	128.39
441.746	187.48
441.957	106.3
442.168	111.15
442.38	151.64
442.591	153.58
442.802	103.59
443.013	134.4
443.224	163.65
443.435	119.48
443.646	94.87
443.857	106.11
444.068	124.32
444.279	109.6
444.49	196.2
444.701	137.11
444.912	242.89
445.123	187.29
445.334	155.71
445.545	138.08
445.756	126.26
445.967	127.42
446.178	183.22
446.388	204.53
446.599	172.56
446.81	159.58
447.021	124.32
447.232	191.94
447.443	210.34
447.653	138.27
447.864	204.73
448.075	159
448.286	181.48
448.496	170.05
448.707	192.13
448.918	145.44
449.129	242.12
449.339	145.05
449.55	161.33
449.761	157.45
449.971	202.01
450.182	148.35
450.393	192.52
450.603	147.76
450.814	226.23
451.024	198.91
451.235	169.66
451.446	242.7
451.656	212.48
451.867	168.69
452.077	180.31
452.288	222.16
452.498	231.85
452.709	181.67
452.919	214.22
453.13	155.71
453.34	197.56
453.55	138.85
453.761	220.23
453.971	221.58
454.182	237.66
454.392	208.02
454.602	256.65
454.813	208.79
455.023	211.89
455.233	156.68
455.444	191.94
455.654	117.73
455.864	169.27
456.075	151.83
456.285	172.18
456.495	174.7
456.705	203.18
456.916	223.71
457.126	223.71
457.336	220.81
457.546	117.73
457.756	172.76
457.967	228.75
458.177	187.48
458.387	206.47
458.597	170.24
458.807	179.93
459.017	192.13
459.227	179.73
459.437	196.01
459.647	262.46
459.857	220.23
460.068	163.46
460.278	216.74
460.488	224.29
460.698	282.03
460.908	184.77
461.117	170.24
461.327	177.8
461.537	214.8
461.747	201.05
461.957	211.51
462.167	306.44
462.377	237.86
462.587	234.76
462.797	240.38
463.007	200.85
463.216	256.26
463.426	245.61
463.636	257.43
463.846	164.23
464.056	170.05
464.265	258.01
464.475	188.65
464.685	212.86
464.895	226.43
465.104	204.92
465.314	284.94
465.524	185.16
465.733	177.8
465.943	289.98
466.153	282.81
466.362	242.51
466.572	248.51
466.782	217.32
466.991	225.65
467.201	263.63
467.41	197.56
467.62	235.53
467.829	225.84
468.039	252.19
468.249	243.09
468.458	228.56
468.668	248.51
468.877	247.16
469.086	273.31
469.296	271.96
469.505	207.63
469.715	294.62
469.924	251.61
470.134	294.43
470.343	278.35
470.552	247.74
470.762	240.76
470.971	210.15
471.18	265.18
471.39	252.78
471.599	199.88
471.808	290.75
472.018	226.81
472.227	282.03
472.436	304.51
472.645	240.76
472.855	221.58
473.064	285.33
473.273	268.47
473.482	282.03
473.691	295.98
473.901	295.59
474.11	245.41
474.319	358.17
474.528	275.44
474.737	321.36
474.946	307.41
475.155	265.56
475.364	330.86
475.573	274.86
475.783	288.81
475.992	324.46
476.201	316.13
476.41	257.43
476.619	241.15
476.828	295.79
477.037	281.26
477.245	296.56
477.454	322.14
477.663	282.81
477.872	303.34
478.081	381.42
478.29	278.54
478.499	396.54
478.708	320.01
478.917	373.87
479.125	288.81
479.334	343.45
479.543	283.39
479.752	317.29
479.961	311.48
480.169	345.77
480.378	276.8
480.587	425.4
480.796	348.29
481.004	343.06
481.213	350.04
481.422	354.11
481.63	325.82
481.839	358.56
482.048	368.25
482.256	348.49
482.465	328.14
482.674	382.59
482.882	369.02
483.091	427.34
483.299	349.84
483.508	365.92
483.716	352.75
483.925	381.23
484.134	344.42
484.342	329.69
484.551	416.49
484.759	381.81
484.967	395.18
485.176	429.47
485.384	382.39
485.593	414.75
485.801	414.94
486.01	396.92
486.218	368.06
486.426	323.69
486.635	341.71
486.843	359.14
487.051	348.68
487.26	362.82
487.468	413.97
487.676	372.12
487.885	377.74
488.093	401.19
488.301	371.54
488.509	379.1
488.717	434.32
488.926	434.32
489.134	390.34
489.342	402.54
489.55	370.19
489.758	417.65
489.967	367.28
490.175	504.45
490.383	386.27
490.591	472.68
490.799	399.83
491.007	457.57
491.215	453.3
491.423	422.11
491.631	416.88
491.839	423.85
492.047	435.48
492.255	385.49
492.463	375.03
492.671	427.15
492.879	477.72
493.087	389.37
493.295	450.59
493.503	439.16
493.711	435.67
493.919	439.55
494.127	452.53
494.334	478.88
494.542	438.39
494.75	423.85
494.958	452.72
495.166	486.82
495.374	451.17
495.581	451.95
495.789	457.37
495.997	516.08
496.205	470.93
496.412	438
496.62	454.47
496.828	479.07
497.035	454.66
497.243	506.78
497.451	486.43
497.658	487.6
497.866	481.2
498.074	532.35
498.281	468.42
498.489	553.66
498.696	487.02
498.904	465.32
499.112	466.67
499.319	549.21
499.527	465.32
499.734	532.16
499.942	453.69
500.149	478.68
500.357	484.5
500.564	458.73
500.771	517.05
500.979	465.12
501.186	454.66
501.394	476.75
501.601	499.61
501.808	520.53
502.016	495.35
502.223	481.78
502.43	491.08
502.638	485.08
502.845	474.62
503.052	562.38
503.26	465.9
503.467	571.68
503.674	500.58
503.881	519.18
504.089	590.67
504.296	562.38
504.503	484.3
504.71	512.59
504.917	463.96
505.125	512.78
505.332	524.41
505.539	549.6
505.746	581.18
505.953	538.75
506.16	533.71
506.367	568.2
506.574	580.6
506.781	568.97
506.988	517.43
507.195	559.48
507.402	514.53
507.609	576.72
507.816	548.24
508.023	525.77
508.23	545.92
508.437	512.98
508.644	572.46
508.851	585.05
509.058	609.66
509.265	572.26
509.472	578.66
509.679	657.9
509.885	572.26
510.092	561.61
510.299	595.13
510.506	592.22
510.713	572.46
510.92	596.68
511.126	601.91
511.333	633.68
511.54	589.12
511.746	652.09
511.953	657.51
512.16	622.06
512.367	600.75
512.573	617.41
512.78	607.53
512.987	584.08
513.193	599
513.4	533.32
513.606	588.93
513.813	651.31
514.02	590.86
514.226	699.36
514.433	641.82
514.639	598.03
514.846	652.28
515.052	592.03
515.259	612.37
515.465	627.1
515.672	648.02
515.878	711.57
516.085	602.88
516.291	661.78
516.497	591.25
516.704	611.6
516.91	593.96
517.117	554.05
517.323	535.84
517.529	611.21
517.736	595.9
517.942	596.29
518.148	592.8
518.354	628.26
518.561	626.51
518.767	630.97
518.973	664.1
519.179	646.66
519.386	621.86
519.592	592.03
519.798	605.01
520.004	687.16
520.21	660.23
520.417	697.62
520.623	707.89
520.829	722.23
521.035	678.05
521.241	691.61
521.447	728.62
521.653	788.29
521.859	704.4
522.065	729.2
522.271	767.76
522.477	751.48
522.683	787.71
522.889	730.36
523.095	740.63
523.301	709.44
523.507	727.65
523.713	775.12
523.919	725.33
524.125	781.32
524.331	777.64
524.537	835.37
524.742	796.43
524.948	801.08
525.154	789.65
525.36	868.89
525.566	785.39
525.772	859.2
525.977	747.41
526.183	831.89
526.389	795.27
526.595	767.56
526.8	760.78
527.006	744.7
527.212	718.54
527.417	700.53
527.623	717.77
527.829	763.11
528.034	740.63
528.24	776.28
528.446	760.39
528.651	832.27
528.857	812.9
529.062	904.93
529.268	815.8
529.473	811.74
529.679	829.37
529.884	910.35
530.09	848.94
530.295	888.46
530.501	870.64
530.706	826.65
530.912	801.86
531.117	861.14
531.323	827.24
531.528	857.07
531.733	887.69
531.939	855.52
532.144	845.45
532.35	866.57
532.555	918.3
532.76	899.89
532.966	902.99
533.171	890.79
533.376	858.62
533.581	815.42
533.787	875.67
533.992	898.73
534.197	925.08
534.402	880.13
534.607	882.84
534.813	955.11
535.018	898.15
535.223	865.21
535.428	885.36
535.633	925.66
535.838	878.77
536.043	893.11
536.249	992.31
536.454	913.45
536.659	933.22
536.864	871.02
537.069	924.69
537.274	938.83
537.479	949.49
537.684	922.75
537.889	880.32
538.094	990.18
538.299	923.53
538.504	908.22
538.708	956.08
538.913	964.8
539.118	925.85
539.323	926.43
539.528	909.77
539.733	949.68
539.938	985.92
540.142	963.44
540.347	932.05
540.552	882.07
540.757	911.13
540.962	926.82
541.166	892.34
541.371	876.64
541.576	936.7
541.781	834.21
541.985	951.23
542.19	916.17
542.395	969.25
542.599	1008.39
542.804	989.79
543.008	973.9
543.213	947.94
543.418	903.18
543.622	975.65
543.827	916.36
544.031	992.5
544.236	996.18
544.44	970.22
544.645	1037.26
544.849	962.47
545.054	1001.8
545.258	1069.61
545.463	1026.8
545.667	976.42
545.872	992.89
546.076	993.08
546.281	999.09
546.485	967.51
546.689	985.92
546.894	950.85
547.098	1015.17
547.302	944.07
547.507	978.94
547.711	1006.45
547.915	1043.07
548.119	993.86
548.324	986.11
548.528	1045.4
548.732	1009.55
548.936	1035.13
549.141	1014.4
549.345	959.18
549.549	1028.35
549.753	1010.52
549.957	1059.93
550.161	1068.65
550.366	1009.16
550.57	989.4
550.774	991.53
550.978	958.21
551.182	1037.65
551.386	989.21
551.59	988.63
551.794	977.39
551.998	1005.1
552.202	979.52
552.406	986.5
552.61	967.51
552.814	998.12
553.018	1063.41
553.222	985.33
553.426	965.57
553.63	1049.85
553.833	990.56
554.037	937.28
554.241	1009.55
554.445	1019.63
554.649	990.56
554.853	993.86
555.056	1033.58
555.26	1035.51
555.464	1001.61
555.668	1046.95
555.871	1063.8
556.075	1057.41
556.279	985.72
556.483	960.73
556.686	997.35
556.89	1013.23
557.094	1005.68
557.297	926.24
557.501	1015.17
557.704	924.69
557.908	1021.18
558.112	927.4
558.315	1054.7
558.519	967.7
558.722	1001.41
558.926	982.04
559.129	938.06
559.333	905.9
559.536	939.03
559.74	905.32
559.943	900.67
560.147	910.16
560.35	981.65
560.553	948.72
560.757	891.75
560.96	994.83
561.164	914.62
561.367	1044.04
561.57	948.72
561.774	992.31
561.977	941.74
562.18	917.72
562.384	1028.54
562.587	944.26
562.79	927.98
562.993	969.64
563.197	973.9
563.4	1016.33
563.603	992.31
563.806	1053.53
564.009	930.5
564.212	967.12
564.416	881.87
564.619	967.51
564.822	922.37
565.025	956.85
565.228	906.67
565.431	956.47
565.634	850.68
565.837	901.83
566.04	898.34
566.243	887.69
566.446	806.12
566.649	928.18
566.852	878.77
567.055	900.86
567.258	933.41
567.461	940.58
567.664	953.56
567.867	864.63
568.07	907.83
568.273	897.76
568.475	946.58
568.678	863.85
568.881	904.15
569.084	889.24
569.287	821.81
569.489	831.11
569.692	892.92
569.895	942.13
570.098	836.73
570.3	840.8
570.503	771.63
570.706	826.46
570.909	813.09
571.111	761.56
571.314	808.44
571.516	803.6
571.719	833.05
571.922	807.47
572.124	809.61
572.327	860.56
572.529	776.86
572.732	742.18
572.935	824.14
573.137	876.45
573.34	808.64
573.542	842.15
573.745	825.3
573.947	842.35
574.15	813.29
574.352	753.61
574.554	875.67
574.757	748.19
574.959	778.99
575.162	779.19
575.364	797.79
575.566	862.3
575.769	762.14
575.971	814.06
576.173	711.38
576.376	782.29
576.578	812.12
576.78	829.37
576.982	686.38
577.185	760.01
577.387	729.01
577.589	701.49
577.791	799.72
577.993	789.65
578.196	765.04
578.398	787.91
578.6	815.22
578.802	696.84
579.004	732.88
579.206	740.24
579.408	799.72
579.61	743.73
579.812	791.01
580.014	739.08
580.216	759.62
580.418	761.56
580.62	737.72
580.822	682.51
581.024	716.22
581.226	774.54
581.428	743.15
581.63	853.97
581.832	729.01
582.034	802.24
582.236	783.84
582.438	755.94
582.64	811.54
582.841	810.96
583.043	853.39
583.245	800.69
583.447	777.06
583.649	781.9
583.85	771.82
584.052	815.8
584.254	743.34
584.456	838.47
584.657	713.51
584.859	762.33
585.061	767.17
585.262	749.54
585.464	737.14
585.666	801.47
585.867	727.65
586.069	815.61
586.27	766.79
586.472	781.12
586.674	729.39
586.875	711.38
587.077	748.38
587.278	767.37
587.48	754.77
587.681	848.35
587.883	755.16
588.084	685.8
588.285	739.27
588.487	711.57
588.688	724.16
588.89	705.37
589.091	685.61
589.292	691.42
589.494	712.73
589.695	673.59
589.896	632.13
590.098	593.58
590.299	700.53
590.5	643.18
590.702	649.38
590.903	677.08
591.104	722.23
591.305	718.93
591.507	750.9
591.708	696.84
591.909	665.84
592.11	756.52
592.311	722.23
592.512	699.17
592.714	654.03
592.915	664.49
593.116	634.85
593.317	676.89
593.518	673.98
593.719	663.71
593.92	692.19
594.121	751.09
594.322	702.27
594.523	673.4
594.724	678.83
594.925	669.14
595.126	703.04
595.327	714.09
595.528	691.42
595.729	706.34
595.929	709.83
596.13	698.59
596.331	710.41
596.532	709.05
596.733	739.66
596.934	740.24
597.135	719.51
597.335	720.48
597.536	664.29
597.737	675.14
597.938	658.29
598.138	710.21
598.339	690.45
598.54	710.79
598.74	684.64
598.941	691.23
599.142	767.95
599.342	697.04
599.543	693.94
599.744	673.59
599.944	680.76
600.145	678.05
600.345	691.03
600.546	760.2
600.746	738.11
600.947	759.23
601.147	672.04
601.348	745.28
601.548	660.81
601.749	681.93
601.949	649.18
602.15	675.34
602.35	711.76
602.551	754
602.751	676.89
602.951	668.36
603.152	624.38
603.352	699.56
603.552	678.83
603.753	700.72
603.953	723.19
604.153	706.73
604.354	699.94
604.554	680.96
604.754	713.12
604.954	643.37
605.155	711.57
605.355	667.78
605.555	703.63
605.755	730.75
605.955	678.63
606.155	714.48
606.356	684.44
606.556	729.2
606.756	708.47
606.956	637.36
607.156	735.21
607.356	677.08
607.556	699.36
607.756	686.19
607.956	728.23
608.156	675.53
608.356	672.82
608.556	698.01
608.756	665.84
608.956	640.27
609.156	693.16
609.356	653.06
609.556	664.68
609.755	681.34
609.955	648.21
610.155	702.08
610.355	674.37
610.555	636.01
610.755	650.54
610.954	618.38
611.154	683.09
611.354	709.05
611.554	644.34
611.753	690.26
611.953	600.75
612.153	673.4
612.352	690.64
612.552	610.63
612.752	581.18
612.951	636.4
613.151	665.07
613.351	624
613.55	635.43
613.75	655.38
613.949	638.72
614.149	646.28
614.348	661.78
614.548	617.21
614.747	578.27
614.947	601.33
615.146	565.87
615.346	675.73
615.545	647.05
615.745	638.33
615.944	658.48
616.144	608.3
616.343	633.88
616.542	570.13
616.742	621.67
616.941	616.05
617.14	584.47
617.34	636.78
617.539	594.35
617.738	601.33
617.938	652.48
618.137	598.42
618.336	576.33
618.535	631.36
618.734	582.34
618.934	613.34
619.133	607.14
619.332	613.92
619.531	591.64
619.73	580.4
619.929	665.46
620.128	623.22
620.328	665.65
620.527	577.88
620.726	575.36
620.925	607.33
621.124	628.45
621.323	635.23
621.522	557.73
621.721	548.43
621.92	586.02
622.119	640.46
622.318	537.39
622.517	590.09
622.715	588.93
622.914	525.38
623.113	569.55
623.312	534.29
623.511	614.11
623.71	579.63
623.909	574.01
624.107	646.47
624.306	525.18
624.505	571.1
624.704	534.48
624.902	540.68
625.101	626.9
625.3	574.2
625.499	510.65
625.697	551.73
625.896	512.4
626.095	604.43
