Data from pine_FLMT105791__82__17-21-22-077.txt Node

Date: Mon Mar 20 17:21:22 GMT 2023
User: antho
Spectrometer: FLMT10579
Trigger mode: 0
Integration Time (sec): 1.000000E-1
Scans to average: 10
Electric dark correction enabled: true
Nonlinearity correction enabled: false
Boxcar width: 0
XAxis mode: Wavelengths
Number of Pixels in Spectrum: 3648
>>>>>Begin Spectral Data<<<<<
345.248	-147.67
345.464	-147.67
345.681	-147.67
345.898	-185.06
346.114	-145.92
346.331	-55.25
346.548	44.34
346.764	1.32
346.981	-6.23
347.197	-14.37
347.414	15.27
347.631	-19.41
347.847	59.84
348.064	11.21
348.28	29.22
348.497	-35.1
348.713	-30.84
348.93	32.32
349.146	22.83
349.363	-6.81
349.579	23.22
349.796	-17.47
350.012	22.05
350.229	8.11
350.445	-3.71
350.661	-28.51
350.878	17.4
351.094	12.17
351.311	15.47
351.527	17.79
351.743	12.56
351.96	54.8
352.176	44.53
352.392	27.87
352.609	30
352.825	10.62
353.041	-1.78
353.257	5.01
353.474	-1.78
353.69	38.72
353.906	5.59
354.122	-24.44
354.339	51.7
354.555	11.98
354.771	-26.19
354.987	46.47
355.203	66.81
355.42	-39.36
355.636	11.98
355.852	2.68
356.068	-7.59
356.284	-25.99
356.5	49.18
356.716	24.19
356.932	-3.91
357.148	37.36
357.364	-7.01
357.58	46.66
357.796	62.94
358.012	67.2
358.228	36.78
358.444	-63.39
358.66	51.31
358.876	26.51
359.092	-6.43
359.308	0.55
359.524	5.97
359.74	5.59
359.956	-8.36
360.172	-13.59
360.388	40.65
360.604	2.87
360.819	72.04
361.035	6.17
361.251	40.27
361.467	-13.98
361.683	34.45
361.898	28.06
362.114	48.6
362.33	7.91
362.546	30.97
362.762	-4.1
362.977	14.11
363.193	-15.14
363.409	46.08
363.624	-36.26
363.84	-18.63
364.056	-13.98
364.271	34.07
364.487	21.67
364.703	4.62
364.918	-11.85
365.134	-19.99
365.35	26.32
365.565	103.04
365.781	12.76
365.996	23.8
366.212	52.28
366.427	23.6
366.643	-15.34
366.858	-4.1
367.074	-3.71
367.289	55.57
367.505	89.87
367.72	-16.69
367.936	-36.46
368.151	22.25
368.367	12.76
368.582	15.08
368.798	-20.18
369.013	46.27
369.228	20.5
369.444	6.56
369.659	64.49
369.874	0.94
370.09	75.92
370.305	-27.74
370.52	-5.65
370.736	39.69
370.951	5.01
371.166	53.83
371.381	71.27
371.597	50.54
371.812	-5.26
372.027	-15.92
372.242	24.19
372.458	90.06
372.673	-15.34
372.888	2.1
373.103	25.54
373.318	78.63
373.533	44.34
373.749	31.16
373.964	-35.68
374.179	54.6
374.394	-14.37
374.609	74.17
374.824	-6.23
375.039	62.35
375.254	3.84
375.469	41.24
375.684	25.35
375.899	60.61
376.114	21.09
376.329	28.45
376.544	35.81
376.759	45.3
376.974	-27.16
377.189	13.14
377.404	-4.49
377.619	62.35
377.834	-45.56
378.049	-28.51
378.264	-21.73
378.478	28.06
378.693	-3.13
378.908	25.35
379.123	-9.14
379.338	58.67
379.553	30.58
379.767	41.82
379.982	25.74
380.197	46.27
380.412	-6.81
380.626	51.31
380.841	104.98
381.056	23.22
381.271	84.44
381.485	-5.65
381.7	-44.4
381.915	23.02
382.129	-19.21
382.344	24.77
382.559	20.7
382.773	40.65
382.988	-11.27
383.202	16.24
383.417	-4.1
383.632	116.41
383.846	2.29
384.061	27.29
384.275	24.96
384.49	23.8
384.704	42.2
384.919	28.45
385.133	5.97
385.348	34.84
385.562	-31.61
385.777	40.07
385.991	32.71
386.206	11.4
386.42	5.59
386.634	61.77
386.849	32.52
387.063	28.06
387.277	-25.22
387.492	16.82
387.706	-29.87
387.92	7.14
388.135	17.99
388.349	30.39
388.563	24.38
388.778	28.25
388.992	51.5
389.206	26.12
389.42	98.2
389.635	16.63
389.849	49.95
390.063	51.89
390.277	30.58
390.491	71.65
390.706	53.25
390.92	39.1
391.134	13.53
391.348	27.48
391.562	-14.56
391.776	10.82
391.99	-0.61
392.205	67.97
392.419	-15.73
392.633	16.05
392.847	92.19
393.061	-18.05
393.275	103.62
393.489	0.16
393.703	52.47
393.917	74.17
394.131	6.36
394.345	63.9
394.559	47.44
394.773	9.46
394.986	26.32
395.2	-5.07
395.414	64.49
395.628	-17.86
395.842	31.74
396.056	5.97
396.27	-25.8
396.484	10.82
396.697	24.57
396.911	81.34
397.125	30
397.339	67
397.553	43.95
397.766	88.7
397.98	48.4
398.194	73.01
398.408	17.79
398.621	38.72
398.835	61.19
399.049	51.7
399.262	74.37
399.476	55.77
399.69	64.29
399.903	102.07
400.117	15.08
400.331	27.09
400.544	1.91
400.758	126.29
400.971	44.72
401.185	73.59
401.398	10.82
401.612	62.16
401.826	84.64
402.039	63.32
402.253	16.05
402.466	59.84
402.68	30.97
402.893	70.1
403.106	23.99
403.32	37.55
403.533	47.44
403.747	51.7
403.96	43.37
404.174	57.32
404.387	20.7
404.6	45.11
404.814	39.88
405.027	26.32
405.24	48.21
405.454	67.39
405.667	81.92
405.88	-22.51
406.094	41.43
406.307	58.87
406.52	48.99
406.733	-0.23
406.947	-18.63
407.16	88.7
407.373	89.67
407.586	21.47
407.799	3.26
408.012	58.87
408.226	38.91
408.439	70.69
408.652	-31.81
408.865	38.52
409.078	89.87
409.291	51.7
409.504	-8.94
409.717	64.49
409.93	44.53
410.143	79.4
410.357	0.55
410.57	24.57
410.783	29.8
410.996	61.39
411.209	31.94
411.421	74.95
411.634	34.84
411.847	12.17
412.06	50.34
412.273	41.24
412.486	36.2
412.699	136.17
412.912	28.64
413.125	46.47
413.338	44.53
413.55	82.12
413.763	70.3
413.976	62.55
414.189	24.19
414.402	21.09
414.615	69.91
414.827	3.84
415.04	67.78
415.253	45.5
415.466	65.84
415.678	111.18
415.891	40.65
416.104	40.07
416.316	49.76
416.529	12.76
416.742	86.96
416.954	66.81
417.167	29.03
417.38	36.97
417.592	76.11
417.805	26.12
418.017	19.54
418.23	74.75
418.442	27.29
418.655	52.47
418.868	77.27
419.08	76.3
419.293	81.73
419.505	75.72
419.718	50.54
419.93	99.55
420.142	36.39
420.355	80.57
420.567	83.86
420.78	47.05
420.992	40.85
421.205	110.79
421.417	33.29
421.629	35.23
421.842	32.13
422.054	3.46
422.266	48.4
422.479	92.77
422.691	33.29
422.903	82.7
423.115	60.42
423.328	60.8
423.54	66.04
423.752	60.22
423.964	40.07
424.177	40.65
424.389	50.54
424.601	155.35
424.813	68.36
425.025	80.76
425.238	105.17
425.45	53.64
425.662	69.52
425.874	331.47
426.086	66.42
426.298	101.69
426.51	77.47
426.722	82.12
426.934	71.27
427.146	86.96
427.358	13.53
427.57	85.8
427.782	76.5
427.994	63.9
428.206	56.54
428.418	3.26
428.63	86.57
428.842	90.84
429.054	96.07
429.266	94.32
429.478	53.64
429.69	84.05
429.902	33.49
430.114	99.55
430.325	86.38
430.537	36.78
430.749	63.52
430.961	33.68
431.173	69.14
431.384	96.65
431.596	-13.4
431.808	73.4
432.02	73.59
432.231	100.91
432.443	92.97
432.655	77.85
432.867	58.29
433.078	92.19
433.29	154
433.502	124.16
433.713	113.31
433.925	101.1
434.136	112.73
434.348	61.97
434.56	14.69
434.771	194.3
434.983	54.6
435.194	42.4
435.406	85.6
435.617	118.15
435.829	165.23
436.04	107.5
436.252	106.72
436.463	133.27
436.675	133.85
436.886	96.84
437.098	116.41
437.309	157.29
437.521	89.48
437.732	144.12
437.943	96.65
438.155	84.05
438.366	69.14
438.578	158.65
438.789	127.65
439	146.25
439.211	91.03
439.423	130.75
439.634	139.47
439.845	138.88
440.057	126.87
440.268	131.33
440.479	115.44
440.69	108.27
440.902	128.03
441.113	107.88
441.324	134.43
441.535	132.68
441.746	176.47
441.957	109.82
442.168	82.89
442.38	131.13
442.591	177.25
442.802	107.69
443.013	114.08
443.224	144.89
443.435	87.74
443.646	110.4
443.857	128.03
444.068	108.85
444.279	124.16
444.49	187.71
444.701	131.72
444.912	222.39
445.123	169.5
445.334	147.6
445.545	167.56
445.756	151.28
445.967	137.72
446.178	145.28
446.388	166.59
446.599	191.58
446.81	182.28
447.021	146.05
447.232	184.42
447.443	220.84
447.653	129
447.864	177.25
448.075	166.4
448.286	210.18
448.496	158.65
448.707	187.32
448.918	149.73
449.129	270.44
449.339	154.97
449.55	183.45
449.761	153.8
449.971	226.26
450.182	163.68
450.393	204.56
450.603	178.02
450.814	199.33
451.024	187.71
451.235	209.6
451.446	228.78
451.656	235.18
451.867	149.35
452.077	197.01
452.288	254.16
452.498	246.22
452.709	167.95
452.919	203.21
453.13	178.22
453.34	218.13
453.55	146.83
453.761	210.57
453.971	212.12
454.182	217.35
454.392	191.78
454.602	242.54
454.813	199.53
455.023	257.26
455.233	160.2
455.444	210.38
455.654	143.15
455.864	216
456.075	193.71
456.285	181.51
456.495	185.77
456.705	197.59
456.916	238.28
457.126	253
457.336	192.55
457.546	144.31
457.756	212.9
457.967	258.23
458.177	197.4
458.387	222.97
458.597	179.96
458.807	224.33
459.017	217.55
459.227	207.08
459.437	224.33
459.647	249.9
459.857	249.32
460.068	203.4
460.278	248.16
460.488	235.95
460.698	305.31
460.908	241.76
461.117	185.97
461.327	185.58
461.537	242.73
461.747	223.75
461.957	236.34
462.167	303.57
462.377	255.91
462.587	226.85
462.797	250.29
463.007	237.89
463.216	271.6
463.426	282.26
463.636	256.49
463.846	220.84
464.056	241.76
464.265	277.99
464.475	211.54
464.685	261.91
464.895	254.36
465.104	225.3
465.314	270.44
465.524	223.36
465.733	219.68
465.943	325.85
466.153	283.03
466.362	300.47
466.572	248.74
466.782	254.16
466.991	240.6
467.201	305.12
467.41	208.25
467.62	280.32
467.829	255.52
468.039	269.47
468.249	256.88
468.458	261.91
468.668	255.13
468.877	292.72
469.086	307.25
469.296	310.35
469.505	246.41
469.715	334.18
469.924	296.01
470.134	321.98
470.343	317.13
470.552	281.29
470.762	289.81
470.971	259.78
471.18	284.78
471.39	289.62
471.599	226.46
471.808	327.59
472.018	272.57
472.227	314.81
472.436	330.5
472.645	296.01
472.855	262.11
473.064	352.01
473.273	320.04
473.482	336.89
473.691	340.58
473.901	329.53
474.11	295.04
474.319	397.34
474.528	315.78
474.737	388.24
474.946	335.54
475.155	322.75
475.364	338.25
475.573	335.15
475.783	345.61
475.992	357.43
476.201	382.42
476.41	338.44
476.619	306.48
476.828	317.71
477.037	324.88
477.245	349.68
477.454	382.04
477.663	329.53
477.872	321.59
478.081	414.59
478.29	330.31
478.499	454.3
478.708	361.5
478.917	437.26
479.125	379.52
479.334	359.37
479.543	337.28
479.752	381.26
479.961	362.28
480.169	429.31
480.378	370.02
480.587	515.92
480.796	427.37
481.004	396.57
481.213	451.98
481.422	437.45
481.63	389.79
481.839	427.18
482.048	483.17
482.256	428.15
482.465	413.62
482.674	437.45
482.882	471.16
483.091	498.09
483.299	456.82
483.508	476.97
483.716	437.45
483.925	447.72
484.134	418.46
484.342	419.43
484.551	480.27
484.759	475.62
484.967	482.01
485.176	469.03
485.384	481.24
485.593	496.54
485.801	477.75
486.01	464.19
486.218	440.36
486.426	359.95
486.635	397.92
486.843	416.52
487.051	410.71
487.26	443.26
487.468	448.69
487.676	462.64
487.885	414.97
488.093	442.1
488.301	485.3
488.509	464.38
488.717	525.02
488.926	502.35
489.134	469.22
489.342	492.28
489.55	462.44
489.758	525.41
489.967	464.77
490.175	582.95
490.383	495.38
490.591	572.68
490.799	460.7
491.007	567.26
491.215	498.67
491.423	512.43
491.631	502.94
491.839	538.59
492.047	558.35
492.255	490.15
492.463	461.47
492.671	516.5
492.879	582.57
493.087	532.97
493.295	532
493.503	560.67
493.711	558.93
493.919	581.02
494.127	565.32
494.334	599.81
494.542	491.7
494.75	545.95
494.958	552.34
495.166	624.8
495.374	587.99
495.581	582.18
495.789	593.22
495.997	636.43
496.205	550.98
496.412	567.26
496.62	606.98
496.828	612.98
497.035	569.2
497.243	603.68
497.451	574.82
497.658	600
497.866	574.23
498.074	646.89
498.281	568.03
498.489	676.73
498.696	610.66
498.904	575.59
499.112	587.99
499.319	673.43
499.527	594.97
499.734	659.29
499.942	585.67
500.149	597.48
500.357	624.03
500.564	575.4
500.771	596.52
500.979	607.56
501.186	574.23
501.394	628.1
501.601	625.38
501.808	626.35
502.016	634.1
502.223	606.2
502.43	578.5
502.638	602.52
502.845	589.54
503.052	672.08
503.26	591.09
503.467	698.81
503.674	642.43
503.881	652.9
504.089	704.05
504.296	698.23
504.503	609.69
504.71	650.38
504.917	600.58
505.125	663.16
505.332	660.45
505.539	670.91
505.746	709.86
505.953	686.8
506.16	683.12
506.367	748.41
506.574	744.93
506.781	732.91
506.988	648.44
507.195	717.8
507.402	697.46
507.609	716.64
507.816	670.91
508.023	666.46
508.23	695.71
508.437	652.31
508.644	717.03
508.851	747.06
509.058	732.14
509.265	715.86
509.472	758.68
509.679	805.96
509.885	723.03
510.092	721.29
510.299	718.19
510.506	742.41
510.713	763.91
510.92	734.85
511.126	747.44
511.333	799.56
511.54	755.19
511.746	802.08
511.953	801.5
512.16	808.67
512.367	748.22
512.573	743.18
512.78	766.43
512.987	741.63
513.193	753.45
513.4	652.7
513.606	752.09
513.813	793.56
514.02	731.56
514.226	824.36
514.433	811.96
514.639	756.16
514.846	759.65
515.052	749.77
515.259	770.31
515.465	782.32
515.672	774.96
515.878	860.98
516.085	786
516.291	839.28
516.497	783.48
516.704	785.42
516.91	747.83
517.117	742.21
517.323	681.96
517.529	748.61
517.736	712.76
517.942	755.78
518.148	762.94
518.354	771.28
518.561	774.38
518.767	790.26
518.973	813.9
519.179	774.38
519.386	778.83
519.592	775.15
519.798	770.89
520.004	855.75
520.21	825.33
520.417	890.82
520.623	909.61
520.829	871.83
521.035	880.36
521.241	860.01
521.447	883.46
521.653	1021.98
521.859	891.59
522.065	912.52
522.271	979.94
522.477	928.21
522.683	984.2
522.889	947.78
523.095	954.75
523.301	961.54
523.507	894.69
523.713	921.04
523.919	904.96
524.125	989.24
524.331	917.55
524.537	1022.76
524.742	999.12
524.948	998.35
525.154	1024.12
525.36	1099.68
525.566	993.5
525.772	1044.65
525.977	999.32
526.183	1065.38
526.389	1017.72
526.595	981.88
526.8	976.65
527.006	929.76
527.212	919.1
527.417	892.37
527.623	884.81
527.829	1021.21
528.034	961.34
528.24	1005.9
528.446	960.57
528.651	1022.95
528.857	1018.3
529.062	1095.8
529.268	1041.36
529.473	1074.3
529.679	1074.68
529.884	1136.3
530.09	1098.32
530.295	1114.01
530.501	1102
530.706	1129.71
530.912	1044.07
531.117	1042.72
531.323	1111.3
531.528	1103.16
531.733	1133.39
531.939	1062.67
532.144	1133
532.35	1120.8
532.555	1155.09
532.76	1116.92
532.966	1161.48
533.171	1129.13
533.376	1087.66
533.581	1065.19
533.787	1075.07
533.992	1142.11
534.197	1165.36
534.402	1102
534.607	1122.15
534.813	1235.49
535.018	1119.63
535.223	1118.28
535.428	1139.78
535.633	1204.3
535.838	1179.69
536.043	1163.81
536.249	1219.8
536.454	1156.83
536.659	1212.83
536.864	1159.16
537.069	1159.93
537.274	1156.44
537.479	1169.81
537.684	1184.15
537.889	1158.38
538.094	1255.26
538.299	1185.51
538.504	1214.57
538.708	1192.48
538.913	1225.42
539.118	1175.43
539.323	1227.94
539.528	1161.09
539.733	1167.49
539.938	1202.75
540.142	1212.24
540.347	1170.78
540.552	1152.76
540.757	1203.91
540.962	1150.44
541.166	1116.53
541.371	1149.08
541.576	1170.2
541.781	1098.71
541.985	1183.96
542.19	1209.92
542.395	1262.04
542.599	1269.98
542.804	1225.81
543.008	1237.24
543.213	1180.66
543.418	1177.95
543.622	1206.24
543.827	1152.18
544.031	1269.79
544.236	1246.73
544.44	1228.33
544.645	1318.61
544.849	1228.52
545.054	1238.4
545.258	1316.48
545.463	1299.04
545.667	1224.64
545.872	1266.11
546.076	1263.59
546.281	1254.29
546.485	1187.25
546.689	1270.76
546.894	1318.42
547.098	1232.2
547.302	1199.26
547.507	1262.81
547.711	1257.19
547.915	1282.77
548.119	1194.61
548.324	1226.19
548.528	1317.45
548.732	1257.58
548.936	1290.91
549.141	1309.31
549.345	1252.35
549.549	1272.89
549.753	1260.29
549.957	1339.92
550.161	1359.49
550.366	1287.61
550.57	1284.71
550.774	1289.74
550.978	1294.78
551.182	1263.78
551.386	1286.26
551.59	1274.44
551.794	1259.13
551.998	1280.83
552.202	1265.33
552.406	1263.39
552.61	1257.77
552.814	1290.71
553.018	1364.92
553.222	1292.84
553.426	1299.24
553.63	1345.74
553.833	1287.81
554.037	1244.02
554.241	1306.02
554.445	1306.99
554.649	1276.18
554.853	1256.03
555.056	1328.88
555.26	1319
555.464	1304.86
555.668	1320.16
555.871	1362.01
556.075	1296.33
556.279	1282.19
556.483	1221.35
556.686	1303.69
556.89	1301.17
557.094	1264.94
557.297	1245.57
557.501	1348.84
557.704	1219.99
557.908	1320.55
558.112	1261.46
558.315	1358.14
558.519	1261.84
558.722	1260.29
558.926	1244.41
559.129	1190.35
559.333	1200.43
559.536	1229.68
559.74	1206.43
559.943	1187.64
560.147	1194.42
560.35	1215.15
560.553	1223.68
560.757	1162.45
560.96	1239.17
561.164	1188.41
561.367	1300.79
561.57	1209.53
561.774	1232.98
561.977	1193.84
562.18	1207.4
562.384	1330.82
562.587	1213.79
562.79	1173.11
562.993	1197.91
563.197	1244.99
563.4	1295.56
563.603	1269.21
563.806	1325.01
564.009	1218.64
564.212	1224.64
564.416	1167.88
564.619	1232.98
564.822	1180.47
565.025	1229.1
565.228	1190.93
565.431	1183.38
565.634	1138.04
565.837	1192.29
566.04	1166.91
566.243	1177.56
566.446	1093.48
566.649	1203.33
566.852	1128.93
567.055	1175.43
567.258	1218.44
567.461	1218.25
567.664	1219.99
567.867	1121.38
568.07	1202.36
568.273	1185.51
568.475	1240.53
568.678	1150.44
568.881	1144.05
569.084	1148.89
569.287	1074.88
569.489	1132.23
569.692	1170.78
569.895	1168.07
570.098	1068.68
570.3	1072.75
570.503	1053.37
570.706	1058.22
570.909	1102.39
571.111	1050.85
571.314	1046.78
571.516	1057.63
571.719	1100.06
571.922	1053.76
572.124	1038.84
572.327	1077.4
572.529	999.7
572.732	1056.67
572.935	1101.42
573.137	1119.05
573.34	1052.79
573.542	1083.6
573.745	1101.61
573.947	1092.9
574.15	1014.23
574.352	1043.68
574.554	1117.89
574.757	1007.45
574.959	1035.35
575.162	1013.65
575.364	1034.38
575.566	1131.26
575.769	996.8
575.971	1046.4
576.173	947.39
576.376	1027.6
576.578	1051.43
576.78	1113.05
576.982	950.69
577.185	1027.22
577.387	966.77
577.589	1006.29
577.791	1038.07
577.993	1030.7
578.196	1002.42
578.398	1043.3
578.6	1067.9
578.802	965.41
579.004	981.68
579.206	952.24
579.408	1018.88
579.61	999.7
579.812	1034.77
580.014	1001.45
580.216	978.58
580.418	994.28
580.62	963.47
580.822	943.71
581.024	968.7
581.226	1015.01
581.428	977.81
581.63	1071.2
581.832	967.74
582.034	1012.68
582.236	1028.77
582.438	1028.38
582.64	1085.34
582.841	1085.53
583.043	1073.71
583.245	1027.8
583.447	1014.43
583.649	1032.83
583.85	1045.82
584.052	1090.57
584.254	961.34
584.456	1060.93
584.657	982.46
584.859	1012.3
585.061	997.77
585.262	1001.25
585.464	969.48
585.666	1029.15
585.867	987.3
586.069	1067.32
586.27	1012.1
586.472	1029.93
586.674	978.58
586.875	996.02
587.077	980.13
587.278	1003
587.48	972.19
587.681	1089.41
587.883	988.66
588.084	899.92
588.285	924.34
588.487	947.2
588.688	948.75
588.89	913.68
589.091	878.42
589.292	891.79
589.494	871.44
589.695	885.59
589.896	803.44
590.098	813.32
590.299	878.03
590.5	824.75
590.702	856.72
590.903	848.97
591.104	934.6
591.305	953.01
591.507	958.05
591.708	937.7
591.909	915.04
592.11	986.92
592.311	931.12
592.512	903.02
592.714	862.92
592.915	877.64
593.116	884.62
593.317	919.3
593.518	908.06
593.719	903.22
593.92	963.67
594.121	984.01
594.322	899.34
594.523	895.85
594.724	848
594.925	908.64
595.126	907.87
595.327	912.13
595.528	904.96
595.729	919.3
595.929	900.7
596.13	878.03
596.331	900.5
596.532	931.31
596.733	942.74
596.934	930.73
597.135	947.78
597.335	917.17
597.536	853.04
597.737	905.35
597.938	901.86
598.138	903.6
598.339	910
598.54	908.64
598.74	906.7
598.941	930.34
599.142	962.5
599.342	916.39
599.543	876.09
599.744	885.2
599.944	901.47
600.145	920.07
600.345	899.54
600.546	977.42
600.746	972
600.947	984.2
601.147	920.65
601.348	996.22
601.548	859.62
601.749	914.45
601.949	896.05
602.15	886.36
602.35	893.34
602.551	941.77
602.751	860.98
602.951	887.91
603.152	852.84
603.352	925.11
603.552	907.87
603.753	959.79
603.953	937.7
604.153	930.54
604.354	915.81
604.554	936.35
604.754	922.59
604.954	859.04
605.155	938.48
605.355	887.91
605.555	930.54
605.755	957.66
605.955	881.32
606.155	949.33
606.356	885.97
606.556	958.63
606.756	894.11
606.956	871.44
607.156	928.6
607.356	862.92
607.556	903.41
607.756	891.01
607.956	949.14
608.156	901.28
608.356	866.6
608.556	921.62
608.756	884.42
608.956	850.32
609.156	897.21
609.356	878.22
609.556	870.86
609.755	877.84
609.955	867.76
610.155	894.89
610.355	866.02
610.555	859.62
610.755	873.38
610.954	826.3
611.154	869.31
611.354	911.94
611.554	835.6
611.753	857.3
611.953	778.25
612.153	860.21
612.352	859.24
612.552	821.65
612.752	782.71
612.951	848.58
613.151	846.84
613.351	836.96
613.55	842.38
613.75	830.37
613.949	837.73
614.149	853.23
614.348	850.52
614.548	818.74
614.747	753.06
614.947	802.86
615.146	758.1
615.346	886.75
615.545	833.08
615.745	819.71
615.944	827.27
616.144	819.13
616.343	861.37
616.542	798.4
616.742	807.12
616.941	790.84
617.14	717.22
617.34	795.3
617.539	790.46
617.738	770.31
617.938	854.39
618.137	761.98
618.336	768.37
618.535	809.83
618.734	801.31
618.934	822.62
619.133	815.06
619.332	828.43
619.531	754.23
619.73	821.84
619.929	822.62
620.128	818.74
620.328	845.67
620.527	782.32
620.726	786.78
620.925	808.86
621.124	803.24
621.323	787.36
621.522	732.14
621.721	740.66
621.92	732.72
622.119	816.81
622.318	762.75
622.517	775.15
622.715	771.08
622.914	708.31
623.113	767.01
623.312	706.76
623.511	795.69
