Data from pine_FLMT105791__134__17-22-33-075.txt Node

Date: Mon Mar 20 17:22:33 GMT 2023
User: antho
Spectrometer: FLMT10579
Trigger mode: 0
Integration Time (sec): 1.000000E-1
Scans to average: 10
Electric dark correction enabled: true
Nonlinearity correction enabled: false
Boxcar width: 0
XAxis mode: Wavelengths
Number of Pixels in Spectrum: 3648
>>>>>Begin Spectral Data<<<<<
345.248	-157.53
345.464	-157.53
345.681	-157.53
345.898	-181.36
346.114	-159.86
346.331	-37.99
346.548	37.96
346.764	-0.79
346.981	-14.35
347.197	11.22
347.414	7.93
347.631	-48.45
347.847	54.23
348.064	18.2
348.28	28.66
348.497	-48.65
348.713	-7.96
348.93	17.03
349.146	29.82
349.363	-8.35
349.579	21.3
349.796	-20.36
350.012	-1.18
350.229	22.07
350.445	9.86
350.661	-21.72
350.878	0.76
351.094	2.31
351.311	20.71
351.527	34.47
351.743	-3.31
351.96	64.5
352.176	29.05
352.392	23.81
352.609	26.91
352.825	6.57
353.041	-26.17
353.257	-26.37
353.474	13.93
353.69	24.98
353.906	9.28
354.122	-23.85
354.339	71.86
354.555	5.41
354.771	5.8
354.987	45.51
355.203	69.54
355.42	-17.65
355.636	-7.96
355.852	-8.54
356.068	18.2
356.284	-33.92
356.5	49.2
356.716	27.3
356.932	8.31
357.148	29.24
357.364	-2.53
357.58	53.26
357.796	54.43
358.012	82.52
358.228	28.85
358.444	-37.8
358.66	69.15
358.876	30.21
359.092	-35.86
359.308	49.78
359.524	37.18
359.74	-0.98
359.956	-12.03
360.172	34.47
360.388	59.85
360.604	32.53
360.819	96.47
361.035	26.53
361.251	33.89
361.467	1.53
361.683	50.55
361.898	48.81
362.114	38.15
362.33	12.58
362.546	57.14
362.762	32.53
362.977	36.6
363.193	1.73
363.409	48.03
363.624	-5.44
363.84	-9.12
364.056	5.6
364.271	16.84
364.487	36.21
364.703	6.18
364.918	-40.51
365.134	-12.61
365.35	9.86
365.565	95.89
365.781	35.05
365.996	29.05
366.212	80.39
366.427	14.9
366.643	-0.4
366.858	-1.18
367.074	9.48
367.289	48.03
367.505	109.26
367.72	-28.5
367.936	14.51
368.151	34.66
368.367	39.12
368.582	30.01
368.798	5.02
369.013	68.18
369.228	2.5
369.444	23.23
369.659	83.88
369.874	14.9
370.09	66.63
370.305	-41.28
370.52	-13
370.736	67.41
370.951	15.29
371.166	85.04
371.381	62.56
371.597	42.61
371.812	-26.56
372.027	4.05
372.242	30.79
372.458	99.76
372.673	5.8
372.888	5.02
373.103	53.46
373.318	100.15
373.533	36.02
373.749	29.24
373.964	-40.9
374.179	69.93
374.394	-9.32
374.609	92.79
374.824	-17.65
375.039	58.3
375.254	16.45
375.469	76.51
375.684	16.84
375.899	73.41
376.114	24.4
376.329	32.15
376.544	51.71
376.759	47.84
376.974	-13.97
377.189	24.98
377.404	10.06
377.619	56.17
377.834	-43.8
378.049	-24.43
378.264	-9.51
378.478	51.13
378.693	7.93
378.908	33.31
379.123	36.41
379.338	64.5
379.553	30.79
379.767	28.27
379.982	49.39
380.197	43.96
380.412	22.65
380.626	21.1
380.841	111.97
381.056	43.38
381.271	84.65
381.485	18.58
381.7	-6.02
381.915	14.51
382.129	6.18
382.344	30.4
382.559	27.11
382.773	81.16
382.988	-13.58
383.202	30.01
383.417	2.31
383.632	98.41
383.846	27.3
384.061	30.01
384.275	28.66
384.49	28.85
384.704	33.89
384.919	51.71
385.133	17.42
385.348	63.73
385.562	-8.15
385.777	87.17
385.991	16.84
386.206	30.01
386.42	6.96
386.634	56.36
386.849	17.23
387.063	30.01
387.277	-12.8
387.492	-6.99
387.706	-7.77
387.92	-22.49
388.135	29.05
388.349	31.95
388.563	16.84
388.778	14.32
388.992	81.55
389.206	41.25
389.42	124.95
389.635	41.45
389.849	42.22
390.063	64.89
390.277	28.27
390.491	78.06
390.706	45.51
390.92	58.88
391.134	23.04
391.348	68.38
391.562	-31.21
391.776	16.65
391.99	10.06
392.205	46.87
392.419	7.35
392.633	23.04
392.847	98.6
393.061	3.47
393.275	84.07
393.489	24.2
393.703	27.3
393.917	61.01
394.131	18.58
394.345	62.76
394.559	85.23
394.773	33.89
394.986	43.58
395.2	20.13
395.414	69.54
395.628	4.05
395.842	32.73
396.056	19.94
396.27	-15.9
396.484	51.13
396.697	33.31
396.911	81.36
397.125	45.13
397.339	75.55
397.553	13.93
397.766	86.2
397.98	79.03
398.194	72.25
398.408	23.62
398.621	49.2
398.835	70.9
399.049	29.82
399.262	81.75
399.476	59.27
399.69	87.17
399.903	112.55
400.117	51.71
400.331	76.51
400.544	13.55
400.758	147.04
400.971	67.8
401.185	68.96
401.398	11.22
401.612	110.23
401.826	83.68
402.039	76.9
402.253	14.51
402.466	85.81
402.68	50.16
402.893	59.27
403.106	69.35
403.32	88.91
403.533	80.2
403.747	46.68
403.96	70.31
404.174	94.73
404.387	36.21
404.6	43
404.814	88.72
405.027	55.4
405.24	56.17
405.454	45.9
405.667	100.34
405.88	2.89
406.094	76.32
406.307	92.6
406.52	64.11
406.733	25.56
406.947	19.94
407.16	121.27
407.373	82.33
407.586	48.03
407.799	34.86
408.012	82.33
408.226	86.59
408.439	112.74
408.652	5.99
408.865	89.88
409.078	92.4
409.291	86.78
409.504	33.31
409.717	70.12
409.93	73.03
410.143	85.23
410.357	33.5
410.57	17.03
410.783	44.93
410.996	95.11
411.209	66.05
411.421	84.65
411.634	52.3
411.847	18.58
412.06	67.8
412.273	66.63
412.486	59.46
412.699	154.79
412.912	80.2
413.125	89.3
413.338	71.48
413.55	94.15
413.763	108.87
413.976	104.61
414.189	51.71
414.402	77.1
414.615	117.01
414.827	24.98
415.04	120.49
415.253	80.58
415.466	97.05
415.678	130.76
415.891	101.89
416.104	80.97
416.316	94.92
416.529	53.46
416.742	93.37
416.954	124.95
417.167	92.6
417.38	58.5
417.592	110.23
417.805	41.25
418.017	33.11
418.23	98.6
418.442	54.62
418.655	91.43
418.868	100.73
419.08	120.69
419.293	135.41
419.505	91.63
419.718	109.45
419.93	105.19
420.142	68.38
420.355	122.82
420.567	135.41
420.78	94.92
420.992	84.46
421.205	167.58
421.417	68.76
421.629	79.42
421.842	48.61
422.054	50.94
422.266	154.4
422.479	154.21
422.691	63.53
422.903	130.38
423.115	88.72
423.328	104.99
423.54	136.38
423.752	106.16
423.964	91.43
424.177	63.53
424.389	86.59
424.601	217.56
424.813	99.76
425.025	138.32
425.238	113.33
425.45	86.4
425.662	104.8
425.874	417.9
426.086	110.81
426.298	145.49
426.51	121.46
426.722	100.54
426.934	103.06
427.146	140.26
427.358	68.96
427.57	122.24
427.782	72.64
427.994	123.4
428.206	120.88
428.418	100.54
428.63	148.2
428.842	144.33
429.054	135.22
429.266	141.42
429.478	92.6
429.69	120.49
429.902	86.2
430.114	146.46
430.325	113.52
430.537	76.51
430.749	119.91
430.961	62.95
431.173	102.09
431.384	147.62
431.596	79.81
431.808	105.38
432.02	127.86
432.231	177.46
432.443	197.99
432.655	156.92
432.867	115.46
433.078	145.1
433.29	197.02
433.502	150.72
433.713	173.19
433.925	168.93
434.136	188.69
434.348	93.95
434.56	90.27
434.771	244.69
434.983	77.68
435.194	114.88
435.406	149.56
435.617	179.78
435.829	219.5
436.04	182.11
436.252	170.87
436.463	206.91
436.675	156.73
436.886	167.58
437.098	199.35
437.309	211.75
437.521	179.59
437.732	203.42
437.943	149.17
438.155	170.68
438.366	146.07
438.578	223.57
438.789	185.01
439	223.18
439.211	163.7
439.423	194.89
439.634	213.69
439.845	195.67
440.057	192.57
440.268	222.79
440.479	150.91
440.69	180.75
440.902	182.69
441.113	219.69
441.324	196.06
441.535	189.47
441.746	272.39
441.957	202.06
442.168	202.45
442.38	216.21
442.591	244.11
442.802	185.01
443.013	200.9
443.224	219.11
443.435	209.42
443.646	190.82
443.857	227.06
444.068	206.91
444.279	172.42
444.49	276.27
444.701	221.44
444.912	334.39
445.123	273.94
445.334	258.06
445.545	251.47
445.756	219.69
445.967	205.36
446.178	239.46
446.388	272.2
446.599	273.94
446.81	258.44
447.021	230.74
447.232	280.14
447.443	305.14
447.653	231.32
447.864	284.4
448.075	223.76
448.286	279.17
448.496	268.13
448.707	273.55
448.918	232.48
449.129	333.04
449.339	218.92
449.55	262.12
449.761	243.52
449.971	290.6
450.182	247.01
450.393	283.82
450.603	234.61
450.814	316.37
451.024	299.9
451.235	322.96
451.446	327.61
451.656	332.65
451.867	248.56
452.077	311.92
452.288	351.05
452.498	325.67
452.709	270.26
452.919	294.48
453.13	231.12
453.34	313.08
453.55	215.04
453.761	318.89
453.971	294.29
454.182	297.97
454.392	309.79
454.602	374.5
454.813	302.04
455.023	315.99
455.233	270.07
455.444	290.8
455.654	226.28
455.864	327.22
456.075	288.47
456.285	290.99
456.495	311.34
456.705	312.3
456.916	377.79
457.126	368.68
457.336	306.49
457.546	240.04
457.756	304.75
457.967	355.32
458.177	285.76
458.387	326.64
458.597	290.6
458.807	325.67
459.017	296.03
459.227	292.74
459.437	315.4
459.647	343.5
459.857	314.63
460.068	300.49
460.278	362.68
460.488	339.04
460.698	379.92
460.908	321.02
461.117	290.02
461.327	277.82
461.537	340.01
461.747	325.67
461.957	365.58
462.167	429.72
462.377	372.95
462.587	338.07
462.797	362.87
463.007	351.05
463.216	381.08
463.426	403.56
463.636	384.57
463.846	313.08
464.056	306.88
464.265	378.95
464.475	302.23
464.685	358.42
464.895	373.14
465.104	346.99
465.314	377.21
465.524	340.98
465.733	313.47
465.943	415.38
466.153	442.7
466.362	405.11
466.572	364.62
466.782	349.12
466.991	364.42
467.201	437.27
467.41	313.85
467.62	377.79
467.829	346.99
468.039	397.75
468.249	365.39
468.458	356.48
468.668	406.47
468.877	397.94
469.086	447.73
469.296	450.83
469.505	362.87
469.715	459.94
469.924	417.32
470.134	452
470.343	447.15
470.552	375.47
470.762	389.8
470.971	364.23
471.18	411.7
471.39	406.47
471.599	376.82
471.808	433.2
472.018	382.25
472.227	419.64
472.436	429.52
472.645	405.69
472.855	393.48
473.064	461.49
473.273	430.1
473.482	460.91
473.691	482.8
473.901	465.75
474.11	422.74
474.319	537.05
474.528	457.23
474.737	484.16
474.946	482.61
475.155	474.86
475.364	503.73
475.573	477.96
475.783	499.08
475.992	487.65
476.201	529.69
476.41	457.23
476.619	440.57
476.828	486.29
477.037	455.29
477.245	496.75
477.454	517.29
477.663	497.14
477.872	504.31
478.081	569.02
478.29	471.37
478.499	593.82
478.708	538.99
478.917	597.31
479.125	515.55
479.334	520.39
479.543	494.81
479.752	533.18
479.961	529.3
480.169	576.38
480.378	496.36
480.587	675.39
480.796	589.75
481.004	556.62
481.213	582.39
481.422	587.23
481.63	595.37
481.839	605.44
482.048	669.38
482.256	605.06
482.465	599.83
482.674	645.16
482.882	611.84
483.091	667.44
483.299	609.51
483.508	646.13
483.716	629.86
483.925	607.77
484.134	597.5
484.342	583.16
484.551	655.04
484.759	652.52
484.967	659.69
485.176	666.28
485.384	658.72
485.593	671.12
485.801	648.84
486.01	640.12
486.218	606.61
486.426	568.83
486.635	574.83
486.843	597.31
487.051	582.78
487.26	564.56
487.468	637.02
487.676	635.09
487.885	613.19
488.093	659.5
488.301	656.59
488.509	680.04
488.717	727.7
488.926	650.97
489.134	653.49
489.342	707.74
489.55	660.66
489.758	687.59
489.967	677.13
490.175	790.86
490.383	710.07
490.591	807.33
490.799	674.22
491.007	780.01
491.215	752.11
491.423	730.99
491.631	701.93
491.839	743.59
492.047	747.85
492.255	680.23
492.463	647.1
492.671	707.35
492.879	731.57
493.087	744.75
493.295	741.84
493.503	773.81
493.711	764.12
493.919	810.23
494.127	823.6
494.334	827.48
494.542	727.12
494.75	750.75
494.958	764.7
495.166	794.93
495.374	818.18
495.581	779.24
495.789	803.65
495.997	857.9
496.205	811.4
496.412	791.05
496.62	795.9
496.828	801.52
497.035	784.08
497.243	843.95
497.451	816.05
497.658	854.22
497.866	823.22
498.074	878.24
498.281	824.38
498.489	908.27
498.696	826.12
498.904	794.73
499.112	806.36
499.319	895.29
499.527	817.79
499.734	877.47
499.942	803.07
500.149	840.07
500.357	864.1
500.564	804.03
500.771	884.83
500.979	802.1
501.186	800.35
501.394	866.81
501.601	840.65
501.808	880.57
502.016	848.6
502.223	829.03
502.43	847.43
502.638	883.86
502.845	854.22
503.052	917.18
503.26	835.42
503.467	943.53
503.674	846.85
503.881	894.32
504.089	950.9
504.296	885.8
504.503	836.78
504.71	851.7
504.917	828.06
505.125	872.62
505.332	898.58
505.539	927.84
505.746	1002.43
505.953	948.57
506.16	929.2
506.367	994.88
506.574	1007.28
506.781	1003.79
506.988	923.38
507.195	966.98
507.402	951.09
507.609	989.45
507.816	918.54
508.023	940.05
508.23	931.52
508.437	895.29
508.644	950.7
508.851	1018.32
509.058	991.19
509.265	1009.6
509.472	993.33
509.679	1065.21
509.885	1007.66
510.092	1000.11
510.299	982.48
510.506	997.98
510.713	1015.61
510.92	996.23
511.126	1050.87
511.333	1065.21
511.54	1058.23
511.746	1090.97
511.953	1091.75
512.16	1091.94
512.367	1025.1
512.573	1052.03
512.78	1067.14
512.987	1033.63
513.193	1050.09
513.4	964.26
513.606	1042.73
513.813	1052.23
514.02	1045.06
514.226	1096.01
514.433	1085.16
514.639	1060.94
514.846	1022.19
515.052	1030.53
515.259	1070.05
515.465	1091.94
515.672	1080.32
515.878	1187.07
516.085	1071.21
516.291	1118.68
516.497	1096.98
516.704	1059.59
516.91	1024.71
517.117	1009.02
517.323	947.6
517.529	1000.69
517.736	1025.1
517.942	1000.11
518.148	1018.71
518.354	1100.08
518.561	1078.77
518.767	1063.66
518.973	1129.72
519.179	1142.9
519.386	1103.96
519.592	1087.49
519.798	1104.73
520.004	1200.64
520.21	1162.47
520.417	1216.91
520.623	1254.3
520.829	1226.99
521.035	1226.79
521.241	1259.15
521.447	1242.29
521.653	1321.92
521.859	1228.15
522.065	1261.47
522.271	1347.3
522.477	1267.48
522.683	1354.28
522.889	1256.24
523.095	1274.65
523.301	1248.3
523.507	1247.72
523.713	1278.33
523.919	1263.41
524.125	1345.17
524.331	1304.68
524.537	1401.94
524.742	1400.78
524.948	1386.05
525.154	1391.48
525.36	1492.61
525.566	1397.29
525.772	1434.88
525.977	1353.11
526.183	1410.46
526.389	1414.53
526.595	1332.96
526.8	1350.01
527.006	1281.43
527.212	1276.78
527.417	1261.47
527.623	1284.14
527.829	1319.4
528.034	1363.77
528.24	1350.4
528.446	1387.8
528.651	1434.88
528.857	1431.58
529.062	1495.71
529.268	1484.48
529.473	1483.89
529.679	1442.43
529.884	1534.66
530.09	1464.13
530.295	1510.24
530.501	1540.47
530.706	1465.68
530.912	1442.63
531.117	1511.79
531.323	1503.66
531.528	1556.55
531.733	1547.44
531.939	1479.83
532.144	1560.23
532.35	1530.39
532.555	1563.72
532.76	1505.59
532.966	1555.77
533.171	1518.57
533.376	1476.73
533.581	1460.06
533.787	1523.03
533.992	1515.67
534.197	1567.01
534.402	1548.8
534.607	1532.33
534.813	1666.79
535.018	1510.63
535.223	1555.19
535.428	1567.4
535.633	1636.57
535.838	1585.42
536.043	1597.43
536.249	1671.44
536.454	1584.45
536.659	1613.9
536.864	1581.93
537.069	1572.44
537.274	1574.57
537.479	1605.76
537.684	1603.44
537.889	1523.61
538.094	1671.83
538.299	1583.29
538.504	1651.49
538.708	1638.12
538.913	1670.86
539.118	1613.32
539.323	1666.99
539.528	1624.36
539.733	1596.27
539.938	1605.37
540.142	1638.12
540.347	1586.58
540.552	1581.35
540.757	1563.72
540.962	1580.96
541.166	1555.77
541.371	1563.72
541.576	1585.42
541.781	1484.86
541.985	1631.72
542.19	1632.3
542.395	1677.06
542.599	1687.52
542.804	1652.07
543.008	1704.38
543.213	1637.73
543.418	1640.05
543.622	1638.7
543.827	1592.59
544.031	1732.67
544.236	1710.97
544.44	1653.62
544.645	1728.21
544.849	1667.57
545.054	1679.19
545.258	1761.73
545.463	1766.18
545.667	1649.35
545.872	1718.72
546.076	1701.08
546.281	1726.47
546.485	1648
546.689	1736.15
546.894	1737.7
547.098	1688.49
547.302	1645.48
547.507	1714.26
547.711	1689.85
547.915	1738.48
548.119	1672.8
548.324	1683.26
548.528	1779.55
548.732	1735.96
548.936	1725.88
549.141	1744.1
549.345	1728.79
549.549	1737.32
549.753	1726.27
549.957	1781.68
550.161	1738.87
550.366	1760.18
550.57	1730.73
550.774	1736.54
550.978	1691.01
551.182	1730.53
551.386	1705.93
551.59	1748.36
551.794	1681.52
551.998	1785.56
552.202	1706.12
552.406	1692.75
552.61	1763.66
552.814	1733.05
553.018	1807.06
553.222	1722.98
553.426	1744.68
553.63	1813.46
553.833	1712.71
554.037	1665.05
554.241	1746.23
554.445	1726.27
554.649	1750.1
554.853	1714.65
555.056	1838.65
555.26	1783.43
555.464	1746.81
555.668	1772.77
555.871	1798.93
556.075	1783.43
556.279	1711.16
556.483	1679.77
556.686	1733.05
556.89	1747
557.094	1729.37
557.297	1670.08
557.501	1775.29
557.704	1659.04
557.908	1710.19
558.112	1644.9
558.315	1742.55
558.519	1682.48
558.722	1675.51
558.926	1664.85
559.129	1596.85
559.333	1612.74
559.536	1588.9
559.74	1628.04
559.943	1622.23
560.147	1572.24
560.35	1600.92
560.553	1627.07
560.757	1601.69
560.96	1726.66
561.164	1611.38
561.367	1717.75
561.57	1633.08
561.774	1652.65
561.977	1647.42
562.18	1623.97
562.384	1667.76
562.587	1671.25
562.79	1566.24
562.993	1608.09
563.197	1661.37
563.4	1681.32
563.603	1711.35
563.806	1725.3
564.009	1593.94
564.212	1653.04
564.416	1601.5
564.619	1631.14
564.822	1531.56
565.025	1667.76
565.228	1589.68
565.431	1587.16
565.634	1515.47
565.837	1551.9
566.04	1548.41
566.243	1561.2
566.446	1455.8
566.649	1539.11
566.852	1488.93
567.055	1485.64
567.258	1571.47
567.461	1626.1
567.664	1597.62
567.867	1471.11
568.07	1529.42
568.273	1530.39
568.475	1589.1
568.678	1497.26
568.881	1493
569.084	1510.24
569.287	1391.09
569.489	1403.68
569.692	1501.33
569.895	1488.35
570.098	1419.57
570.3	1415.11
570.503	1354.47
570.706	1382.76
570.909	1404.85
571.111	1342.46
571.314	1372.88
571.516	1400.58
571.719	1402.71
571.922	1386.63
572.124	1395.93
572.327	1425.38
572.529	1367.84
572.732	1360.48
572.935	1425.58
573.137	1469.56
573.34	1337.61
573.542	1425.58
573.745	1432.36
573.947	1441.08
574.15	1395.16
574.352	1392.83
574.554	1447.47
574.757	1346.14
574.959	1339.16
575.162	1358.35
575.364	1330.64
575.566	1439.72
575.769	1312.04
575.971	1361.06
576.173	1274.45
576.376	1322.89
576.578	1373.46
576.78	1433.33
576.982	1266.7
577.185	1313.98
577.387	1289.18
577.589	1290.73
577.791	1311.85
577.993	1309.13
578.196	1319.6
578.398	1334.71
578.6	1366.29
578.802	1259.92
579.004	1267.87
579.206	1271.74
579.408	1273.68
579.61	1282.01
579.812	1334.71
580.014	1295.77
580.216	1249.27
580.418	1289.18
580.62	1245.39
580.822	1226.99
581.024	1283.95
581.226	1320.37
581.428	1260.31
581.63	1372.88
581.832	1285.11
582.034	1337.81
582.236	1296.15
582.438	1344.2
582.64	1372.1
582.841	1369.97
583.043	1396.9
583.245	1307.97
583.447	1328.31
583.649	1274.65
583.85	1325.99
584.052	1369.39
584.254	1272.52
584.456	1325.02
584.657	1272.52
584.859	1314.75
585.061	1309.13
585.262	1263.99
585.464	1244.62
585.666	1306.23
585.867	1247.91
586.069	1339.55
586.27	1272.71
586.472	1285.5
586.674	1256.82
586.875	1276.39
587.077	1230.67
587.278	1298.09
587.48	1262.25
587.681	1380.24
587.883	1272.52
588.084	1237.64
588.285	1256.24
588.487	1213.42
588.688	1239.19
588.89	1161.3
589.091	1128.56
589.292	1126.24
589.494	1118.49
589.695	1097.95
589.896	1032.08
590.098	1034.98
590.299	1126.82
590.5	1067.34
590.702	1052.03
590.903	1127.79
591.104	1176.42
591.305	1170.6
591.507	1219.82
591.708	1186.1
591.909	1146.97
592.11	1246.75
592.311	1195.21
592.512	1150.45
592.714	1137.09
592.915	1148.13
593.116	1158.4
593.317	1154.91
593.518	1158.01
593.719	1155.88
593.92	1176.03
594.121	1204.12
594.322	1166.92
594.523	1165.57
594.724	1122.94
594.925	1142.51
595.126	1145.22
595.327	1161.69
595.528	1172.54
595.729	1143.29
595.929	1145.8
596.13	1162.27
596.331	1158.4
596.532	1170.99
596.733	1209.74
596.934	1204.12
597.135	1186.69
597.335	1180.29
597.536	1097.76
597.737	1180.87
597.938	1100.47
598.138	1139.22
598.339	1126.04
598.54	1194.82
598.74	1138.44
598.941	1142.51
599.142	1198.5
599.342	1159.56
599.543	1124.11
599.744	1151.04
599.944	1141.16
600.145	1140.19
600.345	1164.99
600.546	1229.5
600.746	1206.45
600.947	1222.72
601.147	1195.79
601.348	1188.24
601.548	1160.92
601.749	1141.74
601.949	1080.71
602.15	1113.84
602.35	1142.51
602.551	1146.39
602.751	1121.78
602.951	1130.69
603.152	1058.42
603.352	1172.54
603.552	1147.35
603.753	1205.48
603.953	1177.19
604.153	1158.59
604.354	1133.02
604.554	1150.45
604.754	1156.46
604.954	1123.14
605.155	1139.8
605.355	1130.5
605.555	1163.44
605.755	1187.85
605.955	1191.53
606.155	1196.57
606.356	1160.53
606.556	1155.1
606.756	1156.07
606.956	1107.44
607.156	1201.6
607.356	1122.17
607.556	1130.89
607.756	1115.39
607.956	1210.32
608.156	1174.87
608.356	1087.87
608.556	1175.06
608.756	1107.25
608.956	1097.56
609.156	1119.46
609.356	1053.97
609.556	1065.59
609.755	1111.51
609.955	1057.26
610.155	1122.75
610.355	1117.91
610.555	1036.92
610.755	1075.28
610.954	1030.91
611.154	1101.63
611.354	1140.96
611.554	1080.12
611.753	1116.74
611.953	1042.34
612.153	1114.42
612.352	1091.94
612.552	1033.43
612.752	1012.7
612.951	1052.61
613.151	1062.49
613.351	1026.65
613.55	1070.63
613.75	1061.72
613.949	1033.04
614.149	1060.17
614.348	1043.51
614.548	1026.46
614.747	998.56
614.947	1003.21
615.146	960.2
615.346	1041.18
615.545	1056.87
615.745	1032.66
615.944	1062.69
616.144	1045.64
616.343	1054.74
616.542	1012.12
616.742	1009.21
616.941	986.35
617.14	969.11
617.34	984.61
617.539	988.29
617.738	978.21
617.938	1078.77
618.137	1028.2
618.336	986.93
618.535	1007.66
618.734	1030.14
618.934	1064.24
