Data from pine_FLMT105791__154__17-23-08-074.txt Node

Date: Mon Mar 20 17:23:08 GMT 2023
User: antho
Spectrometer: FLMT10579
Trigger mode: 0
Integration Time (sec): 1.000000E-1
Scans to average: 10
Electric dark correction enabled: true
Nonlinearity correction enabled: false
Boxcar width: 0
XAxis mode: Wavelengths
Number of Pixels in Spectrum: 3648
>>>>>Begin Spectral Data<<<<<
345.248	-148.41
345.464	-148.41
345.681	-148.41
345.898	-188.13
346.114	-163.72
346.331	-5.81
346.548	33.91
346.764	-10.66
346.981	-27.9
347.197	-17.05
347.414	14.53
347.631	-21.31
347.847	59.67
348.064	-18.02
348.28	-6.97
348.497	-4.07
348.713	3.68
348.93	13.95
349.146	0.58
349.363	1.36
349.579	12.59
349.796	3.1
350.012	-14.53
350.229	27.71
350.445	8.52
350.661	-30.03
350.878	-11.04
351.094	23.64
351.311	17.44
351.527	0
351.743	0.39
351.96	18.41
352.176	48.44
352.392	20.54
352.609	46.11
352.825	-32.94
353.041	3.87
353.257	-3.29
353.474	6.59
353.69	30.22
353.906	13.56
354.122	-6.2
354.339	57.54
354.555	20.73
354.771	-3.49
354.987	77.5
355.203	60.06
355.42	6.2
355.636	3.87
355.852	-17.05
356.068	21.89
356.284	-26.54
356.5	78.66
356.716	26.54
356.932	-12.4
357.148	25.19
357.364	2.91
357.58	52.31
357.796	35.26
358.012	42.82
358.228	17.44
358.444	-44.56
358.66	22.67
358.876	15.5
359.092	-30.42
359.308	15.69
359.524	9.69
359.74	6.01
359.956	-6.39
360.172	-13.56
360.388	40.3
360.604	-8.52
360.819	84.67
361.035	8.72
361.251	22.47
361.467	-4.65
361.683	35.84
361.898	12.01
362.114	25.57
362.33	21.31
362.546	49.99
362.762	-20.15
362.977	8.52
363.193	0.77
363.409	56.96
363.624	7.36
363.84	-6.39
364.056	-15.89
364.271	38.75
364.487	15.5
364.703	-10.46
364.918	-17.82
365.134	-5.62
365.35	-10.27
365.565	109.47
365.781	32.74
365.996	2.32
366.212	71.11
366.427	42.62
366.643	6.97
366.858	5.81
367.074	-15.31
367.289	63.55
367.505	109.66
367.72	-48.44
367.936	5.42
368.151	50.76
368.367	34.1
368.582	8.33
368.798	9.3
369.013	35.65
369.228	7.17
369.444	11.62
369.659	75.17
369.874	20.34
370.09	52.51
370.305	-46.31
370.52	-8.52
370.736	46.31
370.951	-4.65
371.166	57.93
371.381	78.27
371.597	40.49
371.812	-7.17
372.027	-11.62
372.242	0
372.458	99
372.673	0.77
372.888	-9.3
373.103	24.41
373.318	107.53
373.533	45.34
373.749	30.61
373.964	-21.31
374.179	40.69
374.394	5.81
374.609	32.94
374.824	-21.12
375.039	74.21
375.254	4.07
375.469	71.69
375.684	29.64
375.899	36.23
376.114	43.98
376.329	18.41
376.544	55.02
376.759	36.04
376.974	-9.11
377.189	5.81
377.404	18.6
377.619	39.14
377.834	-36.23
378.049	-47.47
378.264	-17.44
378.478	34.49
378.693	-7.94
378.908	17.82
379.123	13.56
379.338	72.07
379.553	34.29
379.767	32.36
379.982	48.24
380.197	28.09
380.412	13.17
380.626	10.85
380.841	102.88
381.056	10.07
381.271	73.43
381.485	-6.78
381.7	-7.36
381.915	25.57
382.129	-15.5
382.344	25.77
382.559	30.81
382.773	71.11
382.988	-6.2
383.202	35.46
383.417	-14.34
383.632	108.5
383.846	12.01
384.061	55.61
384.275	6.01
384.49	28.87
384.704	40.49
384.919	13.95
385.133	36.62
385.348	33.13
385.562	-20.54
385.777	49.6
385.991	27.32
386.206	8.52
386.42	7.75
386.634	73.43
386.849	43.59
387.063	10.66
387.277	-14.92
387.492	7.17
387.706	-12.98
387.92	-18.99
388.135	62.19
388.349	37.97
388.563	43.98
388.778	27.32
388.992	64.52
389.206	46.69
389.42	109.27
389.635	3.29
389.849	35.65
390.063	73.62
390.277	24.02
390.491	90.09
390.706	45.34
390.92	50.76
391.134	21.7
391.348	53.47
391.562	-24.99
391.776	20.73
391.99	8.14
392.205	64.71
392.419	-1.55
392.633	25.38
392.847	65.87
393.061	-18.02
393.275	78.47
393.489	54.25
393.703	28.48
393.917	49.99
394.131	12.21
394.345	51.15
394.559	55.61
394.773	3.49
394.986	45.92
395.2	15.31
395.414	41.46
395.628	2.71
395.842	40.11
396.056	20.15
396.27	-54.83
396.484	21.51
396.697	25.19
396.911	76.92
397.125	54.06
397.339	74.59
397.553	24.8
397.766	90.48
397.98	62
398.194	53.09
398.408	22.47
398.621	30.81
398.835	55.99
399.049	23.83
399.262	65.68
399.476	73.82
399.69	54.83
399.903	109.66
400.117	22.09
400.331	64.91
400.544	10.46
400.758	142.99
400.971	64.91
401.185	77.89
401.398	-9.69
401.612	89.51
401.826	74.01
402.039	61.81
402.253	19.57
402.466	57.74
402.68	32.74
402.893	53.86
403.106	47.47
403.32	43.59
403.533	66.46
403.747	34.29
403.96	68.2
404.174	92.22
404.387	27.12
404.6	57.16
404.814	64.13
405.027	53.86
405.24	48.82
405.454	20.15
405.667	62
405.88	2.32
406.094	46.89
406.307	54.83
406.52	39.14
406.733	23.06
406.947	7.17
407.16	94.16
407.373	100.36
407.586	16.08
407.799	10.66
408.012	72.46
408.226	66.07
408.439	99.97
408.652	7.94
408.865	73.04
409.078	79.24
409.291	43.98
409.504	7.17
409.717	55.8
409.93	84.28
410.143	48.24
410.357	23.25
410.57	31
410.783	49.99
410.996	38.17
411.209	46.89
411.421	78.08
411.634	48.44
411.847	49.99
412.06	54.83
412.273	41.85
412.486	47.08
412.699	150.74
412.912	51.92
413.125	97.45
413.338	56.77
413.55	66.65
413.763	82.73
413.976	88.74
414.189	20.92
414.402	45.53
414.615	102.69
414.827	19.76
415.04	96.1
415.253	74.21
415.466	84.28
415.678	134.27
415.891	91.84
416.104	55.61
416.316	80.41
416.529	24.41
416.742	101.91
416.954	105.01
417.167	55.22
417.38	57.54
417.592	90.67
417.805	28.67
418.017	-3.29
418.23	95.32
418.442	39.52
418.655	51.34
418.868	45.34
419.08	93
419.293	110.05
419.505	73.62
419.718	65.68
419.93	104.04
420.142	42.82
420.355	111.4
420.567	96.68
420.78	101.52
420.992	53.09
421.205	130.59
421.417	17.63
421.629	74.21
421.842	20.73
422.054	39.33
422.266	89.12
422.479	117.99
422.691	44.17
422.903	75.56
423.115	45.34
423.328	64.32
423.54	95.71
423.752	74.79
423.964	49.79
424.177	63.94
424.389	24.61
424.601	172.63
424.813	106.37
425.025	75.17
425.238	68.2
425.45	66.07
425.662	80.79
425.874	383.04
426.086	71.49
426.298	104.82
426.51	92.03
426.722	91.06
426.934	74.98
427.146	105.79
427.358	52.51
427.57	109.27
427.782	66.84
427.994	101.52
428.206	65.49
428.418	49.21
428.63	122.64
428.842	95.32
429.054	83.51
429.266	115.47
429.478	64.13
429.69	110.63
429.902	47.08
430.114	135.62
430.325	102.88
430.537	68.01
430.749	68.59
430.961	22.09
431.173	48.05
431.384	113.73
431.596	0
431.808	57.54
432.02	66.07
432.231	89.7
432.443	134.27
432.655	98.62
432.867	61.22
433.078	128.45
433.29	176.89
433.502	129.04
433.713	127.29
433.925	98.23
434.136	152.09
434.348	52.7
434.56	38.94
434.771	202.08
434.983	60.06
435.194	68.2
435.406	79.82
435.617	140.85
435.829	157.13
436.04	148.22
436.252	139.11
436.463	147.44
436.675	165.85
436.886	130.78
437.098	135.24
437.309	180.18
437.521	133.88
437.732	155
437.943	142.99
438.155	122.06
438.366	57.35
438.578	181.35
438.789	133.88
439	155.19
439.211	136.01
439.423	144.92
439.634	135.24
439.845	167.98
440.057	135.04
440.268	196.65
440.479	99.78
440.69	143.18
440.902	124.58
441.113	142.6
441.324	106.75
441.535	169.14
441.746	198.59
441.957	121.67
442.168	120.51
442.38	167.01
442.591	193.36
442.802	133.88
443.013	122.45
443.224	172.44
443.435	162.17
443.646	164.88
443.857	146.86
444.068	142.02
444.279	131.17
444.49	201.69
444.701	149.77
444.912	271.83
445.123	184.45
445.334	222.03
445.545	182.51
445.756	177.28
445.967	144.92
446.178	181.73
446.388	205.18
446.599	193.94
446.81	226.1
447.021	169.53
447.232	232.5
447.443	235.02
447.653	166.62
447.864	252.26
448.075	182.51
448.286	229.98
448.496	213.9
448.707	239.47
448.918	163.14
449.129	275.31
449.339	178.63
449.55	223.97
449.761	197.04
449.971	262.53
450.182	191.23
450.393	220.68
450.603	203.82
450.814	265.43
451.024	219.71
451.235	266.79
451.446	278.41
451.656	257.68
451.867	183.87
452.077	239.08
452.288	279.96
452.498	280.55
452.709	204.4
452.919	222.23
453.13	196.46
453.34	258.07
453.55	184.64
453.761	268.73
453.971	233.27
454.182	254.97
454.392	247.22
454.602	302.05
454.813	206.73
455.023	273.18
455.233	197.82
455.444	250.9
455.654	171.85
455.864	190.45
456.075	212.93
456.285	191.42
456.495	235.6
456.705	271.83
456.916	303.6
457.126	314.84
457.336	245.09
457.546	203.82
457.756	222.03
457.967	286.55
458.177	211.96
458.387	248.19
458.597	198.4
458.807	222.23
459.017	236.18
459.227	237.73
459.437	238.89
459.647	270.86
459.857	302.63
460.068	226.68
460.278	292.36
460.488	282.1
460.698	318.52
460.908	253.23
461.117	217.19
461.327	204.6
461.537	283.45
461.747	289.65
461.957	253.42
462.167	364.44
462.377	308.25
462.587	261.95
462.797	318.91
463.007	296.63
463.216	290.43
463.426	348.16
463.636	306.9
463.846	240.44
464.056	237.92
464.265	350.88
464.475	235.02
464.685	289.65
464.895	304.38
465.104	285.2
465.314	297.6
465.524	268.15
465.733	260.98
465.943	368.51
466.153	347.2
466.362	295.66
466.572	322.78
466.782	298.37
466.991	328.98
467.201	342.16
467.41	254.78
467.62	308.45
467.829	288.49
468.039	311.74
468.249	315.61
468.458	305.73
468.668	347.78
468.877	357.08
469.086	366.96
469.296	347.78
469.505	301.86
469.715	390.01
469.924	350.88
470.134	376.45
470.343	372.58
470.552	328.21
470.762	320.46
470.971	307.48
471.18	311.93
471.39	339.06
471.599	315.42
471.808	363.86
472.018	309.41
472.227	366.57
472.436	375.68
472.645	351.07
472.855	318.71
473.064	378.39
473.273	346.03
473.482	384.01
473.691	418.88
473.901	393.69
474.11	365.21
474.319	438.06
474.528	383.23
474.737	435.35
474.946	375.87
475.155	390.01
475.364	431.86
475.573	387.11
475.783	394.86
475.992	401.06
476.201	464.8
476.41	403.38
476.619	365.21
476.828	413.84
477.037	387.3
477.245	430.31
477.454	440
477.663	366.57
477.872	400.28
478.081	469.45
478.29	402.03
478.499	486.69
478.708	431.48
478.917	503.16
479.125	456.86
479.334	439.81
479.543	425.28
479.752	469.84
479.961	434.38
480.169	495.61
480.378	445.42
480.587	539.97
480.796	514.4
481.004	459.96
481.213	517.89
481.422	492.7
481.63	467.12
481.839	494.44
482.048	536.87
482.256	496.96
482.465	501.22
482.674	514.59
482.882	515.56
483.091	564.58
483.299	518.47
483.508	541.33
483.716	493.28
483.925	544.24
484.134	505.68
484.342	505.49
484.551	585.89
484.759	529.9
484.967	533.58
485.176	542.69
485.384	556.25
485.593	574.07
485.801	531.25
486.01	534.74
486.218	489.6
486.426	428.38
486.635	467.32
486.843	475.07
487.051	496.57
487.26	489.99
487.468	532.8
487.676	556.25
487.885	489.79
488.093	540.36
488.301	558.77
488.509	546.95
488.717	568.45
488.926	558.96
489.134	559.74
489.342	602.75
489.55	545.79
489.758	567.1
489.967	560.7
490.175	666.68
490.383	573.3
490.591	653.9
490.799	558.38
491.007	636.07
491.215	615.73
491.423	616.31
491.631	633.94
491.839	594.22
492.047	657.58
492.255	543.27
492.463	560.9
492.671	595.39
492.879	635.68
493.087	618.25
493.295	626.38
493.503	679.47
493.711	671.14
493.919	692.65
494.127	677.34
494.334	677.34
494.542	613.21
494.75	601
494.958	607.59
495.166	708.15
495.374	669.4
495.581	656.03
495.789	638.78
495.997	698.46
496.205	682.57
496.412	677.15
496.62	644.98
496.828	704.46
497.035	677.34
497.243	696.13
497.451	684.9
497.658	685.48
497.866	712.21
498.074	751.35
498.281	624.06
498.489	736.63
498.696	674.43
498.904	666.1
499.112	674.24
499.319	751.35
499.527	668.43
499.734	754.45
499.942	692.65
500.149	645.57
500.357	723.84
500.564	657.19
500.771	677.53
500.979	664.55
501.186	685.87
501.394	689.16
501.601	686.45
501.808	746.31
502.016	691.87
502.223	673.85
502.43	698.07
502.638	688.77
502.845	637.62
503.052	753.68
503.26	679.08
503.467	791.07
503.674	695.94
503.881	732.56
504.089	782.74
504.296	738.95
504.503	666.68
504.71	706.01
504.917	656.03
505.125	728.3
505.332	747.28
505.539	694.39
505.746	806.76
505.953	790.88
506.16	794.94
506.367	819.94
506.574	810.25
506.781	822.46
506.988	755.42
507.195	768.79
507.402	775.96
507.609	786.81
507.816	760.65
508.023	760.65
508.23	745.54
508.437	747.48
508.644	813.16
508.851	828.46
509.058	812.19
509.265	792.04
509.472	812.58
509.679	869.54
509.885	799.21
510.092	824.59
510.299	779.06
510.506	801.14
510.713	805.41
510.92	778.09
511.126	804.83
511.333	857.14
511.54	837.57
511.746	861.4
511.953	873.03
512.16	888.91
512.367	816.06
512.573	841.83
512.78	836.79
512.987	833.5
513.193	841.44
513.4	770.34
513.606	818.78
513.813	839.89
514.02	837.38
514.226	901.31
514.433	896.86
514.639	802.89
514.846	855.78
515.052	814.51
515.259	855.39
515.465	842.99
515.672	836.02
515.878	926.31
516.085	841.83
516.291	925.72
516.497	827.3
516.704	849.97
516.91	786.61
517.117	755.03
517.323	732.56
517.529	778.09
517.736	783.13
517.942	820.91
518.148	802.89
518.354	824.98
518.561	813.74
518.767	857.91
518.973	874.57
519.179	867.99
519.386	827.88
519.592	806.57
519.798	860.04
520.004	926.89
520.21	889.49
520.417	905.19
520.623	944.32
520.829	912.74
521.035	962.34
521.241	935.8
521.447	928.05
521.653	1003.8
521.859	917.59
522.065	933.86
522.271	1030.15
522.477	984.62
522.683	1004.39
522.889	964.09
523.095	987.92
523.301	957.5
523.507	933.09
523.713	958.66
523.919	923.59
524.125	1053.02
524.331	977.07
524.537	1028.99
524.742	1033.84
524.948	1024.34
525.154	1015.24
525.36	1128.77
525.566	997.22
525.772	1069.48
525.977	990.63
526.183	1043.14
526.389	1083.43
526.595	1023.37
526.8	1018.34
527.006	952.85
527.212	939.67
527.417	920.11
527.623	923.59
527.829	1024.15
528.034	1032.29
528.24	997.99
528.446	1001.48
528.651	1064.25
528.857	1070.45
529.062	1084.98
529.268	1060.38
529.473	1058.25
529.679	1070.07
529.884	1106.68
530.09	1110.56
530.295	1100.1
530.501	1113.47
530.706	1092.15
530.912	1057.86
531.117	1082.47
531.323	1076.07
531.528	1145.43
531.733	1127.22
531.939	1092.54
532.144	1134.39
532.35	1132.65
532.555	1152.99
532.76	1151.63
532.966	1121.6
533.171	1132.45
533.376	1066
533.581	1056.5
533.787	1090.8
533.992	1113.47
534.197	1156.86
534.402	1091.38
534.607	1120.63
534.813	1210.73
535.018	1122.38
535.223	1128.58
535.428	1128
535.633	1169.46
535.838	1197.94
536.043	1171.01
536.249	1240.95
536.454	1149.89
536.659	1190.58
536.864	1142.72
537.069	1163.65
537.274	1159.19
537.479	1195.23
537.684	1215.18
537.889	1125.67
538.094	1227.58
538.299	1172.75
538.504	1209.18
538.708	1193.87
538.913	1208.79
539.118	1151.44
539.323	1203.95
539.528	1168.3
539.733	1194.45
539.938	1192.51
540.142	1218.86
540.347	1166.36
540.552	1151.63
540.757	1192.13
540.962	1142.72
541.166	1147.18
541.371	1123.93
541.576	1174.3
541.781	1079.95
541.985	1181.28
542.19	1188.45
542.395	1232.04
542.599	1251.03
542.804	1237.08
543.008	1261.88
543.213	1191.93
543.418	1179.15
543.622	1177.21
543.827	1136.52
544.031	1260.71
544.236	1279.51
544.44	1202.2
544.645	1270.4
544.849	1247.54
545.054	1267.3
545.258	1331.43
545.463	1272.92
545.667	1182.05
545.872	1241.14
546.076	1261.49
546.281	1276.21
546.485	1213.25
546.689	1265.75
546.894	1259.94
547.098	1228.36
547.302	1192.9
547.507	1219.06
547.711	1264.2
547.915	1272.73
548.119	1204.14
548.324	1216.35
548.528	1278.93
548.732	1239.21
548.936	1252.96
549.141	1255.87
549.345	1256.45
549.549	1249.67
549.753	1253.35
549.957	1328.52
550.161	1313.22
550.366	1236.88
550.57	1233.2
550.774	1227.97
550.978	1277.96
551.182	1254.71
551.386	1229.52
551.59	1224.09
551.794	1236.88
551.998	1245.6
552.202	1247.93
552.406	1219.06
552.61	1261.49
552.814	1259.94
553.018	1300.82
553.222	1230.88
553.426	1213.05
553.63	1325.04
553.833	1243.66
554.037	1197.16
554.241	1274.66
554.445	1291.52
554.649	1226.81
554.853	1261.1
555.056	1303.53
555.26	1319.03
555.464	1280.28
555.668	1273.11
555.871	1310.89
556.075	1313.61
556.279	1252.38
556.483	1220.03
556.686	1247.93
556.89	1220.22
557.094	1268.66
557.297	1174.88
557.501	1260.13
557.704	1174.5
557.908	1267.11
558.112	1190.96
558.315	1292.29
558.519	1222.55
558.722	1249.28
558.926	1217.7
559.129	1188.64
559.333	1165.97
559.536	1173.33
559.74	1160.16
559.943	1181.28
560.147	1144.85
560.35	1163.65
560.553	1155.51
560.757	1106.1
560.96	1230.1
561.164	1175.85
561.367	1265.17
561.57	1210.73
561.774	1189.41
561.977	1213.63
562.18	1158.61
562.384	1324.46
562.587	1195.23
562.79	1162.1
562.993	1175.27
563.197	1213.44
563.4	1266.14
563.603	1239.79
563.806	1274.86
564.009	1189.03
564.212	1223.13
564.416	1176.24
564.619	1211.89
564.822	1149.7
565.025	1224.68
565.228	1194.65
565.431	1172.75
565.634	1102.23
565.837	1155.7
566.04	1178.37
566.243	1151.25
566.446	1074.52
566.649	1213.44
566.852	1121.6
567.055	1127.8
567.258	1177.21
567.461	1220.22
567.664	1217.9
567.867	1092.15
568.07	1176.24
568.273	1113.47
568.475	1191.55
568.678	1144.66
568.881	1111.92
569.084	1126.06
569.287	1017.75
569.489	1028.02
569.692	1116.57
569.895	1118.12
570.098	1047.4
570.3	1034.03
570.503	985.98
570.706	1027.83
570.909	1022.79
571.111	1028.99
571.314	1033.25
571.516	1056.5
571.719	1096.42
571.922	1049.92
572.124	1042.17
572.327	1056.5
572.529	1023.18
572.732	1001.87
572.935	1068.9
573.137	1104.94
573.34	1028.8
573.542	1082.66
573.745	1063.09
573.947	1051.85
574.15	1079.37
574.352	1052.82
574.554	1118.7
574.757	1034.61
574.959	1000.51
575.162	1002.25
575.364	1010.59
575.566	1110.17
575.769	1006.32
575.971	1039.65
576.173	935.8
576.376	992.37
576.578	1036.16
576.78	1034.22
576.982	952.07
577.185	967.19
577.387	973
577.589	971.45
577.791	1033.64
577.993	985.98
578.196	985.4
578.398	1049.14
578.6	1030.15
578.802	965.05
579.004	973.58
579.206	961.57
579.408	1019.89
579.61	973.97
579.812	1053.6
580.014	946.26
580.216	948.01
580.418	978.81
580.62	972.61
580.822	952.46
581.024	954.01
581.226	1021.44
581.428	977.26
581.63	1062.9
581.832	944.71
582.034	1055.15
582.236	989.85
582.438	1010.78
582.64	1014.85
582.841	1051.27
583.043	1108.62
583.245	1028.99
583.447	1047.01
583.649	994.31
583.85	1014.65
584.052	1074.52
584.254	994.5
584.456	1056.31
584.657	938.12
584.859	1014.07
585.061	998.19
585.262	1019.3
585.464	976.49
585.666	1010.97
585.867	968.35
586.069	1035
586.27	975.32
586.472	997.02
586.674	969.7
586.875	963.5
587.077	930.37
587.278	982.49
587.48	961.95
587.681	1081.69
587.883	965.64
588.084	878.45
588.285	948.2
588.487	933.47
588.688	955.76
588.89	901.12
589.091	883.1
589.292	915.46
589.494	857.53
589.695	868.57
589.896	762.98
590.098	793.98
590.299	850.74
590.5	797.46
590.702	868.38
590.903	875.74
591.104	925.14
591.305	894.14
591.507	980.75
591.708	932.31
591.909	889.3
592.11	970.48
592.311	926.31
592.512	887.94
592.714	859.66
592.915	897.44
593.116	877.09
593.317	865.86
593.518	897.82
593.719	909.84
593.92	933.28
594.121	960.41
594.322	917.39
594.523	902.09
594.724	841.64
594.925	886.97
595.126	909.06
595.327	911.58
595.528	907.71
595.729	892.21
595.929	900.54
596.13	889.11
596.331	905.38
596.532	933.28
596.733	976.68
596.934	894.92
597.135	894.34
597.335	904.99
597.536	878.45
597.737	899.37
597.938	887.75
598.138	892.59
598.339	900.54
598.54	911.58
598.74	879.03
598.941	891.04
599.142	956.92
599.342	917.78
599.543	886.59
599.744	929.02
599.944	900.34
600.145	919.72
600.345	927.86
600.546	981.91
600.746	963.7
600.947	973.97
601.147	916.81
601.348	931.92
601.548	875.93
601.749	906.74
601.949	883.29
602.15	902.86
602.35	898.79
602.551	926.31
602.751	878.84
602.951	875.93
603.152	854.81
603.352	941.81
603.552	864.11
603.753	931.15
603.953	901.51
604.153	895.11
604.354	871.86
604.554	890.27
604.754	881.55
604.954	869.73
605.155	927.86
605.355	880.77
605.555	947.04
605.755	939.29
605.955	928.82
606.155	940.45
606.356	938.32
606.556	926.69
606.756	929.41
606.956	838.93
607.156	941.61
607.356	861.4
607.556	901.89
607.756	895.69
607.956	923.98
608.156	946.26
608.356	871.09
608.556	905.19
608.756	881.16
608.956	872.64
609.156	932.7
609.356	849.97
609.556	847.45
609.755	910.61
609.955	854.23
610.155	882.52
610.355	887.36
610.555	877.29
610.755	901.89
610.954	813.16
611.154	879.42
611.354	903.44
611.554	834.08
611.753	875.93
611.953	825.56
612.153	902.67
612.352	891.04
612.552	835.63
612.752	805.41
612.951	868.57
613.151	888.14
613.351	842.8
613.55	863.73
613.75	875.16
613.949	854.43
614.149	869.54
614.348	867.6
614.548	833.69
614.747	811.41
614.947	825.56
615.146	776.93
615.346	829.43
615.545	855.78
615.745	848.23
615.944	876.51
616.144	818.39
616.343	860.63
616.542	829.24
616.742	844.35
616.941	832.73
617.14	766.46
617.34	802.89
617.539	807.34
617.738	801.92
617.938	870.12
618.137	843.77
618.336	786.61
618.535	833.89
618.734	819.36
618.934	840.28
619.133	846.68
619.332	836.02
619.531	796.11
619.73	810.06
619.929	820.71
620.128	862.95
620.328	870.51
620.527	804.63
620.726	818
620.925	826.91
621.124	783.51
621.323	814.51
621.522	788.55
621.721	799.4
621.92	792.23
622.119	813.54
622.318	759.3
622.517	793.98
622.715	792.62
622.914	745.35
