Data from pine_FLMT105791__147__17-22-46-074.txt Node

Date: Mon Mar 20 17:22:46 GMT 2023
User: antho
Spectrometer: FLMT10579
Trigger mode: 0
Integration Time (sec): 1.000000E-1
Scans to average: 10
Electric dark correction enabled: true
Nonlinearity correction enabled: false
Boxcar width: 0
XAxis mode: Wavelengths
Number of Pixels in Spectrum: 3648
>>>>>Begin Spectral Data<<<<<
345.248	-163.31
345.464	-163.31
345.681	-163.31
345.898	-151.49
346.114	-149.56
346.331	-16.65
346.548	32.37
346.764	0.98
346.981	-7.54
347.197	-24.2
347.414	3.89
347.631	-13.74
347.847	45.55
348.064	3.89
348.28	33.92
348.497	-39.9
348.713	-18.58
348.93	44.38
349.146	15.9
349.363	29.27
349.579	19.78
349.796	4.28
350.012	-3.47
350.229	43.61
350.445	42.45
350.661	3.31
350.878	11.25
351.094	20.17
351.311	-3.47
351.527	22.49
351.743	3.89
351.96	26.56
352.176	27.53
352.392	29.66
352.609	42.83
352.825	-16.06
353.041	-14.13
353.257	-0.76
353.474	18.42
353.69	27.33
353.906	16.87
354.122	-32.53
354.339	38.77
354.555	-8.31
354.771	-9.67
354.987	66.67
355.203	43.42
355.42	-10.06
355.636	5.44
355.852	-12.38
356.068	5.83
356.284	-43.19
356.5	48.26
356.716	29.47
356.932	10.28
357.148	48.07
357.364	-8.31
357.58	44.58
357.796	55.23
358.012	27.14
358.228	14.93
358.444	-59.46
358.66	66.67
358.876	18.62
359.092	-28.27
359.308	4.08
359.524	39.73
359.74	-18
359.956	-23.62
360.172	36.63
360.388	38.96
360.604	3.7
360.819	96.31
361.035	6.99
361.251	31.4
361.467	-19.94
361.683	50.2
361.898	24.43
362.114	39.15
362.33	32.95
362.546	10.48
362.762	34.12
362.977	31.79
363.193	-39.7
363.409	29.66
363.624	-18.2
363.84	-23.62
364.056	-8.9
364.271	7.38
364.487	27.14
364.703	-10.06
364.918	-22.65
365.134	-9.86
365.35	15.9
365.565	87.01
365.781	37.6
365.996	23.27
366.212	82.36
366.427	30.63
366.643	7.18
366.858	10.87
367.074	-35.25
367.289	62.21
367.505	104.45
367.72	-47.45
367.936	0.4
368.151	58.53
368.367	42.45
368.582	17.07
368.798	12.42
369.013	37.02
369.228	-0.57
369.444	-12.19
369.659	88.36
369.874	36.83
370.09	33.15
370.305	-70.7
370.52	-8.51
370.736	49.81
370.951	-3.67
371.166	59.5
371.381	77.9
371.597	15.9
371.812	-4.05
372.027	-32.34
372.242	10.87
372.458	98.83
372.673	1.95
372.888	3.89
373.103	47.1
373.318	99.02
373.533	31.98
373.749	44.77
373.964	-45.71
374.179	60.08
374.394	-13.93
374.609	58.53
374.824	-21.49
375.039	48.45
375.254	-23.81
375.469	68.02
375.684	28.88
375.899	63.57
376.114	19
376.329	34.89
376.544	58.33
376.759	55.04
376.974	-7.15
377.189	18.62
377.404	2.34
377.619	44.77
377.834	-33.31
378.049	-21.3
378.264	-14.32
378.478	18.03
378.693	3.12
378.908	35.28
379.123	9.7
379.338	49.03
379.553	27.14
379.767	33.15
379.982	20.55
380.197	32.76
380.412	-3.47
380.626	43.8
380.841	92.63
381.056	27.92
381.271	72.48
381.485	7.96
381.7	-12.38
381.915	30.24
382.129	-10.25
382.344	18.81
382.559	15.71
382.773	62.21
382.988	-37.57
383.202	37.22
383.417	14.55
383.632	100.57
383.846	33.34
384.061	17.45
384.275	7.18
384.49	56.98
384.704	29.85
384.919	23.27
385.133	13.19
385.348	28.5
385.562	-22.07
385.777	56.4
385.991	30.05
386.206	-20.52
386.42	-0.18
386.634	61.05
386.849	52.91
387.063	26.75
387.277	-18.97
387.492	6.02
387.706	-30.6
387.92	-6.57
388.135	60.27
388.349	41.48
388.563	24.62
388.778	38.77
388.992	52.52
389.206	53.3
389.42	126.53
389.635	43.03
389.849	48.65
390.063	87.2
390.277	48.26
390.491	105.41
390.706	47.1
390.92	43.61
391.134	-8.31
391.348	62.6
391.562	-20.91
391.776	16.29
391.99	-16.65
392.205	61.43
392.419	4.08
392.633	16.1
392.847	64.53
393.061	-11.41
393.275	95.73
393.489	34.5
393.703	21.33
393.917	78.1
394.131	20.55
394.345	61.24
394.559	67.63
394.773	7.77
394.986	47.68
395.2	43.42
395.414	47.29
395.628	-4.44
395.842	37.99
396.056	19.58
396.27	-18.58
396.484	40.32
396.697	20.94
396.911	56.59
397.125	51.94
397.339	49.23
397.553	32.37
397.766	111.03
397.98	43.03
398.194	79.07
398.408	33.34
398.621	63.95
398.835	40.51
399.049	66.08
399.262	73.45
399.476	61.43
399.69	57.56
399.903	92.63
400.117	54.85
400.331	44.19
400.544	24.23
400.758	148.43
400.971	35.28
401.185	100.18
401.398	11.25
401.612	73.83
401.826	44
402.039	73.83
402.253	-5.41
402.466	40.32
402.68	17.26
402.893	56.59
403.106	36.05
403.32	35.47
403.533	42.25
403.747	36.44
403.96	32.18
404.174	74.61
404.387	19.2
404.6	32.95
404.814	75
405.027	70.93
405.24	74.03
405.454	45.35
405.667	79.65
405.88	-23.43
406.094	51.75
406.307	60.08
406.52	51.36
406.733	48.84
406.947	-8.51
407.16	104.25
407.373	96.31
407.586	41.28
407.799	42.83
408.012	88.95
408.226	52.13
408.439	86.23
408.652	-1.92
408.865	50.39
409.078	91.46
409.291	53.68
409.504	-5.22
409.717	62.02
409.93	37.41
410.143	57.37
410.357	-13.16
410.57	16.29
410.783	62.4
410.996	48.07
411.209	53.3
411.421	67.05
411.634	38.57
411.847	24.04
412.06	67.05
412.273	46.13
412.486	41.87
412.699	126.15
412.912	47.87
413.125	65.7
413.338	49.62
413.55	88.36
413.763	51.94
413.976	34.89
414.189	27.92
414.402	51.36
414.615	121.5
414.827	27.53
415.04	111.42
415.253	76.35
415.466	71.12
415.678	107.16
415.891	60.08
416.104	52.91
416.316	37.22
416.529	49.23
416.742	100.18
416.954	98.05
417.167	59.88
417.38	48.84
417.592	86.81
417.805	36.44
418.017	19
418.23	77.52
418.442	54.65
418.655	43.61
418.868	72.67
419.08	102.7
419.293	104.64
419.505	78.1
419.718	85.85
419.93	118.98
420.142	62.4
420.355	131.57
420.567	109.48
420.78	56.78
420.992	74.42
421.205	106.38
421.417	17.65
421.629	29.27
421.842	43.8
422.054	13.58
422.266	74.61
422.479	92.24
422.691	50.2
422.903	93.21
423.115	53.3
423.328	60.47
423.54	80.61
423.752	67.25
423.964	40.32
424.177	76.16
424.389	50.39
424.601	164.9
424.813	85.65
425.025	112.2
425.238	109.29
425.45	75.97
425.662	55.82
425.874	367.17
426.086	61.82
426.298	94.18
426.51	99.6
426.722	96.5
426.934	64.92
427.146	116.85
427.358	28.69
427.57	111.03
427.782	89.91
427.994	60.47
428.206	67.44
428.418	32.76
428.63	111.81
428.842	126.73
429.054	79.07
429.266	90.69
429.478	66.28
429.69	82.55
429.902	65.5
430.114	101.35
430.325	85.26
430.537	69.77
430.749	79.45
430.961	33.92
431.173	79.07
431.384	115.49
431.596	14.35
431.808	72.48
432.02	73.45
432.231	108.71
432.443	122.08
432.655	70.35
432.867	81.39
433.078	112
433.29	137.19
433.502	103.67
433.713	143.78
433.925	98.05
434.136	155.21
434.348	37.41
434.56	40.9
434.771	182.14
434.983	65.7
435.194	73.83
435.406	98.05
435.617	124.01
435.829	171.09
436.04	130.41
436.252	132.54
436.463	108.32
436.675	113.55
436.886	113.16
437.098	95.15
437.309	161.41
437.521	108.9
437.732	111.42
437.943	101.93
438.155	117.04
438.366	81.2
438.578	170.71
438.789	118.4
439	136.03
439.211	112.78
439.423	106.58
439.634	144.75
439.845	146.3
440.057	130.8
440.268	159.28
440.479	85.46
440.69	136.8
440.902	95.92
441.113	130.8
441.324	102.31
441.535	136.61
441.746	193.57
441.957	89.14
442.168	90.5
442.38	148.23
442.591	159.28
442.802	116.07
443.013	108.71
443.224	122.85
443.435	100.38
443.646	143.78
443.857	125.95
444.068	104.25
444.279	75.97
444.49	194.15
444.701	114.33
444.912	224.76
445.123	160.63
445.334	158.5
445.545	139.13
445.756	107.93
445.967	114.91
446.178	141.26
446.388	205.97
446.599	176.91
446.81	146.3
447.021	115.68
447.232	171.09
447.443	181.94
447.653	112.2
447.864	188.92
448.075	164.31
448.286	181.75
448.496	166.83
448.707	181.94
448.918	115.68
449.129	222.63
449.339	128.47
449.55	170.32
449.761	117.81
449.971	197.44
450.182	146.68
450.393	185.04
450.603	127.11
450.814	179.04
451.024	174.19
451.235	188.14
451.446	210.62
451.656	222.24
451.867	155.6
452.077	189.31
452.288	240.46
452.498	237.36
452.709	172.45
452.919	180.98
453.13	165.28
453.34	201.51
453.55	117.81
453.761	192.02
453.971	188.14
454.182	190.47
454.392	187.18
454.602	230.38
454.813	202.87
455.023	191.83
455.233	137.58
455.444	185.24
455.654	124.6
455.864	179.04
456.075	172.45
456.285	166.45
456.495	167.61
456.705	209.07
456.916	238.52
457.126	217.98
457.336	195.31
457.546	117.04
457.756	157.53
457.967	216.04
458.177	200.16
458.387	164.51
458.597	157.34
458.807	151.53
459.017	167.03
459.227	178.07
459.437	181.94
459.647	209.46
459.857	219.34
460.068	163.15
460.278	227.86
460.488	213.33
460.698	278.82
460.908	192.02
461.117	173.23
461.327	163.54
461.537	184.27
461.747	202.48
461.957	207.71
462.167	277.85
462.377	221.86
462.587	191.05
462.797	227.48
463.007	193.18
463.216	218.56
463.426	257.7
463.636	232.51
463.846	154.63
464.056	192.99
464.265	247.63
464.475	195.7
464.685	224.76
464.895	256.54
465.104	204.61
465.314	252.28
465.524	164.31
465.733	193.38
465.943	266.22
466.153	256.73
466.362	269.71
466.572	225.34
466.782	204.61
466.991	236.19
467.201	267.58
467.41	197.06
467.62	217.59
467.829	222.24
468.039	242.39
468.249	214.3
468.458	213.33
468.668	252.47
468.877	233.87
469.086	304.78
469.296	267.19
469.505	212.56
469.715	293.16
469.924	238.91
470.134	258.67
470.343	286.96
470.552	231.54
470.762	259.64
470.971	189.31
471.18	249.18
471.39	233.29
471.599	189.89
471.808	282.31
472.018	237.16
472.227	284.63
472.436	291.99
472.645	223.41
472.855	223.99
473.064	273.39
473.273	246.66
473.482	272.04
473.691	290.44
473.901	295.87
474.11	250.92
474.319	353.99
474.528	276.11
474.737	336.56
474.946	274.56
475.155	277.27
475.364	286.76
475.573	250.53
475.783	296.84
475.992	288.89
476.201	330.55
476.41	260.8
476.619	245.11
476.828	283.27
477.037	234.26
477.245	277.85
477.454	308.07
477.663	278.04
477.872	279.59
478.081	323.77
478.29	264.87
478.499	404.37
478.708	304.97
478.917	357.09
479.125	316.79
479.334	324.16
479.543	285.02
479.752	307.11
479.961	298.77
480.169	333.84
480.378	289.47
480.587	432.07
480.796	318.92
481.004	321.44
481.213	331.13
481.422	318.34
481.63	342.17
481.839	358.45
482.048	368.33
482.256	331.52
482.465	341.4
482.674	354.96
482.882	352.44
483.091	415.6
483.299	360.77
483.508	372.59
483.716	355.93
483.925	349.15
484.134	335.01
484.342	331.91
484.551	397.59
484.759	388.09
484.967	342.95
485.176	395.45
485.384	406.89
485.593	408.44
485.801	360.77
486.01	378.21
486.218	370.85
486.426	341.79
486.635	324.54
486.843	316.99
487.051	352.83
487.26	344.11
487.468	374.14
487.676	375.5
487.885	333.07
488.093	358.64
488.301	369.1
488.509	379.18
488.717	407.08
488.926	384.6
489.134	347.02
489.342	384.99
489.55	368.52
489.758	404.17
489.967	387.51
490.175	506.28
490.383	377.82
490.591	440.02
490.799	340.04
491.007	431.1
491.215	441.76
491.423	400.1
491.631	407.27
491.839	404.95
492.047	437.88
492.255	378.6
492.463	363.1
492.671	384.6
492.879	404.56
493.087	414.44
493.295	444.28
493.503	439.63
493.711	428.39
493.919	445.83
494.127	436.72
494.334	466.17
494.542	388.67
494.75	422
494.958	405.92
495.166	473.15
495.374	430.72
495.581	442.15
495.789	467.72
495.997	496.59
496.205	434.4
496.412	438.47
496.62	422.39
496.828	465.59
497.035	423.35
497.243	470.43
497.451	457.45
497.658	447.57
497.866	454.35
498.074	501.05
498.281	433.43
498.489	510.54
498.696	483.61
498.904	456.48
499.112	469.27
499.319	527.59
499.527	480.51
499.734	498.92
499.942	445.25
500.149	463.46
500.357	465.2
500.564	451.25
500.771	471.4
500.979	470.43
501.186	442.15
501.394	497.17
501.601	462.49
501.808	491.55
502.016	490.78
502.223	455.32
502.43	476.25
502.638	487.48
502.845	456.48
503.052	534.95
503.26	465.98
503.467	559.95
503.674	468.5
503.881	512.28
504.089	560.53
504.296	513.06
504.503	440.21
504.71	483.42
504.917	442.73
505.125	484.38
505.332	507.25
505.539	497.56
505.746	580.87
505.953	508.02
506.16	491.75
506.367	575.83
506.574	537.86
506.781	568.86
506.988	482.06
507.195	527.4
507.402	512.09
507.609	542.9
507.816	511.9
508.023	497.37
508.23	515.38
508.437	469.27
508.644	569.25
508.851	592.3
509.058	558.98
509.265	554.71
509.472	542.12
509.679	634.54
509.885	554.13
510.092	537.47
510.299	561.69
510.506	547.74
510.713	557.81
510.92	536.89
511.126	541.54
511.333	571.76
511.54	594.24
511.746	579.51
511.953	643.64
512.16	628.73
512.367	557.43
512.573	540.38
512.78	572.54
512.987	555.1
513.193	583.2
513.4	504.53
513.606	549.87
513.813	578.93
514.02	594.82
514.226	634.54
514.433	597.15
514.639	545.8
514.846	579.9
515.052	548.71
515.259	571.57
515.465	586.88
515.672	599.28
515.878	679.88
516.085	582.23
516.291	646.16
516.497	577.38
516.704	579.9
516.91	565.95
517.117	538.63
517.323	522.94
517.529	562.85
517.736	547.93
517.942	577
518.148	558.01
518.354	572.54
518.561	559.75
518.767	576.22
518.973	634.15
519.179	608.77
519.386	574.48
519.592	591.14
519.798	583.2
520.004	625.24
520.21	581.26
520.417	671.54
520.623	671.35
520.829	667.48
521.035	642.87
521.241	658.95
521.447	673.29
521.653	738
521.859	645.78
522.065	693.44
522.271	738.39
522.477	663.02
522.683	747.49
522.889	702.16
523.095	701.77
523.301	701.96
523.507	669.8
523.713	716.88
523.919	665.73
524.125	728.7
524.331	688.01
524.537	761.25
524.742	740.52
524.948	746.91
525.154	721.72
525.36	840.49
525.566	745.36
525.772	760.47
525.977	708.55
526.183	750.21
526.389	756.21
526.595	719.01
526.8	761.64
527.006	709.52
527.212	664.57
527.417	672.71
527.623	650.81
527.829	747.49
528.034	713.01
528.24	734.51
528.446	687.04
528.651	772.1
528.857	771.13
529.062	804.07
529.268	742.07
529.473	792.25
529.679	745.36
529.884	863.16
530.09	798.45
530.295	815.11
530.501	798.64
530.706	830.42
530.912	772.49
531.117	792.25
531.323	789.34
531.528	807.55
531.733	816.85
531.939	780.82
532.144	821.5
532.35	810.07
532.555	846.89
532.76	831.77
532.966	820.92
533.171	833.52
533.376	790.12
533.581	769
533.787	788.57
533.992	792.44
534.197	876.53
534.402	807.94
534.607	812.79
534.813	918.18
535.018	816.47
535.223	795.15
535.428	808.91
535.633	847.47
535.838	858.51
536.043	824.6
536.249	903.27
536.454	833.32
536.659	851.54
536.864	813.37
537.069	855.99
537.274	845.53
537.479	845.72
537.684	892.42
537.889	811.43
538.094	946.86
538.299	858.51
538.504	866.26
538.708	873.82
538.913	903.46
539.118	865.68
539.323	874.59
539.528	836.42
539.733	850.95
539.938	874.78
540.142	886.41
540.347	866.07
540.552	855.6
540.757	848.82
540.962	847.66
541.166	795.54
541.371	816.27
541.576	869.55
541.781	773.07
541.985	850.95
542.19	852.31
542.395	926.32
542.599	936.01
542.804	908.69
543.008	928.45
543.213	886.6
543.418	851.54
543.622	890.87
543.827	846.5
544.031	917.8
544.236	903.07
544.44	888.15
544.645	959.65
544.849	859.29
545.054	927.68
545.258	979.02
545.463	963.71
545.667	901.13
545.872	917.8
546.076	909.47
546.281	924.38
546.485	874.2
546.689	922.25
546.894	952.48
547.098	911.02
547.302	894.35
547.507	893.97
547.711	938.14
547.915	952.48
548.119	868.58
548.324	927.29
548.528	936.78
548.732	946.28
548.936	941.24
549.141	966.62
549.345	895.71
549.549	940.66
549.753	912.37
549.957	1044.7
550.161	982.7
550.366	910.82
550.57	908.88
550.774	919.35
550.978	919.54
551.182	955.38
551.386	930
551.59	855.02
551.794	902.68
551.998	912.76
552.202	911.21
552.406	867.03
552.61	951.7
552.814	912.37
553.018	980.76
553.222	890.09
553.426	913.15
553.63	963.13
553.833	900.55
554.037	874.2
554.241	927.48
554.445	949.38
554.649	886.6
554.853	895.32
555.056	944.73
555.26	968.36
555.464	935.43
555.668	953.45
555.871	952.09
556.075	958.29
556.279	932.52
556.483	865.68
556.686	920.12
556.89	904.62
557.094	947.83
557.297	880.21
557.501	992
557.704	881.37
557.908	960.42
558.112	873.82
558.315	965.85
558.519	924.58
558.722	927.48
558.926	906.95
559.129	848.44
559.333	834.49
559.536	835.26
559.74	887.57
559.943	851.73
560.147	861.8
560.35	882.53
560.553	857.74
560.757	824.8
560.96	962.75
561.164	833.13
561.367	921.28
561.57	856.57
561.774	874.01
561.977	876.14
562.18	835.84
562.384	976.31
562.587	866.65
562.79	846.11
562.993	869.55
563.197	924.19
563.4	917.02
563.603	936.59
563.806	951.9
564.009	844.95
564.212	895.71
564.416	818.4
564.619	868.39
564.822	813.95
565.025	892.42
565.228	839.72
565.431	862
565.634	778.11
565.837	834.87
566.04	797.67
566.243	806
566.446	769.19
566.649	864.52
566.852	778.69
567.055	843.2
567.258	866.07
567.461	903.27
567.664	883.5
567.867	761.64
568.07	835.65
568.273	842.04
568.475	877.11
568.678	840.1
568.881	818.79
569.084	814.92
569.287	745.75
569.489	779.46
569.692	858.9
569.895	835.26
570.098	768.22
570.3	767.64
570.503	684.91
570.706	756.21
570.909	750.98
571.111	702.16
571.314	745.94
571.516	752.72
571.719	793.41
571.922	729.28
572.124	758.15
572.327	765.71
572.529	703.71
572.732	704.29
572.935	722.11
573.137	818.79
573.34	741.49
573.542	770.36
573.745	789.73
573.947	766.87
574.15	722.69
574.352	710.87
574.554	800.77
574.757	708.36
574.959	732.96
575.162	717.46
575.364	720.56
575.566	800.58
575.769	704.48
575.971	745.17
576.173	637.83
576.376	711.65
576.578	758.54
576.78	807.94
576.982	636.86
577.185	707.39
577.387	683.56
577.589	667.48
577.791	739.55
577.993	738.19
578.196	695.76
578.398	728.12
578.6	753.11
578.802	670.38
579.004	675.81
579.206	673.29
579.408	742.65
579.61	698.86
579.812	736.64
580.014	703.32
580.216	689.76
580.418	701.77
580.62	701.96
580.822	648.68
581.024	680.84
581.226	731.8
581.428	693.05
581.63	770.16
581.832	677.55
582.034	727.15
582.236	713.97
582.438	736.84
582.64	744.2
582.841	766.87
583.043	808.33
583.245	742.46
583.447	725.21
583.649	706.22
583.85	722.31
584.052	733.16
584.254	692.08
584.456	754.08
584.657	651.39
584.859	720.95
585.061	706.42
585.262	670.58
585.464	660.11
585.666	744.2
585.867	664.96
586.069	748.27
586.27	714.75
586.472	696.15
586.674	676
586.875	691.5
587.077	676
587.278	724.63
587.48	692.08
587.681	797.09
587.883	683.56
588.084	644.81
588.285	648.49
588.487	671.16
588.688	673.87
588.89	624.85
589.091	603.15
589.292	642.48
589.494	615.16
589.695	625.82
589.896	539.99
590.098	551.81
590.299	607.99
590.5	578.16
590.702	599.66
590.903	609.16
591.104	686.27
591.305	643.84
591.507	714.36
591.708	635.89
591.909	612.26
592.11	709.13
592.311	650.81
592.512	668.64
592.714	577.77
592.915	624.46
593.116	597.73
593.317	632.6
593.518	620.39
593.719	614.78
593.92	674.06
594.121	671.16
594.322	656.43
594.523	627.37
594.724	629.11
594.925	608.38
595.126	653.33
595.327	652.36
595.528	645.78
595.729	629.11
595.929	635.51
596.13	623.69
596.331	638.61
596.532	639.77
596.733	684.72
596.934	688.98
597.135	666.31
597.335	648.88
597.536	604.31
597.737	635.12
597.938	596.37
598.138	633.76
598.339	608.96
598.54	653.53
598.74	626.21
598.941	633.57
599.142	693.24
599.342	634.54
599.543	602.76
599.744	617.1
599.944	613.03
600.145	631.63
600.345	669.22
600.546	704.67
600.746	671.93
600.947	722.5
601.147	645.58
601.348	701.19
601.548	621.56
601.749	645.97
601.949	592.5
602.15	603.35
602.35	671.54
602.551	680.65
602.751	614.58
602.951	625.43
603.152	549.87
603.352	655.66
603.552	637.06
603.753	640.54
603.953	638.99
604.153	635.12
604.354	637.83
604.554	633.18
604.754	627.76
604.954	556.46
605.155	635.31
605.355	625.04
605.555	656.82
605.755	639.77
605.955	629.69
606.155	658.95
606.356	626.59
606.556	630.66
606.756	653.53
606.956	573.12
607.156	696.54
607.356	581.06
607.556	649.46
607.756	628.73
607.956	668.25
608.156	650.04
608.356	602.76
608.556	638.41
608.756	639.96
608.956	592.69
609.156	597.73
609.356	582.23
609.556	588.62
609.755	603.15
609.955	593.85
610.155	634.73
610.355	632.99
610.555	589.4
610.755	640.35
610.954	563.82
611.154	624.85
611.354	641.9
611.554	588.43
611.753	594.24
611.953	570.6
612.153	601.99
612.352	602.38
612.552	574.67
612.752	513.25
612.951	591.14
613.151	589.2
613.351	521.78
613.55	580.68
613.75	599.66
613.949	599.47
614.149	574.09
614.348	614.78
614.548	540.38
614.747	514.8
614.947	563.43
615.146	519.26
615.346	620.78
615.545	583.97
615.745	582.23
615.944	591.33
616.144	565.95
616.343	607.8
616.542	555.49
616.742	558.98
616.941	554.52
617.14	520.23
617.34	540.76
617.539	543.28
617.738	562.85
617.938	611.29
618.137	573.31
618.336	513.45
618.535	590.75
618.734	560.91
618.934	601.41
619.133	553.55
619.332	575.45
619.531	537.86
619.73	567.31
619.929	598.89
620.128	574.28
620.328	620.98
620.527	544.45
620.726	533.4
620.925	560.72
621.124	544.64
621.323	574.67
621.522	530.3
621.721	517.9
621.92	530.3
622.119	568.28
622.318	529.53
622.517	559.56
622.715	536.7
622.914	477.22
623.113	499.3
623.312	487.68
623.511	524.49
623.71	544.06
623.909	548.51
624.107	579.71
624.306	476.63
624.505	517.51
624.704	531.66
624.902	538.25
625.101	580.1
625.3	529.72
625.499	492.13
625.697	490.2
625.896	497.17
626.095	534.95
626.293	448.35
626.492	500.47
626.69	540.76
