Data from pine_FLMT105791__169__17-23-23-073.txt Node

Date: Mon Mar 20 17:23:23 GMT 2023
User: antho
Spectrometer: FLMT10579
Trigger mode: 0
Integration Time (sec): 1.000000E-1
Scans to average: 10
Electric dark correction enabled: true
Nonlinearity correction enabled: false
Boxcar width: 0
XAxis mode: Wavelengths
Number of Pixels in Spectrum: 3648
>>>>>Begin Spectral Data<<<<<
345.248	-160.23
345.464	-160.23
345.681	-160.23
345.898	-166.24
346.114	-168.17
346.331	-45.53
346.548	35.84
346.764	-6.97
346.981	-6.97
347.197	15.89
347.414	14.72
347.631	-16.47
347.847	62.39
348.064	-21.89
348.28	13.17
348.497	-42.24
348.713	-1.94
348.93	13.37
349.146	30.81
349.363	4.07
349.579	45.14
349.796	-4.84
350.012	-1.74
350.229	27.32
350.445	2.52
350.661	-24.02
350.878	-1.74
351.094	3.1
351.311	12.98
351.527	17.05
351.743	-31.97
351.96	2.13
352.176	27.51
352.392	6.78
352.609	22.86
352.825	-17.63
353.041	-24.99
353.257	-7.36
353.474	-18.41
353.69	16.47
353.906	-9.11
354.122	-54.44
354.339	56.96
354.555	6.59
354.771	-36.42
354.987	79.44
355.203	40.69
355.42	-27.71
355.636	-12.01
355.852	-18.41
356.068	22.28
356.284	-24.61
356.5	50.57
356.716	32.94
356.932	-2.32
357.148	14.72
357.364	-12.98
357.58	60.26
357.796	48.44
358.012	34.87
358.228	4.65
358.444	-53.09
358.66	30.03
358.876	10.46
359.092	-9.11
359.308	15.69
359.524	17.24
359.74	-2.32
359.956	-18.21
360.172	-2.52
360.388	30.22
360.604	-22.28
360.819	62.77
361.035	16.47
361.251	27.12
361.467	-26.54
361.683	37.78
361.898	-5.23
362.114	41.27
362.33	10.66
362.546	65.1
362.762	9.49
362.977	-1.36
363.193	-19.76
363.409	20.73
363.624	-27.51
363.84	-27.32
364.056	11.24
364.271	-1.74
364.487	12.98
364.703	4.07
364.918	-25.96
365.134	-13.17
365.35	1.74
365.565	92.42
365.781	26.54
365.996	5.62
366.212	66.84
366.427	25.57
366.643	10.27
366.858	-8.52
367.074	-21.7
367.289	52.12
367.505	104.62
367.72	-39.52
367.936	-9.69
368.151	4.26
368.367	6.78
368.582	29.64
368.798	-6.01
369.013	48.24
369.228	6.2
369.444	-3.29
369.659	40.49
369.874	14.53
370.09	63.16
370.305	-78.08
370.52	-21.51
370.736	34.1
370.951	12.01
371.166	52.12
371.381	67.42
371.597	23.83
371.812	-1.94
372.027	-24.02
372.242	11.24
372.458	78.66
372.673	-18.79
372.888	4.26
373.103	24.99
373.318	81.18
373.533	30.42
373.749	24.02
373.964	-40.88
374.179	62.77
374.394	3.87
374.609	44.37
374.824	-19.18
375.039	48.44
375.254	-19.76
375.469	67.04
375.684	24.99
375.899	51.92
376.114	-0.77
376.329	-2.52
376.544	47.47
376.759	30.22
376.974	-8.33
377.189	-10.07
377.404	-9.11
377.619	17.44
377.834	-61.81
378.049	-17.05
378.264	-21.12
378.478	9.88
378.693	-7.75
378.908	30.42
379.123	-15.89
379.338	32.16
379.553	0.19
379.767	7.75
379.982	35.07
380.197	26.54
380.412	6.78
380.626	19.76
380.841	76.34
381.056	8.91
381.271	58.32
381.485	0
381.7	-25.19
381.915	29.64
382.129	10.27
382.344	11.43
382.559	-10.66
382.773	55.61
382.988	-38.17
383.202	22.86
383.417	-15.89
383.632	99.59
383.846	-22.28
384.061	18.21
384.275	-0.77
384.49	-7.36
384.704	25.77
384.919	33.32
385.133	-7.56
385.348	29.64
385.562	-18.41
385.777	47.08
385.991	7.94
386.206	-29.84
386.42	-12.79
386.634	31.39
386.849	7.17
387.063	2.52
387.277	-21.7
387.492	-25.19
387.706	-34.1
387.92	-23.44
388.135	47.08
388.349	18.41
388.563	3.68
388.778	25.57
388.992	27.51
389.206	29.64
389.42	86.22
389.635	15.89
389.849	44.76
390.063	63.94
390.277	5.23
390.491	56.96
390.706	10.85
390.92	6.39
391.134	5.62
391.348	31.97
391.562	-47.08
391.776	21.51
391.99	-22.47
392.205	28.48
392.419	-44.76
392.633	7.17
392.847	80.41
393.061	-9.49
393.275	68.97
393.489	17.63
393.703	25.77
393.917	70.52
394.131	-19.96
394.345	28.67
394.559	39.14
394.773	-0.19
394.986	7.17
395.2	13.76
395.414	31.77
395.628	-25.19
395.842	16.86
396.056	-6.39
396.27	-22.09
396.484	31.77
396.697	20.34
396.911	63.16
397.125	10.85
397.339	34.68
397.553	37.2
397.766	75.56
397.98	38.56
398.194	55.41
398.408	-5.04
398.621	27.51
398.835	34.1
399.049	24.99
399.262	16.66
399.476	26.74
399.69	62.19
399.903	52.12
400.117	-4.07
400.331	31.97
400.544	-14.72
400.758	99.78
400.971	33.32
401.185	21.51
401.398	-31.39
401.612	53.86
401.826	43.4
402.039	37.97
402.253	3.1
402.466	36.42
402.68	-0.77
402.893	22.09
403.106	-3.1
403.32	11.04
403.533	20.54
403.747	27.32
403.96	6.97
404.174	39.14
404.387	-8.14
404.6	15.31
404.814	43.98
405.027	13.17
405.24	27.32
405.454	20.92
405.667	31.97
405.88	-35.84
406.094	19.57
406.307	52.31
406.52	31.19
406.733	-8.52
406.947	-46.89
407.16	70.91
407.373	44.95
407.586	13.56
407.799	-11.24
408.012	31.19
408.226	19.76
408.439	48.63
408.652	-54.44
408.865	10.85
409.078	55.22
409.291	18.41
409.504	-19.96
409.717	6.59
409.93	32.55
410.143	23.06
410.357	-35.07
410.57	-6.97
410.783	23.44
410.996	19.96
411.209	10.46
411.421	53.67
411.634	14.72
411.847	-15.31
412.06	24.41
412.273	-5.81
412.486	25.19
412.699	88.93
412.912	15.89
413.125	34.68
413.338	47.27
413.55	43.01
413.763	10.85
413.976	20.54
414.189	-3.68
414.402	12.98
414.615	52.89
414.827	-18.6
415.04	68.78
415.253	38.36
415.466	58.12
415.678	100.75
415.891	26.74
416.104	28.67
416.316	25.38
416.529	0.58
416.742	-0.97
416.954	54.64
417.167	0.58
417.38	20.34
417.592	44.17
417.805	-27.71
418.017	-30.81
418.23	35.26
418.442	-7.94
418.655	-24.41
418.868	9.49
419.08	73.82
419.293	58.32
419.505	34.68
419.718	43.4
419.93	40.88
420.142	-6.97
420.355	50.18
420.567	76.34
420.78	62.39
420.992	18.41
421.205	73.04
421.417	-23.06
421.629	-2.91
421.842	-5.04
422.054	-38.36
422.266	43.79
422.479	49.99
422.691	-5.81
422.903	46.89
423.115	-7.36
423.328	4.46
423.54	46.31
423.752	8.52
423.964	-3.68
424.177	30.22
424.389	2.91
424.601	122.06
424.813	43.98
425.025	43.21
425.238	34.29
425.45	18.6
425.662	7.75
425.874	299.34
426.086	6.39
426.298	27.9
426.51	52.89
426.722	12.98
426.934	-25.38
427.146	45.72
427.358	-18.21
427.57	80.21
427.782	25.57
427.994	31.19
428.206	0.58
428.418	-44.95
428.63	26.74
428.842	54.44
429.054	14.92
429.266	45.14
429.478	-30.81
429.69	59.29
429.902	-14.14
430.114	40.11
430.325	33.91
430.537	20.92
430.749	31.97
430.961	7.36
431.173	44.17
431.384	41.07
431.596	-42.82
431.808	7.17
432.02	19.18
432.231	18.02
432.443	40.3
432.655	7.56
432.867	-0.58
433.078	32.55
433.29	96.29
433.502	23.25
433.713	58.32
433.925	28.48
434.136	60.45
434.348	-12.21
434.56	-16.27
434.771	124.77
434.983	-9.49
435.194	-34.68
435.406	43.4
435.617	52.51
435.829	67.81
436.04	48.24
436.252	67.23
436.463	68.39
436.675	21.12
436.886	31.77
437.098	34.68
437.309	74.79
437.521	1.94
437.732	42.24
437.943	14.72
438.155	24.99
438.366	-19.96
438.578	93
438.789	45.72
439	75.56
439.211	41.66
439.423	42.62
439.634	49.6
439.845	74.98
440.057	47.27
440.268	46.5
440.479	2.91
440.69	40.88
440.902	9.3
441.113	37.78
441.324	9.3
441.535	35.84
441.746	78.66
441.957	-5.62
442.168	4.65
442.38	61.03
442.591	53.86
442.802	3.68
443.013	9.49
443.224	14.72
443.435	-13.37
443.646	13.37
443.857	35.84
444.068	13.56
444.279	21.31
444.49	74.4
444.701	29.45
444.912	101.91
445.123	58.9
445.334	54.06
445.545	62
445.756	27.51
445.967	27.32
446.178	41.66
446.388	119.54
446.599	70.33
446.81	47.47
447.021	17.24
447.232	88.93
447.443	83.89
447.653	-5.81
447.864	68.59
448.075	37.2
448.286	70.91
448.496	38.94
448.707	73.43
448.918	27.32
449.129	103.65
449.339	18.99
449.55	70.52
449.761	22.47
449.971	94.35
450.182	36.04
450.393	62.39
450.603	21.7
450.814	76.14
451.024	60.26
451.235	74.79
451.446	86.8
451.656	99.97
451.867	9.3
452.077	66.26
452.288	97.45
452.498	100.55
452.709	44.37
452.919	76.72
453.13	33.13
453.34	79.63
453.55	-17.24
453.761	78.66
453.971	73.04
454.182	73.04
454.392	78.08
454.602	121.48
454.813	51.92
455.023	90.29
455.233	46.31
455.444	88.54
455.654	-10.27
455.864	68.2
456.075	47.86
456.285	48.63
456.495	38.36
456.705	82.54
456.916	107.92
457.126	90.09
457.336	54.06
457.546	-3.68
457.756	1.16
457.967	104.24
458.177	13.76
458.387	49.02
458.597	26.35
458.807	40.3
459.017	60.26
459.227	72.46
459.437	44.37
459.647	103.65
459.857	96.1
460.068	29.26
460.278	98.62
460.488	54.06
460.698	156.55
460.908	40.3
461.117	18.6
461.327	37.78
461.537	68.97
461.747	57.54
461.957	57.93
462.167	142.6
462.377	82.73
462.587	64.91
462.797	98.04
463.007	88.15
463.216	55.41
463.426	97.07
463.636	85.64
463.846	28.29
464.056	50.57
464.265	111.6
464.475	32.55
464.685	65.1
464.895	108.5
465.104	62.97
465.314	99.39
465.524	63.74
465.733	54.44
465.943	119.54
466.153	120.12
466.362	100.55
466.572	92.22
466.782	56.57
466.991	63.94
467.201	122.06
467.41	48.05
467.62	91.06
467.829	77.31
468.039	65.29
468.249	71.88
468.458	55.41
468.668	106.17
468.877	74.01
469.086	90.29
469.296	117.99
469.505	47.66
469.715	127.68
469.924	108.3
470.134	109.47
470.343	114.7
470.552	75.95
470.762	71.88
470.971	41.85
471.18	66.07
471.39	94.16
471.599	33.91
471.808	93.39
472.018	42.62
472.227	85.25
472.436	72.66
472.645	79.24
472.855	40.49
473.064	119.54
473.273	93.19
473.482	107.14
473.691	117.8
473.901	100.55
474.11	79.05
474.319	194.33
474.528	93
474.737	107.53
474.946	81.57
475.155	89.7
475.364	120.9
475.573	68.2
475.783	87.77
475.992	109.85
476.201	135.43
476.41	73.43
476.619	56.96
476.828	103.27
477.037	47.08
477.245	95.52
477.454	98.23
477.663	51.92
477.872	60.06
478.081	122.84
478.29	62.58
478.499	154.61
478.708	77.69
478.917	161.39
479.125	82.73
479.334	76.14
479.543	39.52
479.752	105.2
479.961	99.39
480.169	151.32
480.378	51.15
480.587	160.23
480.796	117.6
481.004	78.66
481.213	112.95
481.422	126.32
481.63	87.96
481.839	93.19
482.048	144.54
482.256	100.55
482.465	74.59
482.674	116.83
482.882	111.79
483.091	179.41
483.299	137.37
483.508	123.61
483.716	111.02
483.925	103.85
484.134	108.69
484.342	87.96
484.551	119.74
484.759	143.95
484.967	107.92
485.176	121.67
485.384	136.79
485.593	154.61
485.801	127.49
486.01	152.09
486.218	120.9
486.426	89.51
486.635	132.52
486.843	128.84
487.051	108.5
487.26	87.77
487.468	148.41
487.676	150.15
487.885	91.06
488.093	109.47
488.301	125.74
488.509	128.45
488.717	133.1
488.926	91.64
489.134	140.66
489.342	118.57
489.55	85.83
489.758	115.47
489.967	71.11
490.175	217.97
490.383	83.31
490.591	187.35
490.799	58.12
491.007	151.9
491.215	131.94
491.423	128.45
491.631	119.74
491.839	136.98
492.047	168.75
492.255	114.5
492.463	73.04
492.671	118.77
492.879	167.4
493.087	138.92
493.295	137.56
493.503	130.97
493.711	148.99
493.919	185.8
494.127	157.71
494.334	156.55
494.542	114.5
494.75	100.36
494.958	121.67
495.166	162.75
495.374	140.85
495.581	120.12
495.789	139.89
495.997	201.69
496.205	153.45
496.412	119.35
496.62	124.77
496.828	150.15
497.035	117.41
497.243	174.37
497.451	117.6
497.658	168.17
497.866	162.55
498.074	214.28
498.281	106.95
498.489	207.12
498.696	143.37
498.904	140.85
499.112	140.27
499.319	229.01
499.527	127.49
499.734	195.88
499.942	107.92
500.149	123.61
500.357	149.57
500.564	106.17
500.771	179.41
500.979	114.7
501.186	111.4
501.394	150.93
501.601	141.05
501.808	206.53
502.016	164.3
502.223	134.85
502.43	180.38
502.638	154.8
502.845	98.04
503.052	221.26
503.26	143.37
503.467	221.84
503.674	145.89
503.881	171.66
504.089	263.69
504.296	188.13
504.503	139.69
504.71	172.82
504.917	138.14
505.125	179.22
505.332	133.3
505.539	159.26
505.746	221.45
505.953	193.17
506.16	170.5
506.367	207.5
506.574	204.4
506.781	227.07
506.988	132.33
507.195	163.33
507.402	133.3
507.609	186.97
507.816	130.78
508.023	173.79
508.23	141.63
508.437	139.89
508.644	220.48
508.851	231.33
509.058	205.57
509.265	188.9
509.472	188.71
509.679	276.67
509.885	168.95
510.092	200.53
510.299	167.79
510.506	191.23
510.713	191.81
510.92	179.8
511.126	213.51
511.333	225.52
511.54	182.9
511.746	217
511.953	223.58
512.16	219.32
512.367	175.53
512.573	171.85
512.78	201.11
512.987	198.2
513.193	171.85
513.4	115.67
513.606	190.84
513.813	210.6
514.02	204.21
514.226	264.08
514.433	210.6
514.639	167.98
514.846	199.17
515.052	197.43
515.259	205.95
515.465	217.77
515.672	211.77
515.878	292.95
516.085	196.85
516.291	256.52
516.497	177.86
516.704	206.15
516.91	173.21
517.117	191.62
517.323	170.89
517.529	196.65
517.736	199.17
517.942	185.42
518.148	177.47
518.354	229.4
518.561	209.44
518.767	199.56
518.973	237.92
519.179	211.77
519.386	162.55
519.592	193.36
519.798	164.3
520.004	243.35
520.21	172.05
520.417	221.84
520.623	234.43
520.829	231.14
521.035	225.52
521.241	221.26
521.447	234.43
521.653	334.99
521.859	227.85
522.065	240.05
522.271	322.98
522.477	225.33
522.683	293.14
522.889	269.31
523.095	228.62
523.301	266.98
523.507	226.3
523.713	240.63
523.919	234.63
524.125	275.51
524.331	231.92
524.537	274.15
524.742	262.72
524.948	290.04
525.154	253.03
525.36	339.64
525.566	277.25
525.772	295.27
525.977	219.9
526.183	263.69
526.389	297.21
526.595	249.35
526.8	283.65
527.006	241.6
527.212	249.16
527.417	235.02
527.623	214.09
527.829	285.39
528.034	251.1
528.24	264.27
528.446	226.49
528.651	303.02
528.857	288.88
529.062	322.01
529.268	250.32
529.473	261.56
529.679	208.67
529.884	322.98
530.09	250.32
530.295	329.76
530.501	316.97
530.706	289.46
530.912	260.78
531.117	308.06
531.323	279.19
531.528	300.11
531.733	285.78
531.939	272.99
532.144	307.28
532.35	266.4
532.555	322.59
532.76	355.14
532.966	324.72
533.171	324.72
533.376	298.18
533.581	267.95
533.787	297.98
533.992	312.51
534.197	345.84
534.402	292.75
534.607	288.3
534.813	381.49
535.018	276.86
535.223	305.35
535.428	313.48
535.633	351.46
535.838	325.3
536.043	289.26
536.249	374.51
536.454	303.8
536.659	338.86
536.864	290.62
537.069	309.22
537.274	319.49
537.479	353.98
537.684	340.03
537.889	282.1
538.094	403.96
538.299	294.5
538.504	315.03
538.708	325.5
538.913	316.39
539.118	315.23
539.323	335.18
539.528	315.81
539.733	349.13
539.938	352.81
540.142	363.66
540.347	330.73
540.552	274.93
540.757	342.35
540.962	308.64
541.166	275.12
541.371	300.11
541.576	320.46
541.781	239.08
541.985	308.64
542.19	323.36
542.395	330.73
542.599	368.89
542.804	356.69
543.008	366.96
543.213	314.06
543.418	293.91
543.622	338.86
543.827	299.53
544.031	410.16
544.236	360.95
544.44	265.24
544.645	409.39
544.849	306.31
545.054	365.79
545.258	426.24
545.463	388.66
545.667	330.73
545.872	362.31
546.076	351.65
546.281	375.09
546.485	316.97
546.689	359.4
546.894	365.6
547.098	339.64
547.302	302.63
547.507	325.3
547.711	345.84
547.915	430.89
548.119	337.7
548.324	336.54
548.528	399.12
548.732	330.53
548.936	363.66
549.141	382.46
549.345	319.3
549.549	342.35
549.753	319.88
549.957	425.66
550.161	417.14
550.366	341
550.57	321.43
550.774	338.09
550.978	316.58
551.182	369.67
551.386	321.43
551.59	316.39
551.794	316.39
551.998	358.04
552.202	341
552.406	289.85
552.61	354.56
552.814	349.13
553.018	392.53
553.222	329.56
553.426	348.75
553.63	427.02
553.833	347.58
554.037	320.85
554.241	370.64
554.445	365.99
554.649	322.4
554.853	345.84
555.056	377.81
555.26	390.21
555.464	369.67
555.668	341.96
555.871	382.07
556.075	379.94
556.279	345.06
556.483	305.54
556.686	351.65
556.89	366.76
557.094	381.68
557.297	344.48
557.501	420.43
557.704	321.81
557.908	373.93
558.112	318.52
558.315	414.04
558.519	344.48
558.722	368.31
558.926	361.34
559.129	315.03
559.333	316.97
559.536	344.29
559.74	308.06
559.943	317.55
560.147	320.65
560.35	337.12
560.553	333.05
560.757	283.65
560.96	395.05
561.164	326.27
561.367	399.89
561.57	336.54
561.774	352.04
561.977	364.83
562.18	314.06
562.384	418.49
562.587	351.46
562.79	303.02
562.993	336.35
563.197	359.79
563.4	414.62
563.603	414.23
563.806	440.39
564.009	294.11
564.212	371.22
564.416	272.21
564.619	380.91
564.822	338.67
565.025	403.77
565.228	314.84
565.431	360.95
565.634	246.25
565.837	349.52
566.04	309.22
566.243	309.8
566.446	290.43
566.649	332.86
566.852	282.68
567.055	337.31
567.258	329.18
567.461	380.13
567.664	385.36
567.867	282.48
568.07	361.92
568.273	323.17
568.475	363.47
568.678	347.58
568.881	324.33
569.084	345.26
569.287	252.26
569.489	283.06
569.692	347.78
569.895	348.16
570.098	293.14
570.3	265.24
570.503	236.95
570.706	290.62
570.909	295.46
571.111	276.28
571.314	266.21
571.516	269.7
571.719	305.54
571.922	282.68
572.124	269.7
572.327	300.89
572.529	251.87
572.732	240.05
572.935	305.73
573.137	334.02
573.34	246.45
573.542	319.3
573.745	288.68
573.947	323.75
574.15	282.29
574.352	275.7
574.554	340.61
574.757	258.85
574.959	271.25
575.162	249.74
575.364	260.78
575.566	359.4
575.769	279.38
575.971	298.18
576.173	207.89
576.376	293.91
576.578	310.38
576.78	348.75
576.982	198.98
577.185	259.82
577.387	237.34
577.589	253.42
577.791	285
577.993	303.02
578.196	227.07
578.398	315.23
578.6	291.2
578.802	233.47
579.004	236.57
579.206	270.66
579.408	283.06
579.61	280.35
579.812	289.85
580.014	239.28
580.216	253.62
580.418	254.39
580.62	226.3
580.822	202.47
581.024	258.27
581.226	291.59
581.428	258.46
581.63	334.21
581.832	223
582.034	318.33
582.236	254.2
582.438	276.09
582.64	321.62
582.841	318.91
583.043	344.68
583.245	278.41
583.447	292.17
583.649	285.58
583.85	272.8
584.052	296.82
584.254	232.69
584.456	273.96
584.657	229.01
584.859	293.53
585.061	279.58
585.262	257.68
585.464	225.13
585.666	270.28
585.867	262.53
586.069	321.62
586.27	288.3
586.472	270.66
586.674	278.41
586.875	271.25
587.077	250.9
587.278	299.92
587.48	252.26
587.681	364.05
587.883	262.72
588.084	214.09
588.285	237.73
588.487	264.27
588.688	259.43
588.89	241.41
589.091	234.43
589.292	266.21
589.494	262.14
589.695	265.82
589.896	183.09
590.098	191.42
590.299	251.68
590.5	225.91
590.702	205.57
590.903	240.63
591.104	292.36
591.305	269.31
591.507	291.78
591.708	270.28
591.909	242.96
592.11	329.37
592.311	260.01
592.512	250.13
592.714	203.43
592.915	217
593.116	213.9
593.317	240.83
593.518	221.26
593.719	230.75
593.92	279.19
594.121	276.28
594.322	252.45
594.523	257.88
594.724	209.83
594.925	239.67
595.126	248.58
595.327	277.64
595.528	270.66
595.729	261.75
595.929	257.3
596.13	241.41
596.331	258.85
596.532	251.87
596.733	300.11
596.934	281.13
597.135	282.48
597.335	244.12
597.536	215.25
597.737	251.29
597.938	260.78
598.138	272.21
598.339	249.16
598.54	261.17
598.74	230.17
598.941	235.6
599.142	273.76
599.342	247.22
599.543	229.78
599.744	228.23
599.944	219.71
600.145	225.52
600.345	260.59
600.546	317.55
600.746	278.8
600.947	308.83
601.147	278.8
601.348	273.38
601.548	235.6
601.749	264.46
601.949	204.21
602.15	210.6
602.35	246.83
602.551	294.88
602.751	235.79
602.951	222.42
603.152	199.75
603.352	271.25
603.552	245.48
603.753	292.56
603.953	251.87
604.153	249.35
604.354	223.97
604.554	234.05
604.754	225.33
604.954	198.2
605.155	244.32
605.355	247.8
605.555	275.12
605.755	293.72
605.955	259.23
606.155	263.11
606.356	246.25
606.556	290.81
606.756	244.32
606.956	203.05
607.156	281.32
607.356	216.22
607.556	261.75
607.756	251.29
607.956	282.29
608.156	248.97
608.356	229.01
608.556	265.05
608.756	250.32
608.956	220.87
609.156	257.3
609.356	226.1
609.556	218.74
609.755	266.98
609.955	241.6
610.155	272.6
610.355	259.43
610.555	236.37
610.755	262.91
610.954	198.2
611.154	254
611.354	301.66
611.554	201.3
611.753	233.08
611.953	207.5
612.153	279.19
612.352	239.67
612.552	224.36
612.752	185.03
612.951	213.7
613.151	240.83
613.351	195.3
613.55	229.4
613.75	259.04
613.949	233.47
614.149	262.72
614.348	255.75
614.548	215.83
614.747	179.22
614.947	177.67
615.146	178.63
615.346	263.88
615.545	260.98
615.745	240.25
615.944	272.02
616.144	241.02
616.343	268.92
616.542	216.61
616.742	242.57
616.941	225.33
617.14	179.8
617.34	253.03
617.539	216.03
617.738	201.3
617.938	272.6
618.137	238.31
618.336	194.33
618.535	226.3
618.734	206.34
618.934	237.73
619.133	226.1
619.332	216.03
619.531	216.22
619.73	232.3
619.929	270.08
620.128	236.76
620.328	281.32
620.527	210.22
620.726	203.82
620.925	214.67
621.124	187.93
621.323	268.73
621.522	208.86
621.721	161.59
621.92	177.08
622.119	227.65
622.318	207.12
622.517	228.82
622.715	214.67
622.914	147.44
623.113	199.37
623.312	177.86
623.511	204.79
623.71	188.71
623.909	193.17
624.107	264.27
624.306	172.63
624.505	191.42
624.704	181.54
624.902	184.25
625.101	246.45
625.3	220.1
625.499	206.73
625.697	190.84
625.896	197.62
626.095	241.02
626.293	183.87
626.492	196.27
626.69	234.63
626.889	168.75
627.088	235.79
627.286	164.3
627.485	180.18
627.683	167.79
627.882	225.13
628.08	168.37
628.279	187.35
628.477	260.59
628.676	150.15
628.874	230.75
629.073	182.32
629.271	161.2
