Data from pine_FLMT105791__198__17-23-52-072.txt Node

Date: Mon Mar 20 17:23:52 GMT 2023
User: antho
Spectrometer: FLMT10579
Trigger mode: 0
Integration Time (sec): 1.000000E-1
Scans to average: 10
Electric dark correction enabled: true
Nonlinearity correction enabled: false
Boxcar width: 0
XAxis mode: Wavelengths
Number of Pixels in Spectrum: 3648
>>>>>Begin Spectral Data<<<<<
345.248	-174.95
345.464	-174.95
345.681	-174.95
345.898	-175.92
346.114	-185.03
346.331	-40.88
346.548	5.04
346.764	-26.54
346.981	-9.11
347.197	-14.92
347.414	13.37
347.631	-3.87
347.847	75.56
348.064	2.32
348.28	26.54
348.497	-47.08
348.713	19.57
348.93	37.97
349.146	17.44
349.363	-36.04
349.579	5.04
349.796	-11.24
350.012	-37.59
350.229	10.27
350.445	-6.2
350.661	-9.11
350.878	21.51
351.094	16.08
351.311	28.87
351.527	8.33
351.743	-30.03
351.96	30.61
352.176	28.09
352.392	24.02
352.609	54.64
352.825	-28.29
353.041	18.99
353.257	-12.4
353.474	8.14
353.69	4.26
353.906	-10.07
354.122	-32.16
354.339	65.29
354.555	-14.92
354.771	-22.28
354.987	48.82
355.203	43.59
355.42	26.35
355.636	-10.27
355.852	-29.45
356.068	2.52
356.284	-45.14
356.5	84.67
356.716	29.06
356.932	8.33
357.148	29.84
357.364	20.73
357.58	38.36
357.796	42.04
358.012	29.64
358.228	17.24
358.444	-31.58
358.66	51.34
358.876	29.64
359.092	-27.12
359.308	29.06
359.524	14.72
359.74	-10.46
359.956	14.53
360.172	16.66
360.388	34.87
360.604	-1.55
360.819	88.74
361.035	16.08
361.251	49.6
361.467	-20.54
361.683	43.21
361.898	11.24
362.114	15.89
362.33	15.89
362.546	49.21
362.762	-6.78
362.977	6.2
363.193	8.72
363.409	12.98
363.624	-12.98
363.84	1.16
364.056	3.49
364.271	0.39
364.487	27.32
364.703	-22.86
364.918	-24.99
365.134	7.17
365.35	-11.24
365.565	96.29
365.781	12.4
365.996	16.08
366.212	40.11
366.427	30.42
366.643	-12.21
366.858	-2.13
367.074	-13.95
367.289	49.41
367.505	116.25
367.72	-33.13
367.936	6.2
368.151	28.48
368.367	23.25
368.582	26.35
368.798	-7.36
369.013	71.69
369.228	24.02
369.444	14.92
369.659	51.92
369.874	44.37
370.09	59.48
370.305	-46.69
370.52	4.26
370.736	73.24
370.951	14.92
371.166	46.11
371.381	76.53
371.597	31.19
371.812	-4.65
372.027	-19.18
372.242	-1.55
372.458	89.9
372.673	-3.87
372.888	24.02
373.103	45.72
373.318	71.11
373.533	39.14
373.749	54.83
373.964	-4.46
374.179	55.02
374.394	-31.97
374.609	39.14
374.824	-11.43
375.039	77.89
375.254	0
375.469	50.76
375.684	-12.98
375.899	57.16
376.114	25.19
376.329	21.12
376.544	33.91
376.759	56.77
376.974	-20.15
377.189	-11.82
377.404	12.4
377.619	28.87
377.834	-52.12
378.049	-16.66
378.264	-11.82
378.478	2.71
378.693	-3.29
378.908	38.17
379.123	-38.94
379.338	68.2
379.553	1.55
379.767	22.86
379.982	33.13
380.197	53.47
380.412	11.24
380.626	30.22
380.841	92.03
381.056	38.94
381.271	70.72
381.485	8.52
381.7	-31
381.915	24.22
382.129	-10.07
382.344	43.4
382.559	16.08
382.773	66.84
382.988	-16.86
383.202	18.21
383.417	6.2
383.632	110.63
383.846	27.9
384.061	36.04
384.275	13.17
384.49	18.99
384.704	36.42
384.919	26.16
385.133	9.49
385.348	13.17
385.562	-23.64
385.777	32.16
385.991	-1.16
386.206	3.49
386.42	-3.1
386.634	43.59
386.849	34.29
387.063	15.69
387.277	-7.17
387.492	6.97
387.706	-7.75
387.92	-13.56
388.135	70.14
388.349	3.68
388.563	21.89
388.778	16.08
388.992	31
389.206	30.03
389.42	68.78
389.635	6.2
389.849	14.72
390.063	35.84
390.277	17.05
390.491	77.5
390.706	31.19
390.92	18.79
391.134	4.84
391.348	61.22
391.562	-14.72
391.776	-3.49
391.99	-13.76
392.205	36.04
392.419	-18.21
392.633	-24.02
392.847	62.97
393.061	7.36
393.275	65.1
393.489	35.65
393.703	20.15
393.917	81.96
394.131	3.29
394.345	38.56
394.559	24.02
394.773	2.52
394.986	33.52
395.2	23.06
395.414	41.27
395.628	-15.11
395.842	17.05
396.056	18.21
396.27	-33.71
396.484	43.01
396.697	18.21
396.911	72.27
397.125	27.32
397.339	19.76
397.553	53.86
397.766	89.7
397.98	54.06
398.194	57.35
398.408	12.59
398.621	48.44
398.835	33.32
399.049	23.64
399.262	44.17
399.476	31.58
399.69	26.54
399.903	97.65
400.117	-14.92
400.331	41.85
400.544	7.36
400.758	111.99
400.971	31.19
401.185	54.44
401.398	-18.79
401.612	52.31
401.826	33.32
402.039	51.73
402.253	-4.65
402.466	30.03
402.68	-8.52
402.893	27.71
403.106	9.11
403.32	22.86
403.533	21.89
403.747	25.19
403.96	12.59
404.174	46.5
404.387	-11.24
404.6	13.76
404.814	43.21
405.027	24.8
405.24	33.52
405.454	14.72
405.667	60.84
405.88	-43.01
406.094	59.67
406.307	48.05
406.52	37.97
406.733	-1.36
406.947	-36.62
407.16	74.79
407.373	55.8
407.586	2.32
407.799	-32.36
408.012	56.38
408.226	11.04
408.439	78.27
408.652	-41.07
408.865	22.47
409.078	61.81
409.291	31.19
409.504	-17.05
409.717	46.69
409.93	64.52
410.143	23.64
410.357	-15.69
410.57	-6.2
410.783	26.16
410.996	45.53
411.209	20.73
411.421	71.3
411.634	20.15
411.847	-12.21
412.06	33.32
412.273	32.55
412.486	9.3
412.699	130.2
412.912	9.69
413.125	60.84
413.338	8.91
413.55	42.62
413.763	29.45
413.976	11.24
414.189	23.44
414.402	13.37
414.615	60.64
414.827	-20.73
415.04	71.49
415.253	17.44
415.466	62.77
415.678	69.94
415.891	29.45
416.104	16.27
416.316	31.39
416.529	4.46
416.742	52.51
416.954	57.16
417.167	27.9
417.38	0.58
417.592	68.78
417.805	-29.64
418.017	-19.96
418.23	31.19
418.442	7.56
418.655	8.72
418.868	31
419.08	39.52
419.293	68.2
419.505	36.62
419.718	22.28
419.93	91.06
420.142	-8.14
420.355	78.86
420.567	78.47
420.78	52.12
420.992	29.45
421.205	64.32
421.417	-25.57
421.629	16.66
421.842	-16.27
422.054	-31.97
422.266	41.27
422.479	78.27
422.691	40.49
422.903	52.51
423.115	14.14
423.328	13.76
423.54	37.97
423.752	20.92
423.964	5.04
424.177	41.46
424.389	4.26
424.601	138.14
424.813	55.02
425.025	71.11
425.238	46.11
425.45	12.4
425.662	8.91
425.874	329.37
426.086	29.06
426.298	64.52
426.51	45.53
426.722	31.39
426.934	25.19
427.146	19.96
427.358	-9.88
427.57	74.98
427.782	36.81
427.994	32.74
428.206	27.51
428.418	-27.51
428.63	33.32
428.842	36.23
429.054	37.39
429.266	55.02
429.478	12.98
429.69	20.92
429.902	-16.27
430.114	49.79
430.325	43.01
430.537	33.52
430.749	35.84
430.961	-8.52
431.173	34.49
431.384	38.94
431.596	-15.89
431.808	23.44
432.02	17.82
432.231	30.61
432.443	56.19
432.655	38.17
432.867	-16.27
433.078	59.09
433.29	108.11
433.502	67.81
433.713	54.64
433.925	21.12
434.136	80.02
434.348	-9.69
434.56	5.62
434.771	170.3
434.983	-40.88
435.194	8.91
435.406	12.98
435.617	43.98
435.829	79.05
436.04	43.98
436.252	37.01
436.463	86.41
436.675	83.31
436.886	31.19
437.098	54.25
437.309	74.01
437.521	51.73
437.732	51.92
437.943	61.61
438.155	30.42
438.366	1.55
438.578	96.1
438.789	40.3
439	62.58
439.211	35.46
439.423	58.32
439.634	43.79
439.845	63.55
440.057	38.94
440.268	74.59
440.479	28.48
440.69	56.77
440.902	52.51
441.113	66.46
441.324	42.24
441.535	57.54
441.746	107.14
441.957	14.14
442.168	34.29
442.38	48.63
442.591	86.22
442.802	4.46
443.013	24.61
443.224	38.56
443.435	43.01
443.646	32.94
443.857	34.87
444.068	8.14
444.279	16.66
444.49	75.95
444.701	38.94
444.912	123.22
445.123	71.69
445.334	76.53
445.545	55.61
445.756	48.24
445.967	22.09
446.178	57.93
446.388	80.02
446.599	66.26
446.81	55.99
447.021	30.03
447.232	107.53
447.443	103.27
447.653	30.03
447.864	102.88
448.075	46.11
448.286	89.12
448.496	80.99
448.707	87.77
448.918	31.58
449.129	167.98
449.339	48.05
449.55	69.17
449.761	55.99
449.971	92.8
450.182	41.85
450.393	96.87
450.603	66.65
450.814	98.23
451.024	90.48
451.235	89.7
451.446	124.97
451.656	112.95
451.867	71.69
452.077	67.23
452.288	120.32
452.498	136.59
452.709	32.94
452.919	101.14
453.13	41.46
453.34	128.26
453.55	37.2
453.761	75.95
453.971	75.56
454.182	105.59
454.392	86.61
454.602	130.97
454.813	95.71
455.023	124.39
455.233	61.61
455.444	70.52
455.654	27.12
455.864	92.61
456.075	57.93
456.285	41.27
456.495	71.69
456.705	88.54
456.916	108.3
457.126	126.71
457.336	68.2
457.546	13.95
457.756	80.21
457.967	132.33
458.177	86.99
458.387	95.13
458.597	47.47
458.807	83.31
459.017	81.37
459.227	68.01
459.437	74.01
459.647	125.16
459.857	88.93
460.068	56.77
460.278	107.92
460.488	95.9
460.698	130.2
460.908	70.52
461.117	33.13
461.327	61.81
461.537	72.66
461.747	94.74
461.957	77.5
462.167	175.15
462.377	100.55
462.587	68.97
462.797	122.45
463.007	75.17
463.216	122.25
463.426	131.75
463.636	111.99
463.846	49.02
464.056	80.79
464.265	143.57
464.475	45.53
464.685	88.35
464.895	131.36
465.104	82.73
465.314	111.21
465.524	48.82
465.733	41.66
465.943	151.51
466.153	142.99
466.362	154.8
466.572	89.9
466.782	99.2
466.991	116.83
467.201	152.48
467.41	72.27
467.62	101.52
467.829	76.72
468.039	109.47
468.249	95.13
468.458	93.19
468.668	154.61
468.877	105.4
469.086	155.19
469.296	152.29
469.505	56.19
469.715	164.1
469.924	117.99
470.134	148.99
470.343	135.43
470.552	103.65
470.762	123.8
470.971	82.34
471.18	110.24
471.39	87.38
471.599	76.14
471.808	138.34
472.018	93
472.227	126.32
472.436	156.16
472.645	112.95
472.855	60.06
473.064	121.29
473.273	127.49
473.482	128.26
473.691	154.42
473.901	145.89
474.11	116.05
474.319	184.64
474.528	122.06
474.737	159.26
474.946	160.23
475.155	111.4
475.364	167.98
475.573	140.85
475.783	128.45
475.992	167.59
476.201	155.19
476.41	106.56
476.619	90.29
476.828	150.74
477.037	126.9
477.245	124.39
477.454	163.33
477.663	113.34
477.872	108.89
478.081	186.97
478.29	80.21
478.499	218.55
478.708	121.67
478.917	194.72
479.125	130.59
479.334	163.52
479.543	128.84
479.752	161.2
479.961	155
480.169	179.6
480.378	121.48
480.587	238.5
480.796	183.48
481.004	153.06
481.213	156.55
481.422	175.92
481.63	127.1
481.839	196.27
482.048	200.33
482.256	170.69
482.465	168.75
482.674	216.42
482.882	165.46
483.091	229.2
483.299	180.96
483.508	188.71
483.716	184.25
483.925	184.25
484.134	138.14
484.342	140.08
484.551	207.12
484.759	199.37
484.967	188.32
485.176	223.2
485.384	220.68
485.593	218.16
485.801	219.71
486.01	182.9
486.218	193.17
486.426	155
486.635	172.63
486.843	164.69
487.051	175.73
487.26	137.17
487.468	203.43
487.676	219.52
487.885	158.49
488.093	173.4
488.301	167.2
488.509	172.82
488.717	194.52
488.926	173.4
489.134	198.98
489.342	231.53
489.55	168.17
489.758	201.5
489.967	154.8
490.175	303.99
490.383	143.18
490.591	240.25
490.799	131.36
491.007	262.91
491.215	205.76
491.423	205.76
491.631	232.11
491.839	206.53
492.047	251.68
492.255	193.55
492.463	142.4
492.671	220.87
492.879	245.87
493.087	188.13
493.295	194.91
493.503	202.47
493.711	248.38
493.919	244.12
494.127	243.35
494.334	269.31
494.542	187.35
494.75	228.62
494.958	206.15
495.166	258.46
495.374	213.9
495.581	240.44
495.789	232.69
495.997	282.68
496.205	226.3
496.412	216.8
496.62	194.91
496.828	228.23
497.035	195.3
497.243	247.22
497.451	211.77
497.658	223
497.866	217.58
498.074	285
498.281	237.15
498.489	307.48
498.696	254.2
498.904	221.84
499.112	224.36
499.319	322.59
499.527	221.84
499.734	322.4
499.942	215.25
500.149	216.61
500.357	225.13
500.564	216.61
500.771	273.96
500.979	238.89
501.186	211.96
501.394	270.66
501.601	251.1
501.808	276.86
502.016	233.27
502.223	229.01
502.43	254.58
502.638	258.65
502.845	206.92
503.052	295.85
503.26	227.85
503.467	298.37
503.674	248.38
503.881	254.58
504.089	347.39
504.296	304.38
504.503	226.88
504.71	266.98
504.917	231.14
505.125	260.01
505.332	240.83
505.539	272.02
505.746	326.46
505.953	294.5
506.16	271.25
506.367	306.51
506.574	331.31
506.781	300.5
506.988	237.53
507.195	295.27
507.402	284.23
507.609	309.61
507.816	261.17
508.023	252.84
508.23	289.85
508.437	251.68
508.644	305.73
508.851	332.08
509.058	326.66
509.265	279.38
509.472	301.28
509.679	387.49
509.885	284.03
510.092	304.96
510.299	275.12
510.506	310.38
510.713	300.11
510.92	302.25
511.126	304.38
511.333	315.03
511.54	303.6
511.746	360.18
511.953	335.76
512.16	336.54
512.367	305.93
512.573	299.73
512.78	303.21
512.987	289.46
513.193	307.67
513.4	264.08
513.606	293.72
513.813	332.28
514.02	327.82
514.226	395.05
514.433	355.14
514.639	288.68
514.846	302.05
515.052	310.96
515.259	279.77
515.465	344.68
515.672	300.7
515.878	401.06
516.085	306.51
516.291	340.8
516.497	279.77
516.704	309.8
516.91	288.88
517.117	308.25
517.323	247.03
517.529	304.96
517.736	273.57
517.942	340.41
518.148	298.18
518.354	334.41
518.561	341.77
518.767	318.91
518.973	335.76
519.179	334.21
519.386	303.21
519.592	283.45
519.798	280.74
520.004	348.55
520.21	320.46
520.417	339.25
520.623	362.31
520.829	363.47
521.035	348.16
521.241	370.44
521.447	353.98
521.653	463.06
521.859	361.73
522.065	377.42
522.271	437.09
522.477	343.9
522.683	408.42
522.889	399.31
523.095	380.52
523.301	388.27
523.507	354.94
523.713	413.84
523.919	333.63
524.125	427.6
524.331	414.43
524.537	404.35
524.742	425.47
524.948	431.09
525.154	396.02
525.36	538.42
525.566	410.94
525.772	463.25
525.977	365.02
526.183	420.43
526.389	447.56
526.595	392.92
526.8	396.21
527.006	372.58
527.212	376.84
527.417	364.24
527.623	350.68
527.829	384.2
528.034	414.23
528.24	407.84
528.446	362.5
528.651	443.68
528.857	410.74
529.062	464.99
529.268	423.53
529.473	421.79
529.679	388.27
529.884	470.42
530.09	467.51
530.295	490.57
530.501	456.08
530.706	439.03
530.912	397.18
531.117	433.03
531.323	425.47
531.528	462.28
531.733	451.43
531.939	415.78
532.144	464.61
532.35	449.3
532.555	481.85
532.76	487.86
532.966	500.06
533.171	491.54
533.376	446.78
533.581	408.03
533.787	429.15
533.992	435.54
534.197	491.92
534.402	452.4
534.607	439.22
534.813	536.1
535.018	432.25
535.223	434.77
535.428	479.14
535.633	503.36
535.838	480.69
536.043	459.37
536.249	552.57
536.454	458.99
536.659	472.55
536.864	459.96
537.069	469.64
537.274	498.9
537.479	479.14
537.684	489.99
537.889	457.44
538.094	538.62
538.299	486.5
538.504	468.29
538.708	478.56
538.913	500.06
539.118	482.82
539.323	511.3
539.528	461.31
539.733	518.47
539.938	517.89
540.142	527.38
540.347	461.89
540.552	448.91
540.757	512.46
540.962	480.69
541.166	452.01
541.371	430.7
541.576	472.74
541.781	388.85
541.985	491.34
542.19	491.34
542.395	537.26
542.599	530.09
542.804	526.02
543.008	571.75
543.213	468.67
543.418	479.91
543.622	498.32
543.827	456.86
544.031	556.64
544.236	538.81
544.44	483.01
544.645	581.24
544.849	496.19
545.054	529.51
545.258	582.4
545.463	555.28
545.667	502.77
545.872	567.87
546.076	539.39
546.281	507.04
546.485	458.79
546.689	539.97
546.894	538.42
547.098	518.27
547.302	459.57
547.507	510.52
547.711	534.74
547.915	591.12
548.119	485.53
548.324	490.57
548.528	603.14
548.732	511.11
548.936	544.43
549.141	537.07
549.345	482.62
549.549	510.91
549.753	491.54
549.957	601
550.161	562.06
550.366	528.93
550.57	459.37
550.774	498.12
550.978	523.51
551.182	550.63
551.386	497.35
551.59	518.86
551.794	471.97
551.998	540.36
552.202	487.86
552.406	469.64
552.61	494.83
552.814	519.05
553.018	572.14
553.222	517.5
553.426	496.96
553.63	615.34
553.833	507.23
554.037	475.07
554.241	570
554.445	531.25
554.649	504.32
554.853	522.34
555.056	537.07
555.26	530.29
555.464	530.29
555.668	517.31
555.871	553.92
556.075	563.22
556.279	491.92
556.483	466.35
556.686	537.26
556.89	529.9
557.094	564.19
557.297	490.57
557.501	577.37
557.704	466.93
557.908	567.49
558.112	499.48
558.315	566.13
558.519	513.04
558.722	529.51
558.926	484.56
559.129	505.68
559.333	456.66
559.536	482.62
559.74	462.47
559.943	489.41
560.147	448.91
560.35	482.24
560.553	476.42
560.757	402.61
560.96	551.99
561.164	482.62
561.367	541.14
561.57	467.71
561.774	519.63
561.977	478.17
562.18	473.71
562.384	578.53
562.587	511.3
562.79	481.46
562.993	464.22
563.197	521.18
563.4	580.47
563.603	552.37
563.806	594.22
564.009	458.99
564.212	526.99
564.416	443.29
564.619	511.3
564.822	475.26
565.025	539
565.228	475.07
565.431	489.21
565.634	379.94
565.837	484.37
566.04	452.59
566.243	490.18
566.446	403.77
566.649	500.26
566.852	431.86
567.055	496.77
567.258	485.72
567.461	545.01
567.664	529.32
567.867	405.32
568.07	491.73
568.273	487.47
568.475	484.76
568.678	491.73
568.881	463.83
569.084	492.7
569.287	415.78
569.489	431.48
569.692	490.96
569.895	521.37
570.098	404.16
570.3	421.01
570.503	366.57
570.706	414.23
570.909	410.94
571.111	396.21
571.314	397.57
571.516	435.35
571.719	459.57
571.922	422.56
572.124	410.94
572.327	443.29
572.529	349.91
572.732	384.98
572.935	445.42
573.137	502
573.34	411.71
573.542	446.78
573.745	460.54
573.947	459.18
574.15	441.36
574.352	415.78
574.554	439.42
574.757	411.91
574.959	399.89
575.162	374.51
575.364	426.05
575.566	526.22
575.769	400.86
575.971	425.66
576.173	342.93
576.376	407.64
576.578	421.01
576.78	480.3
576.982	324.33
577.185	373.74
577.387	357.27
577.589	362.69
577.791	458.99
577.993	421.21
578.196	372.96
578.398	430.89
578.6	453.95
578.802	368.12
579.004	364.44
579.206	387.69
579.408	424.89
579.61	386.33
579.812	412.68
580.014	406.68
580.216	374.51
580.418	369.86
580.62	348.94
580.822	335.57
581.024	375.29
581.226	437.48
581.428	379.55
581.63	464.41
581.832	344.48
582.034	435.35
582.236	402.03
582.438	423.73
582.64	441.74
582.841	441.74
583.043	484.76
583.245	414.62
583.447	397.96
583.649	408.61
583.85	389.43
584.052	429.73
584.254	363.47
584.456	448.52
584.657	349.52
584.859	398.34
585.061	404.74
585.262	369.67
585.464	351.26
585.666	419.27
585.867	393.31
586.069	485.72
586.27	409
586.472	408.23
586.674	357.46
586.875	380.91
587.077	361.92
587.278	419.27
587.48	375.48
587.681	488.05
587.883	400.09
588.084	350.68
588.285	393.5
588.487	391.95
588.688	412.29
588.89	350.68
589.091	332.28
589.292	390.01
589.494	374.51
589.695	352.43
589.896	308.45
590.098	296.82
590.299	366.38
590.5	318.33
590.702	302.25
590.903	346.03
591.104	393.89
591.305	326.27
591.507	398.73
591.708	362.69
591.909	351.26
592.11	452.21
592.311	395.24
592.512	350.1
592.714	329.18
592.915	320.26
593.116	329.18
593.317	364.24
593.518	352.04
593.719	358.43
593.92	376.26
594.121	424.89
594.322	359.21
594.523	373.93
594.724	304.76
594.925	343.71
595.126	376.84
595.327	384.39
595.528	362.89
595.729	366.38
595.929	367.15
596.13	364.24
596.331	365.41
596.532	351.65
596.733	441.55
596.934	400.48
597.135	411.91
597.335	377.42
597.536	338.48
597.737	370.06
597.938	347.39
598.138	404.54
598.339	340.41
598.54	379.94
598.74	366.76
598.941	384.98
599.142	433.03
599.342	362.11
599.543	323.17
599.744	352.23
599.944	353.78
600.145	351.65
600.345	349.91
600.546	446.01
600.746	424.69
600.947	456.27
601.147	370.06
601.348	401.83
601.548	344.48
601.749	374.32
601.949	327.63
602.15	362.89
602.35	355.72
602.551	412.68
602.751	330.53
602.951	345.45
603.152	302.25
603.352	392.34
603.552	338.86
603.753	400.48
603.953	378.58
604.153	377.42
604.354	347.2
604.554	351.46
604.754	351.65
604.954	342.35
605.155	364.63
605.355	342.55
605.555	409.39
605.755	403.96
605.955	364.63
606.155	409.39
606.356	354.94
606.556	431.67
606.756	391.18
606.956	321.23
607.156	430.51
607.356	335.57
607.556	383.81
607.756	377.81
607.956	403.58
608.156	411.91
608.356	380.91
608.556	380.52
608.756	384.78
608.956	324.53
609.156	360.37
609.356	347.58
609.556	333.05
609.755	322.78
609.955	329.18
610.155	363.08
610.355	340.03
610.555	344.29
610.755	377.42
610.954	281.13
611.154	373.74
611.354	392.34
611.554	326.46
611.753	343.71
611.953	296.82
612.153	367.93
612.352	366.96
612.552	347.58
612.752	285.78
612.951	368.51
613.151	323.75
613.351	292.17
613.55	350.88
613.75	393.11
613.949	369.86
614.149	357.85
614.348	350.29
614.548	317.75
614.747	296.82
614.947	314.45
615.146	284.23
615.346	376.06
615.545	333.05
615.745	347.58
615.944	382.65
616.144	347.58
616.343	392.53
616.542	287.33
616.742	359.79
616.941	350.1
617.14	298.18
617.34	334.6
617.539	299.53
617.738	310.38
617.938	358.43
618.137	305.54
618.336	304.57
618.535	329.95
618.734	332.08
618.934	332.08
619.133	334.41
619.332	352.23
619.531	332.47
619.73	325.11
619.929	360.18
620.128	358.04
620.328	372.19
620.527	284.03
620.726	307.48
620.925	329.56
621.124	309.22
621.323	333.25
621.522	282.68
621.721	278.8
621.92	272.02
622.119	360.76
622.318	302.63
622.517	339.06
622.715	308.64
622.914	246.83
623.113	292.95
623.312	282.29
623.511	308.83
623.71	295.85
623.909	289.26
624.107	362.89
624.306	272.41
624.505	293.53
624.704	283.26
624.902	286.36
625.101	336.35
625.3	331.89
625.499	256.72
625.697	284.03
625.896	264.08
626.095	300.31
626.293	266.01
626.492	287.91
626.69	319.68
626.889	283.06
627.088	352.62
627.286	278.03
627.485	245.87
627.683	269.89
627.882	317.94
628.08	245.28
