Data from tests_FLMT105791__4__15-40-00-264.txt Node

Date: Mon Mar 20 15:40:00 GMT 2023
User: antho
Spectrometer: FLMT10579
Trigger mode: 0
Integration Time (sec): 1.000000E-1
Scans to average: 10
Electric dark correction enabled: true
Nonlinearity correction enabled: false
Boxcar width: 0
XAxis mode: Wavelengths
Number of Pixels in Spectrum: 3648
>>>>>Begin Spectral Data<<<<<
345.248	-148.65
345.464	-148.65
345.681	-148.65
345.898	-163.96
346.114	-156.6
346.331	-35.7
346.548	20.1
346.764	-18.65
346.981	-1.02
347.197	-12.84
347.414	23.59
347.631	-37.05
347.847	74.74
348.064	23.01
348.28	11.96
348.497	-33.18
348.713	-14.97
348.93	48.58
349.146	147.97
349.363	246.79
349.579	273.14
349.796	243.49
350.012	201.84
350.229	274.49
350.445	286.12
350.661	279.92
350.878	316.15
351.094	309.37
351.311	323.51
351.527	306.85
351.743	297.35
351.96	323.12
352.176	344.05
352.392	328.93
352.609	343.66
352.825	298.52
353.041	326.42
353.257	287.28
353.474	331.65
353.69	368.27
353.906	350.05
354.122	377.95
354.339	423.68
354.555	413.21
354.771	378.92
354.987	469.79
355.203	447.9
355.42	390.35
355.636	359.74
355.852	402.56
356.068	384.15
356.284	347.92
356.5	451
356.716	414.18
356.932	371.56
357.148	409.34
357.364	356.45
357.58	400.43
357.796	407.79
358.012	427.55
358.228	399.26
358.444	344.82
358.66	380.86
358.876	378.34
359.092	365.36
359.308	413.41
359.524	446.93
359.74	483.54
359.956	497.3
360.172	534.5
360.388	576.16
360.604	540.89
360.819	599.79
361.035	500.79
361.251	507.96
361.467	470.56
361.683	532.76
361.898	517.84
362.114	542.83
362.33	533.73
362.546	592.43
362.762	601.15
362.977	621.49
363.193	582.55
363.409	672.06
363.624	625.37
363.84	599.41
364.056	574.61
364.271	684.27
364.487	681.94
364.703	680.2
364.918	638.93
365.134	680.78
365.35	662.37
365.565	811.17
365.781	742.97
365.996	843.91
366.212	922.38
366.427	877.05
366.643	832.87
366.858	860.38
367.074	841.01
367.289	921.99
367.505	990.97
367.72	866.2
367.936	862.71
368.151	904.36
368.367	887.31
368.582	850.31
368.798	805.36
369.013	876.85
369.228	876.46
369.444	865.42
369.659	917.93
369.874	895.06
370.09	998.14
370.305	945.24
370.52	970.43
370.736	989.42
370.951	932.26
371.166	950.09
371.381	965.39
371.597	960.16
371.812	914.44
372.027	928
372.242	952.8
372.458	991.55
372.673	869.1
372.888	883.25
373.103	896.81
373.318	959.39
373.533	907.66
373.749	823.38
373.964	752.66
374.179	819.11
374.394	763.7
374.609	845.08
374.824	804.58
375.039	869.68
375.254	803.42
375.469	892.93
375.684	899.13
375.899	1015.38
376.114	1012.47
376.329	1029.91
376.544	999.3
376.759	1009.96
376.974	986.9
377.189	1003.56
377.404	1033.79
377.619	1134.73
377.834	1101.4
378.049	1175.22
378.264	1217.85
378.478	1320.34
378.693	1304.84
378.908	1322.66
379.123	1293.41
379.338	1274.61
379.553	1188.98
379.767	1135.89
379.982	1115.35
380.197	1132.21
380.412	1113.22
380.626	1199.25
380.841	1310.65
381.056	1325.38
381.271	1395.13
381.485	1314.91
381.7	1252.33
381.915	1274.42
382.129	1145.19
382.344	1107.6
382.559	1050.26
382.773	1054.32
382.988	886.73
383.202	971.01
383.417	912.31
383.632	953.38
383.846	889.06
384.061	913.28
384.275	909.4
384.49	1033.98
384.704	1146.94
384.919	1235.87
385.133	1323.05
385.348	1455.96
385.562	1348.63
385.777	1399.78
385.991	1305.23
386.206	1284.88
386.42	1277.33
386.634	1375.75
386.849	1355.02
387.063	1435.81
387.277	1442.79
387.492	1396.29
387.706	1367.03
387.92	1383.11
388.135	1464.49
388.349	1474.76
388.563	1437.36
388.778	1443.56
388.992	1435.42
389.206	1508.08
389.42	1605.34
389.635	1602.82
389.849	1728.56
390.063	1851.59
390.277	1869.22
390.491	1918.44
390.706	1889.37
390.92	1880.27
391.134	1916.11
391.348	1950.6
391.562	2014.92
391.776	2135.05
391.99	2125.36
392.205	2146.86
392.419	2013.18
392.633	1944.4
392.847	1825.05
393.061	1601.47
393.275	1544.12
393.489	1277.13
393.703	1092.49
393.917	1038.63
394.131	1064.59
394.345	1247.3
394.559	1489.48
394.773	1679.16
394.986	1931.03
395.2	2049.02
395.414	2250.71
395.628	2265.44
395.842	2362.51
396.056	2351.66
396.27	2243.35
396.484	2153.26
396.697	1920.37
396.911	1702.41
397.125	1453.25
397.339	1338.36
397.553	1387.38
397.766	1596.23
397.98	1888.6
398.194	2232.31
398.408	2456.09
398.621	2720.74
398.835	2873.8
399.049	2968.74
399.262	3090.41
399.476	3187.48
399.69	3215.96
399.903	3290.94
400.117	3228.17
400.331	3307.6
400.544	3356.82
400.758	3473.65
400.971	3416.88
401.185	3469.58
401.398	3409.52
401.612	3617.21
401.826	3668.17
402.039	3705.56
402.253	3693.16
402.466	3812.12
402.68	3809.8
402.893	3897.95
403.106	3847.38
403.32	3716.22
403.533	3775.5
403.747	3662.55
403.96	3744.7
404.174	3847.19
404.387	3839.25
404.6	3866.18
404.814	3938.83
405.027	3749.15
405.24	3751.67
405.454	3773.18
405.667	3890.78
405.88	3952.4
406.094	3980.88
406.307	3964.41
406.52	3773.18
406.733	3696.65
406.947	3735.4
407.16	3876.64
407.373	3952.78
407.586	3939.03
407.799	4015.56
408.012	3991.34
408.226	4011.68
408.439	4202.72
408.652	4187.8
408.865	4349.58
409.078	4474.74
409.291	4485.39
409.504	4472.61
409.717	4592.34
409.93	4490.04
410.143	4212.99
410.357	4007.61
410.57	3859.78
410.783	3892.72
410.996	3969.44
411.209	4187.02
411.421	4498.96
411.634	4691.73
411.847	4692.51
412.06	4727.77
412.273	4870.56
412.486	4786.09
412.699	4855.84
412.912	4912.41
413.125	4756.83
413.338	4766.52
413.55	4722.73
413.763	4673.13
413.976	4707.62
414.189	4755.86
414.402	4802.75
414.615	4998.24
414.827	4860.29
415.04	4866.88
415.253	4845.76
415.466	5005.02
415.678	5014.71
415.891	4920.94
416.104	4904.66
416.316	4963.37
416.529	5046.1
416.742	5261.93
416.954	5261.93
417.167	5204.58
417.38	5101.12
417.592	5009.48
417.805	4876.38
418.017	4945.35
418.23	4937.6
418.442	4894.39
418.655	5002.12
418.868	4919.77
419.08	5020.52
419.293	5090.85
419.505	5198.38
419.718	5100.35
419.93	5186.37
420.142	5118.56
420.355	5084.85
420.567	4995.92
420.78	5091.24
420.992	5161.57
421.205	5308.63
421.417	5531.43
421.629	5571.15
421.842	5538.02
422.054	5555.07
422.266	5599.44
422.479	5555.85
422.691	5287.31
422.903	5251.08
423.115	5123.98
423.328	5083.3
423.54	5075.35
423.752	5216.98
423.964	5439.99
424.177	5441.92
424.389	5422.16
424.601	5506.83
424.813	5579.1
425.025	5594.21
425.238	5581.62
425.45	5546.35
425.662	5496.17
425.874	5745.33
426.086	5544.61
426.298	5568.25
426.51	5550.42
426.722	5552.36
426.934	5678.68
427.146	5636.06
427.358	5602.73
427.57	5555.07
427.782	5364.62
427.994	5334.01
428.206	5339.04
428.418	5739.52
428.63	5845.11
428.842	5865.46
429.054	5663.38
429.266	5520.39
429.478	5469.82
429.69	5391.94
429.902	5272.98
430.114	5268.13
430.325	4940.12
430.537	4696.19
430.749	4526.08
430.961	4255.42
431.173	4321.29
431.384	4425.53
431.596	4515.04
431.808	5136.19
432.02	5756.18
432.231	6327.35
432.443	6652.65
432.655	6452.32
432.867	6336.45
433.078	6322.89
433.29	6335.1
433.502	6472.85
433.713	6739.45
433.925	6897.35
434.136	6660.59
434.348	6197.34
434.56	6004.37
434.771	6188.04
434.983	6074.31
435.194	6494.55
435.406	6913.24
435.617	6901.62
435.829	7042.47
436.04	7047.89
436.252	6933.78
436.463	7266.25
436.675	7544.47
436.886	7639.02
437.098	7715.93
437.309	7701.99
437.521	7512.89
437.732	7334.45
437.943	7256.37
438.155	7247.26
438.366	7075.99
438.578	7190.69
438.789	6855.7
439	6755.92
439.211	6744.1
439.423	6844.07
439.634	7104.86
439.845	7382.5
440.057	7456.31
440.268	7778.52
440.479	7736.67
440.69	7676.02
440.902	7470.46
441.113	7447.4
441.324	7590.77
441.535	7890.89
441.746	8113.12
441.957	8109.63
442.168	8230.53
442.38	8324.69
442.591	8416.72
442.802	8220.45
443.013	8516.3
443.224	8616.47
443.435	8441.32
443.646	8427.96
443.857	8301.83
444.068	8468.26
444.279	8314.23
444.49	8779.99
444.701	8573.65
444.912	8885.01
445.123	8862.72
445.334	8572.1
445.545	8743.38
445.756	8504.87
445.967	8448.11
446.178	8235.37
446.388	8117.57
446.599	8186.93
446.81	8342.51
447.021	8269.47
447.232	8581.6
447.443	8810.03
447.653	8984.59
447.864	9227.16
448.075	9166.13
448.286	9027.41
448.496	8990.99
448.707	9122.54
448.918	8830.37
449.129	9008.81
449.339	9134.36
449.55	9190.16
449.761	9124.48
449.971	9026.63
450.182	9265.53
450.393	9364.72
450.603	9302.92
450.814	9690.03
451.024	9658.83
451.235	9958.17
451.446	9916.52
451.656	9948.87
451.867	9825.45
452.077	9489.88
452.288	9715.02
452.498	9533.87
452.709	9541.23
452.919	9221.74
453.13	9058.6
453.34	8939.25
453.55	8694.36
453.761	9018.89
453.971	8902.06
454.182	9182.99
454.392	9211.66
454.602	9634.23
454.813	9782.83
455.023	9493.57
455.233	9381.58
455.444	9568.55
455.654	9170.4
455.864	9400.18
456.075	9541.81
456.285	9500.73
456.495	9614.66
456.705	9705.53
456.916	9992.85
457.126	10049.04
457.336	9907.99
457.546	9775.66
457.756	9977.35
457.967	10040.9
458.177	9862.85
458.387	9900.63
458.597	9670.65
458.807	9915.93
459.017	9664.26
459.227	9689.83
459.437	9650.5
459.647	9906.83
459.857	9850.84
460.068	10052.33
460.278	10017.85
460.488	9891.91
460.698	10056.6
460.908	10116.08
461.117	10348.96
461.327	10439.25
461.537	10530.89
461.747	10522.75
461.957	10531.08
462.167	10680.27
462.377	10595.21
462.587	10561.5
462.797	10731.61
463.007	10602.19
463.216	10904.24
463.426	11186.14
463.636	10924.2
463.846	10590.37
464.056	10670
464.265	10556.46
464.475	10627.96
464.685	10878.47
464.895	10790.7
465.104	10449.13
465.314	10874.98
465.524	10711.65
465.733	10614.01
465.943	10994.91
466.153	11070.86
466.362	11201.84
466.572	11169.48
466.782	10975.15
466.991	11197.77
467.201	10966.24
467.41	10720.57
467.62	11035.79
467.829	11091.4
468.039	11254.34
468.249	11278.37
468.458	11506.21
468.668	11417.48
468.877	11592.24
469.086	11627.11
469.296	12008.4
469.505	12074.86
469.715	11894.68
469.924	11754.98
470.134	12033.2
470.343	11678.07
470.552	11758.28
470.762	11741.03
470.971	11810.01
471.18	11929.55
471.39	12170.38
471.599	11924.51
471.808	12160.11
472.018	12488.9
472.227	12683.81
472.436	13106.18
472.645	13205.57
472.855	13115.86
473.064	13463.25
473.273	13548.31
473.482	12958.15
473.691	13316.2
473.901	13145.7
474.11	13036.23
474.319	13414.82
474.528	13394.08
474.737	14046.82
474.946	13853.65
475.155	14114.24
475.364	14267.11
475.573	14047.98
475.783	14432.96
475.992	14273.7
476.201	14185.15
476.41	14481.78
476.619	14210.92
476.828	14340.15
477.037	14229.33
477.245	14293.65
477.454	14494.57
477.663	14887.29
477.872	15296.88
478.081	15621.4
478.29	15528.99
478.499	15644.65
478.708	16047.84
478.917	15902.53
479.125	15509.42
479.334	15607.45
479.543	16067.99
479.752	16183.85
479.961	16173.78
480.169	16565.15
480.378	16656.98
480.587	17052.42
480.796	16723.05
481.004	16774.59
481.213	16959.42
481.422	16954.38
481.63	17316.5
481.839	17438.56
482.048	17683.45
482.256	17592.97
482.465	18053.32
482.674	17892.12
482.882	17932.03
483.091	18110.86
483.299	17737.32
483.508	18222.65
483.716	18445.85
483.925	18499.13
484.134	17939.78
484.342	18402.64
484.551	18330.57
484.759	18084.71
484.967	18873.26
485.176	18648.32
485.384	18738.21
485.593	18465.03
485.801	18318.36
486.01	17751.85
486.218	16806.94
486.426	16164.48
486.635	15618.11
486.843	15643.3
487.051	16147.81
487.26	16474.08
487.468	17016.77
487.676	17503.66
487.885	18065.91
488.093	18415.24
488.301	19014.5
488.509	18970.91
488.717	19412.26
488.926	19511.27
489.134	19180.15
489.342	19180.93
489.55	19054.02
489.758	19431.25
489.967	19980.52
490.175	19796.46
490.383	20774.89
490.591	21125.96
490.799	20909.54
491.007	20779.54
491.215	20939.18
491.423	20716.57
491.631	20809.95
491.839	20561.57
492.047	20461.02
492.255	20032.64
492.463	20158.96
492.671	19651.35
492.879	20301.17
493.087	20506.35
493.295	20635.58
493.503	21033.15
493.711	21664.77
493.919	21374.15
494.127	21327.65
494.334	21173.04
494.542	21372.79
494.75	21939.5
494.958	21518.1
495.166	22251.82
495.374	22318.28
495.581	22546.32
495.789	22435.49
495.997	22429.29
496.205	21608
496.412	21970.69
496.62	22413.21
496.828	22273.52
497.035	22495.55
497.243	22583.71
497.451	22708.29
497.658	22634.47
497.866	22561.82
498.074	22840.04
498.281	22416.7
498.489	22468.43
498.696	22037.54
498.904	21839.91
499.112	21720.76
499.319	22204.55
499.527	22391.9
499.734	22699.96
499.942	22573.63
500.149	22646.87
500.357	22666.05
500.564	22271.39
500.771	22105.15
500.979	21809.11
501.186	21581.26
501.394	22084.23
501.601	21489.81
501.808	21539.61
502.016	21700.8
502.223	21426.65
502.43	21650.62
502.638	21665.93
502.845	22032.11
503.052	22406.82
503.26	22342.49
503.467	22559.3
503.674	22770.09
503.881	22719.91
504.089	22520.94
504.296	22324.67
504.503	22137.32
504.71	21942.99
504.917	22328.35
505.125	22402.94
505.332	22711.78
505.539	22643.38
505.746	23197.31
505.953	23487.54
506.16	23587.51
506.367	23683.03
506.574	24055.03
506.781	24029.26
506.988	23822.53
507.195	23628.98
507.402	23643.12
507.609	23520.67
507.816	23162.43
508.023	23183.16
508.23	22959.58
508.437	22629.24
508.644	22728.44
508.851	22941.75
509.058	23435.04
509.265	23354.44
509.472	23725.66
509.679	23839.97
509.885	23801.02
510.092	23787.07
510.299	23740.57
510.506	23267.44
510.713	23392.41
510.92	23312.59
511.126	23471.07
511.333	23683.23
511.54	23762.27
511.746	23844.62
511.953	24041.85
512.16	24296.24
512.367	24241.99
512.573	23959.9
512.78	23855.66
512.987	23670.05
513.193	23347.85
513.4	23150.03
513.606	23357.15
513.813	23353.27
514.02	23162.05
514.226	23101.6
514.433	23221.14
514.639	22941.75
514.846	23034.75
515.052	22949.7
515.259	23122.71
515.465	23183.55
515.672	23352.89
515.878	23431.55
516.085	23802.77
516.291	23592.16
516.497	23700.08
516.704	22867.94
516.91	22397.32
517.117	21549.87
517.323	20764.23
517.529	20467.02
517.736	20392.04
517.942	20629.77
518.148	21161.61
518.354	21442.34
518.561	21513.64
518.767	21296.07
518.973	21354.77
519.179	21738.58
519.386	22042.77
519.592	22097.79
519.798	22117.36
520.004	22998.14
520.21	23100.24
520.417	23246.91
520.623	23508.85
520.829	23519.9
521.035	23520.48
521.241	23362.96
521.447	23578.8
521.653	23963
521.859	23705.31
522.065	23913.98
522.271	24120.71
522.477	23941.3
522.683	24410.36
522.889	23775.64
523.095	23525.52
523.301	23570.85
523.507	23289.53
523.713	23389.31
523.919	23415.47
524.125	23963.19
524.331	24330.53
524.537	24689.74
524.742	24760.85
524.948	24786.03
525.154	24895.31
525.36	24778.28
525.566	24329.57
525.772	24633.17
525.977	24531.84
526.183	24348.94
526.389	24425.86
526.595	23816.14
526.8	23472.82
527.006	22724.56
527.212	22163.47
527.417	22077.25
527.623	22035.99
527.829	22443.82
528.034	22971.59
528.24	23069.24
528.446	23686.33
528.651	24089.51
528.857	24242.38
529.062	24350.3
529.268	24799.4
529.473	24991.6
529.679	25355.07
529.884	25259.55
530.09	24948.39
530.295	24499.09
530.501	24829.82
530.706	24970.09
530.912	24963.89
531.117	25096.42
531.323	25099.91
531.528	25442.64
531.733	25464.15
531.939	25368.63
532.144	25283.58
532.35	25126.45
532.555	25133.23
532.76	24508.39
532.966	24331.31
533.171	24020.35
533.376	23811.68
533.581	23791.53
533.787	24164.11
533.992	24559.54
534.197	24087.77
534.402	24756.39
534.607	24718.8
534.813	24594.61
535.018	24709.7
535.223	25015.43
535.428	24864.89
535.633	25080.14
535.838	25488.17
536.043	25657.32
536.249	25891.17
536.454	25610.04
536.659	25765.43
536.864	25582.14
537.069	25234.56
537.274	24960.6
537.479	24965.06
537.684	24818.97
537.889	24796.11
538.094	25423.85
538.299	25202.2
538.504	25518.01
538.708	25252.38
538.913	25672.04
539.118	25712.53
539.323	25468.41
539.528	25291.13
539.733	25010.59
539.938	25078.4
540.142	24868.96
540.347	24766.66
540.552	24599.65
540.757	24247.03
540.962	24481.66
541.166	24237.73
541.371	24146.09
541.576	24281.52
541.781	24497.74
541.985	24940.06
542.19	24623.48
542.395	25441.87
542.599	25334.34
542.804	24882.52
543.008	25235.92
543.213	25260.13
543.418	24856.75
543.622	25060.77
543.827	24778.09
544.031	25069.29
544.236	25272.92
544.44	25602.29
544.645	25608.88
544.849	25432.96
545.054	25630.19
545.258	25761.75
545.463	25628.25
545.667	25336.28
545.872	25755.35
546.076	25555.79
546.281	25568
546.485	25499.02
546.689	25508.91
546.894	25403.51
547.098	25656.93
547.302	25582.92
547.507	25410.48
547.711	25696.84
547.915	25415.52
548.119	25119.28
548.324	25053.02
548.528	25095.84
548.732	25165.2
548.936	25445.55
549.141	25293.46
549.345	25453.69
549.549	25591.64
549.753	25894.07
549.957	25665.65
550.161	25805.34
550.366	25761.94
550.57	25662.93
550.774	25538.94
550.978	25735.59
551.182	25490.89
551.386	25354.68
551.59	25403.89
551.794	25419.98
551.998	25579.62
552.202	25543.2
552.406	25609.07
552.61	25909.96
552.814	25736.75
553.018	25503.29
553.222	25258.97
553.426	25287.84
553.63	25546.3
553.833	25547.65
554.037	25335.11
554.241	25333.56
554.445	25662.55
554.649	25543
554.853	25380.06
555.056	25705.17
555.26	25849.51
555.464	25606.36
555.668	25701.3
555.871	25669.72
556.075	25765.23
556.279	25563.35
556.483	25441.48
556.686	25203.56
556.89	25305.28
557.094	25174.11
557.297	24839.7
557.501	24931.73
557.704	24640.72
557.908	24950.53
558.112	24886.78
558.315	25041.01
558.519	24950.33
558.722	24619.41
558.926	24699.04
559.129	24027.13
559.333	24249.74
559.536	24183.48
559.74	24071.88
559.943	23890.53
560.147	24154.42
560.35	24030.81
560.553	24368.7
560.757	24296.63
560.96	24399.7
561.164	24690.9
561.367	24918.56
561.57	24864.31
561.774	24604.69
561.977	24491.54
562.18	24320.85
562.384	24520.99
562.587	24338.87
562.79	24564
562.993	24343.32
563.197	24395.44
563.4	24671.14
563.603	24671.53
563.806	24700.79
564.009	24659.52
564.212	24671.92
564.416	24387.3
564.619	24379.17
564.822	24215.26
565.025	24483.4
565.228	24448.91
565.431	24691.87
565.634	24296.82
565.837	24131.56
566.04	23920.37
566.243	23850.04
566.446	23545.66
566.649	23926.77
566.852	23623.94
567.055	23926.96
567.258	23888.79
567.461	24119.74
567.664	24326.47
567.867	24348.75
568.07	23982.37
568.273	24280.35
568.475	24484.95
568.678	23800.64
568.881	23916.5
569.084	23554.38
569.287	23349.4
569.489	23611.93
569.692	23710.35
569.895	23747.55
570.098	23537.72
570.3	23580.93
570.503	23459.64
570.706	23447.63
570.909	23275.58
571.111	22946.02
571.314	22906.11
571.516	22930.32
571.719	23036.88
571.922	23054.52
572.124	23241.09
572.327	23382.14
572.529	23404.42
572.732	23682.06
572.935	23716.74
573.137	24207.51
573.34	23719.65
573.542	23993.41
573.745	23965.9
573.947	23933.16
574.15	23681.48
574.352	23817.1
574.554	24019.76
574.757	23744.84
574.959	23347.27
575.162	23700.08
575.364	23353.47
575.566	23509.43
575.769	23126.59
575.971	23258.53
576.173	22863.09
576.376	23025.65
576.578	23246.13
576.78	23176
576.982	23140.73
577.185	23232.96
577.387	23200.99
577.589	23526.48
577.791	23216.29
577.993	23352.31
578.196	23340.1
578.398	22875.69
578.6	22862.9
578.802	22842.75
579.004	22630.21
579.206	22779.78
579.408	23056.45
579.61	22831.51
579.812	23217.84
580.014	22822.79
580.216	23003.95
580.418	23242.26
580.62	23259.31
580.822	23235.48
581.024	23144.61
581.226	23283.14
581.428	23165.92
581.63	23544.11
581.832	23330.02
582.034	23470.3
582.236	23290.31
582.438	23570.27
582.64	23642.93
582.841	23595.65
583.043	23987.02
583.245	23615.99
583.447	23834.15
583.649	23760.14
583.85	23744.64
584.052	23655.91
584.254	23539.27
584.456	23588.29
584.657	23532.1
584.859	23742.12
585.061	23522.22
585.262	23398.61
585.464	23301.54
585.666	23421.47
585.867	22998.33
586.069	22872.97
586.27	22912.89
586.472	22887.89
586.674	22870.26
586.875	22788.89
587.077	22954.54
587.278	23012.08
587.48	22965.39
587.681	23137.44
587.883	23098.69
588.084	22801.48
588.285	22869.49
588.487	22513.77
588.688	22566.85
588.89	21847.08
589.091	21465.79
589.292	21063.96
589.494	20426.92
589.695	20146.76
589.896	19971.03
590.098	20113.24
590.299	20196.94
590.5	20453.85
590.702	20846.57
590.903	21097.47
591.104	21398.56
591.305	21810.85
591.507	21626.4
591.708	21753.5
591.909	21768.03
592.11	21627.57
592.311	21845.92
592.512	21562.08
592.714	21622.72
592.915	21837.78
593.116	21561.5
593.317	21955.58
593.518	21860.26
593.719	21953.64
593.92	21985.22
594.121	21927.1
594.322	21850.57
594.523	21781.6
594.724	21644.81
594.925	21713.59
595.126	21469.28
595.327	21460.56
595.528	21699.64
595.729	21580.87
595.929	21663.6
596.13	21728.32
596.331	21979.61
596.532	21821.7
596.733	22135.77
596.934	22119.49
597.135	22193.89
597.335	21988.32
597.536	22114.84
597.737	21970.11
597.938	21875.95
