Data from tests_FLMT105791__5__15-40-01-264.txt Node

Date: Mon Mar 20 15:40:01 GMT 2023
User: antho
Spectrometer: FLMT10579
Trigger mode: 0
Integration Time (sec): 1.000000E-1
Scans to average: 10
Electric dark correction enabled: true
Nonlinearity correction enabled: false
Boxcar width: 0
XAxis mode: Wavelengths
Number of Pixels in Spectrum: 3648
>>>>>Begin Spectral Data<<<<<
345.248	-142.1
345.464	-142.1
345.681	-142.1
345.898	-170.58
346.114	-143.45
346.331	-49.68
346.548	21.04
346.764	-21.39
346.981	-6.67
347.197	-7.25
347.414	3.79
347.631	-23.52
347.847	76.06
348.064	10.38
348.28	28.01
348.497	-34.18
348.713	3.41
348.93	28.01
349.146	147.36
349.363	240.94
349.579	236.1
349.796	236.87
350.012	211.1
350.229	298.1
350.445	271.17
350.661	267.29
350.878	307.01
351.094	320.76
351.311	323.86
351.527	307.01
351.743	272.52
351.96	327.16
352.176	358.16
352.392	354.86
352.609	333.75
352.825	277.56
353.041	319.41
353.257	307.59
353.474	316.31
353.69	369.78
353.906	351.38
354.122	345.37
354.339	446.12
354.555	391.09
354.771	389.93
354.987	463.94
355.203	457.55
355.42	421.71
355.636	398.07
355.852	397.29
356.068	409.31
356.284	373.27
356.5	447.09
356.716	411.83
356.932	366.68
357.148	436.24
357.364	379.47
357.58	401.56
357.796	428.88
358.012	396.71
358.228	393.81
358.444	315.53
358.66	398.84
358.876	371.72
359.092	329.1
359.308	388.96
359.524	448.83
359.74	462.78
359.956	456.78
360.172	553.46
360.388	595.3
360.604	515.67
360.819	608.87
361.035	518.97
361.251	538.15
361.467	476.54
361.683	534.08
361.898	533.31
362.114	560.24
362.33	521.68
362.546	578.25
362.762	586.2
362.977	640.64
363.193	592.79
363.409	635.8
363.624	605.38
363.84	611.97
364.056	600.92
364.271	699.54
364.487	649.17
364.703	683.27
364.918	631.73
365.134	671.25
365.35	687.14
365.565	816.56
365.781	749.91
365.996	817.34
366.212	912.86
366.427	866.55
366.643	882.24
366.858	829.35
367.074	839.04
367.289	929.32
367.505	964.2
367.72	870.43
367.936	847.37
368.151	902.98
368.367	875.85
368.582	845.82
368.798	795.25
369.013	908.79
369.228	877.01
369.444	907.82
369.659	911.5
369.874	911.89
370.09	1005.66
370.305	921.96
370.52	964.2
370.736	1031.24
370.951	915.18
371.166	928.55
371.381	945.02
371.597	972.14
371.812	928.55
372.027	914.79
372.242	944.82
372.458	982.41
372.673	864.42
372.888	853.38
373.103	903.36
373.318	975.82
373.533	885.15
373.749	852.99
373.964	764.83
374.179	822.18
374.394	787.89
374.609	856.09
374.824	785.76
375.039	868.1
375.254	802.23
375.469	907.24
375.684	908.98
375.899	1011.86
376.114	1051.97
376.329	1032.79
376.544	1001.4
376.759	1011.86
376.974	964.78
377.189	992.87
377.404	1026.59
377.619	1144.38
377.834	1104.47
378.049	1159.3
378.264	1226.15
378.478	1323.02
378.693	1301.13
378.908	1324.38
379.123	1271.87
379.338	1264.31
379.553	1165.31
379.767	1139.73
379.982	1109.51
380.197	1132.18
380.412	1106.22
380.626	1209.48
380.841	1315.85
381.056	1318.18
381.271	1435.78
381.485	1346.85
381.7	1260.44
381.915	1244.75
382.129	1109.9
382.344	1097.3
382.559	1043.64
382.773	1046.93
382.988	924.29
383.202	923.9
383.417	877.4
383.632	947.34
383.846	901.43
384.061	884.38
384.275	889.22
384.49	1055.26
384.704	1147.68
384.919	1201.54
385.133	1314.3
385.348	1408.27
385.562	1329.99
385.777	1376.88
385.991	1313.72
386.206	1275.74
386.42	1288.14
386.634	1346.27
386.849	1373.59
387.063	1438.1
387.277	1426.09
387.492	1371.65
387.706	1385.21
387.92	1399.36
388.135	1444.11
388.349	1436.36
388.563	1461.74
388.778	1455.15
388.992	1453.22
389.206	1485.38
389.42	1604.15
389.635	1584.97
389.849	1765.73
390.063	1873.07
390.277	1855.24
390.491	1872.68
390.706	1868.22
390.92	1894.19
391.134	1907.36
391.348	1969.75
391.562	2025.35
391.776	2115.83
391.99	2095.3
392.205	2172.79
392.419	2021.48
392.633	1937.59
392.847	1811.26
393.061	1655.88
393.275	1534.2
393.489	1255.4
393.703	1048.87
393.917	1067.66
394.131	1053.9
394.345	1286.59
394.559	1494.87
394.773	1693.08
394.986	1964.52
395.2	2056.16
395.414	2210.19
395.628	2277.61
395.842	2400.06
396.056	2400.64
396.27	2217.16
396.484	2160.78
396.697	1935.26
396.911	1673.9
397.125	1472.01
397.339	1354.41
397.553	1409.82
397.766	1618.87
397.98	1921.31
398.194	2287.3
398.408	2477.17
398.621	2724.59
398.835	2893.53
399.049	2944.49
399.262	3139.01
399.476	3164.59
399.69	3227.75
399.903	3307.96
400.117	3243.25
400.331	3320.17
400.544	3394.37
400.758	3488.14
400.971	3458.89
401.185	3506.74
401.398	3456.18
401.612	3613.89
401.826	3641.98
402.039	3689.45
402.253	3762.88
402.466	3839.41
402.68	3859.17
402.893	3949.65
403.106	3799.11
403.32	3727.81
403.533	3718.7
403.747	3634.42
403.96	3793.88
404.174	3831.85
404.387	3877.77
404.6	3886.68
404.814	3902.57
405.027	3796.59
405.24	3761.13
405.454	3756.48
405.667	3895.98
405.88	3911.87
406.094	4003.9
406.307	3913.81
406.52	3781.67
406.733	3733.62
406.947	3763.27
407.16	3855.49
407.373	3919.23
407.586	3954.88
407.799	3982.78
408.012	3971.93
408.226	4016.11
408.439	4228.84
408.652	4209.66
408.865	4407.09
409.078	4525.27
409.291	4513.84
409.504	4509.58
409.717	4584.37
409.93	4502.02
410.143	4264.1
410.357	4068.61
410.57	3870.8
410.783	3937.25
410.996	3988.98
411.209	4166.07
411.421	4552.98
411.634	4657.99
411.847	4717.28
412.06	4772.49
412.273	4872.27
412.486	4846.7
412.699	4853.48
412.912	4928.27
413.125	4770.94
413.338	4775.4
413.55	4658.57
413.763	4663.22
413.976	4690.73
414.189	4759.51
414.402	4884.67
414.615	5079.97
414.827	4859.49
415.04	4906.57
415.253	4928.27
415.466	5011.77
415.678	5044.71
415.891	4941.44
416.104	4850.38
416.316	4927.69
416.529	5064.47
416.742	5245.82
416.954	5275.46
417.167	5219.28
417.38	5159.6
417.592	5016.42
417.805	4923.42
418.017	4894.36
418.23	4932.14
418.442	4889.13
418.655	4984.65
418.868	4940.86
419.08	5021.85
419.293	5060.21
419.505	5181.69
419.718	5102.83
419.93	5185.76
420.142	5144.1
420.355	5071.45
420.567	4986.78
420.78	5114.07
420.992	5147.59
421.205	5350.83
421.417	5579.45
421.629	5641.06
421.842	5603.86
422.054	5542.64
422.266	5621.69
422.479	5528.3
422.691	5364.39
422.903	5317.89
423.115	5104
423.328	5095.67
423.54	5103.61
423.752	5212.11
423.964	5460.68
424.177	5500.4
424.389	5431.62
424.601	5554.07
424.813	5600.96
425.025	5641.26
425.238	5553.88
425.45	5588.75
425.662	5506.99
425.874	5775.52
426.086	5542.83
426.298	5653.85
426.51	5587.78
426.722	5581.2
426.934	5645.91
427.146	5634.28
427.358	5638.93
427.57	5616.46
427.782	5397.91
427.994	5317.89
428.206	5371.17
428.418	5756.34
428.63	5877.24
428.842	5848.95
429.054	5696.48
429.266	5580.42
429.478	5480.64
429.69	5479.67
429.902	5299.68
430.114	5289.61
430.325	4949.77
430.537	4724.45
430.749	4497.57
430.961	4292.39
431.173	4317
431.384	4401.28
431.596	4568.09
431.808	5147.98
432.02	5764.48
432.231	6267.84
432.443	6737.48
432.655	6468.36
432.867	6333.71
433.078	6273.65
433.29	6349.79
433.502	6544.12
433.713	6714.81
433.925	6874.26
434.136	6591.59
434.348	6192.86
434.56	6047.93
434.771	6218.24
434.983	6091.33
435.194	6577.64
435.406	6878.91
435.617	6891.9
435.829	7025.19
436.04	7080.61
436.252	6968.23
436.463	7280.17
436.675	7508.21
436.886	7660.3
437.098	7771.7
437.309	7809.48
437.521	7548.12
437.732	7318.33
437.943	7236.57
438.155	7253.62
438.366	7165.08
438.578	7208.87
438.789	6884.53
439	6744.84
439.211	6784.56
439.423	6836.48
439.634	7169.54
439.845	7408.62
440.057	7498.52
440.268	7752.71
440.479	7743.03
440.69	7715.32
440.902	7514.79
441.113	7485.34
441.324	7656.03
441.535	7884.46
441.746	8103.59
441.957	8158.62
442.168	8309.35
442.38	8352.94
442.591	8442.65
442.802	8202.6
443.013	8544.56
443.224	8662.75
443.435	8460.47
443.646	8430.25
443.857	8295.98
444.068	8434.7
444.279	8356.04
444.49	8738.69
444.701	8562.77
444.912	8957.82
445.123	8915.2
445.334	8556.96
445.545	8800.89
445.756	8499.8
445.967	8447.88
446.178	8270.02
446.388	8122.19
446.599	8221.2
446.81	8333.38
447.021	8322.53
447.232	8473.84
447.443	8713.12
447.653	8956.47
447.864	9120.18
448.075	9185.09
448.286	9079.11
448.496	9007.23
448.707	9102.55
448.918	8895.63
449.129	8999.87
449.339	9128.13
449.55	9150.79
449.761	9131.23
449.971	8985.72
450.182	9260.07
450.393	9396.47
450.603	9287
450.814	9676.24
451.024	9630.32
451.235	9982.36
451.446	10013.16
451.656	9832.4
451.867	9784.35
452.077	9499.15
452.288	9654.54
452.498	9523.95
452.709	9594.48
452.919	9238.95
453.13	9071.16
453.34	9003.55
453.55	8714.67
453.761	9106.62
453.971	8930.31
454.182	9164.55
454.392	9298.43
454.602	9650.08
454.813	9694.45
455.023	9486.17
455.233	9422.62
455.444	9553.4
455.654	9124.25
455.864	9404.41
456.075	9578.01
456.285	9488.88
456.495	9563.09
456.705	9723.71
456.916	9969.18
457.126	10032.73
457.336	9882
457.546	9767.88
457.756	9917.45
457.967	10124.18
458.177	9904.08
458.387	9952.71
458.597	9696
458.807	9849.83
459.017	9652.99
459.227	9631.87
459.437	9656.67
459.647	9898.47
459.857	9900.21
460.068	10109.46
460.278	10035.83
460.488	9985.46
460.698	10072.06
460.908	10063.34
461.117	10421.97
461.327	10392.71
461.537	10485.52
461.747	10528.72
461.957	10517.29
462.167	10678.88
462.377	10690.89
462.587	10533.76
462.797	10820.7
463.007	10710.85
463.216	10935.98
463.426	11144.45
463.636	10942.38
463.846	10676.55
464.056	10715.69
464.265	10529.31
464.475	10621.14
464.685	10921.06
464.895	10723.83
465.104	10527.95
465.314	10905.18
465.524	10617.85
465.733	10623.08
465.943	10933.85
466.153	11174.48
466.362	11215.95
466.572	11181.85
466.782	10970.08
466.991	11188.82
467.201	10972.21
467.41	10722.08
467.62	11176.03
467.829	11084
468.039	11338.01
468.249	11319.02
468.458	11616.23
468.668	11386.06
468.877	11662.53
469.086	11712.91
469.296	12003.92
469.505	12188.36
469.715	11880.89
469.924	11837.29
470.134	12048.67
470.343	11772.78
470.552	11806.68
470.762	11713.88
470.971	11869.46
471.18	11924.09
471.39	12087.81
471.599	11900.46
471.808	12149.23
472.018	12601.43
472.227	12731.24
472.436	13211.54
472.645	13240.22
472.855	13177.64
473.064	13559.9
473.273	13643.79
473.482	13075.14
473.691	13359.18
473.901	13237.89
474.11	13024.58
474.319	13468.06
474.528	13491.12
474.737	14188.42
474.946	13928.99
475.155	14128.94
475.364	14401.73
475.573	14135.33
475.783	14436.99
475.992	14386.62
476.201	14326.17
476.41	14477.68
476.619	14315.13
476.828	14286.65
477.037	14308.54
477.245	14377.51
477.454	14587.73
477.663	14998.86
477.872	15418.71
478.081	15619.05
478.29	15510.35
478.499	15809.31
478.708	16049.16
478.917	16012.55
479.125	15562.08
479.334	15644.62
479.543	16178.2
479.752	16219.47
479.961	16177.43
480.169	16580.42
480.378	16717.01
480.587	17085.91
480.796	16836.17
481.004	16894.87
481.213	17036.11
481.422	17159.53
481.63	17491.81
481.839	17448.6
482.048	17724.5
482.256	17682.84
482.465	18163.53
482.674	17887.44
482.882	17983.73
483.091	18133.69
483.299	17818.66
483.508	18296.83
483.716	18545.6
483.925	18518.86
484.134	18028.49
484.342	18378.39
484.551	18366.19
484.759	18130.98
484.967	18886.21
485.176	18664.36
485.384	18835.83
485.593	18552.96
485.801	18421.79
486.01	17795.21
486.218	16965.98
486.426	16225.09
486.635	15723.86
486.843	15733.55
487.051	16269.46
487.26	16534.7
487.468	17033.79
487.676	17537.34
487.885	18141.25
488.093	18494.06
488.301	19172.18
488.509	19124.9
488.717	19487.4
488.926	19516.47
489.134	19412.81
489.342	19344.81
489.55	19115.41
489.758	19452.53
489.967	20072.71
490.175	19961.89
490.383	20862.04
490.591	21206.33
490.799	21043.58
491.007	20886.45
491.215	20938.96
491.423	20794.03
491.631	20857.97
491.839	20680.89
492.047	20592.54
492.255	20192.45
492.463	20185.86
492.671	19688.51
492.879	20257.55
493.087	20605.32
493.295	20805.66
493.503	21153.63
493.711	21683.14
493.919	21485.91
494.127	21401.43
494.334	21286.15
494.542	21388.06
494.75	21964.66
494.958	21684.5
495.166	22321.15
495.374	22471.5
495.581	22661.56
495.789	22570.12
495.997	22536.4
496.205	21684.88
496.412	22082.65
496.62	22506.95
496.828	22245.2
497.035	22557.13
497.243	22640.25
497.451	22740.23
497.658	22776.84
497.866	22609.25
498.074	22987.64
498.281	22441.27
498.489	22497.07
498.696	22081.29
498.904	21893.36
499.112	21923.58
499.319	22345.17
499.527	22613.13
499.734	22787.5
499.942	22569.34
500.149	22714.46
500.357	22833.42
500.564	22251.79
500.771	22251.01
500.979	21901.69
501.186	21684.69
501.394	22206.65
501.601	21563.6
501.808	21622.3
502.016	21729.45
502.223	21681.59
502.43	21720.34
502.638	21768.97
502.845	22247.33
503.052	22407.17
503.26	22515.87
503.467	22735.96
503.674	22758.44
503.881	22888.25
504.089	22453.67
504.296	22378.5
504.503	22127.79
504.71	22080.9
504.917	22285.11
505.125	22523.03
505.332	22759.6
505.539	22729.18
505.746	23275.55
505.953	23513.47
506.16	23611.12
506.367	23692.3
506.574	24028.45
506.781	24028.06
506.988	23915.5
507.195	23779.49
507.402	23663.24
507.609	23589.03
507.816	23242.22
508.023	23225.76
508.23	23098.85
508.437	22851.82
508.644	22833.81
508.851	22988.03
509.058	23436.36
509.265	23588.45
509.472	23772.12
509.679	24008.49
509.885	23878.1
510.092	23923.63
510.299	23816.3
510.506	23334.06
510.713	23442.37
510.92	23434.81
511.126	23669.82
511.333	23774.84
511.54	23893.8
511.746	23957.54
511.953	24105.56
512.16	24519.41
512.367	24276.06
512.573	24089.09
512.78	24061.58
512.987	23782
513.193	23501.46
513.4	23214.91
513.606	23467.75
513.813	23544.86
514.02	23320.11
514.226	23225.56
514.433	23263.15
514.639	23035.88
514.846	23139.73
515.052	23090.91
515.259	23289.69
515.465	23367
515.672	23358.47
515.878	23473.75
516.085	23759.14
516.291	23697.14
516.497	23704.89
516.704	23025.61
516.91	22549.97
517.117	21543.84
517.323	20858.36
517.529	20491.21
517.736	20481.33
517.942	20681.08
518.148	21320.83
518.354	21567.67
518.561	21608.94
518.767	21463.82
518.973	21455.29
519.179	21806.56
519.386	22173.13
519.592	22263.03
519.798	22191.53
520.004	23162.01
520.21	23282.52
520.417	23390.44
520.623	23593.88
520.829	23552.41
521.035	23717.29
521.241	23455.15
521.447	23612.28
521.653	23901.93
521.859	23848.46
522.065	24019.34
522.271	24217.74
522.477	24131.91
522.683	24432.8
522.889	23868.42
523.095	23647.93
523.301	23745.39
523.507	23500.88
523.713	23518.7
523.919	23500.68
524.125	24079.6
524.331	24424.47
524.537	24803.25
524.742	24966.38
524.948	24843.16
525.154	25085.92
525.36	24892.56
525.566	24455.86
525.772	24835.41
525.977	24694.94
526.183	24452.76
526.389	24607.95
526.595	23842.07
526.8	23631.46
527.006	22790.41
527.212	22144.65
527.417	22047.97
527.623	22095.82
527.829	22348.08
528.034	23025.23
528.24	23006.63
528.446	23648.32
528.651	24179.57
528.857	24327.6
529.062	24438.03
529.268	24810.8
529.473	25107.24
529.679	25392.82
529.884	25283.93
530.09	25156.06
530.295	24545.76
530.501	24912.91
530.706	24933.44
530.912	25073.72
531.117	25191.9
531.323	25188.61
531.528	25726.84
531.733	25576.88
531.939	25428.47
532.144	25332.76
532.35	25198.88
532.555	25179.5
532.76	24500.42
532.966	24405.87
533.171	24110.41
533.376	23862.41
533.581	23932.93
533.787	24319.27
533.992	24599.42
534.197	24210.38
534.402	24888.49
534.607	24773.02
534.813	24678.08
535.018	24763.14
535.223	25111.89
535.428	24984.01
535.633	25244.6
535.838	25603.62
536.043	25711.34
536.249	25984.52
536.454	25756.48
536.659	25811.12
536.864	25676.08
537.069	25300.59
537.274	24981.11
537.479	24996.41
537.684	24886.56
537.889	24831.73
538.094	25418.78
538.299	25232.2
538.504	25506.16
538.708	25314.74
538.913	25794.07
539.118	25722.38
539.323	25487.95
539.528	25264.56
539.733	25011.91
539.938	25151.41
540.142	24825.14
540.347	24886.94
540.552	24669.17
540.757	24273.73
540.962	24612.02
541.166	24231.89
541.371	24255.72
541.576	24381.85
541.781	24399.86
541.985	25152.38
542.19	24650.77
542.395	25419.56
542.599	25532.9
542.804	25028.38
543.008	25467.22
543.213	25285.87
543.418	24976.84
543.622	25271.73
543.827	24855.94
544.031	25244.41
544.236	25382.74
544.44	25824.49
544.645	25711.92
544.849	25681.11
545.054	25775.28
545.258	25790.97
545.463	25797.36
545.667	25367.63
545.872	25879.51
546.076	25620.08
546.281	25564.87
546.485	25593.73
546.689	25614.66
546.894	25550.53
547.098	25774.69
547.302	25648.95
547.507	25661.93
547.711	25774.11
547.915	25517.01
548.119	25197.13
548.324	25137.85
548.528	25271.53
548.732	25329.66
548.936	25593.93
549.141	25460.63
549.345	25641.01
549.549	25706.11
549.753	25931.63
549.957	25780.89
550.161	25889.39
550.366	25964.76
550.57	25685.76
550.774	25633.26
550.978	25824.49
551.182	25537.94
551.386	25451.91
551.59	25577.46
551.794	25439.32
551.998	25637.33
552.202	25610.98
552.406	25738.08
552.61	25886.49
552.814	25843.67
553.018	25666
553.222	25439.51
553.426	25446.49
553.63	25585.6
553.833	25609.43
554.037	25366.86
554.241	25398.63
554.445	25677.05
554.649	25646.82
554.853	25448.23
555.056	25778.38
555.26	25956.04
555.464	25701.07
555.668	25787.29
555.871	25771.59
556.075	25855.1
556.279	25706.69
556.483	25611.37
556.686	25248.28
556.89	25449.59
557.094	25380.61
557.297	25003.39
557.501	24948.94
557.704	24651.54
557.908	25037.29
558.112	24932.86
558.315	25177.76
558.519	25013.46
558.722	24635.65
558.926	24670.92
559.129	24056.74
559.333	24505.65
559.536	24262.5
559.74	24041.43
559.943	23907.55
560.147	24235.57
560.35	24023.99
560.553	24416.33
560.757	24497.51
560.96	24495.77
561.164	24765.66
561.367	24966.57
561.57	24876.68
561.774	24708.7
561.977	24494.8
562.18	24581.79
562.384	24620.54
562.587	24443.07
562.79	24771.08
562.993	24512.43
563.197	24407.61
563.4	24710.25
563.603	24732.33
563.806	24837.93
564.009	24801.31
564.212	24765.46
564.416	24543.82
564.619	24549.63
564.822	24294.08
565.025	24515.34
565.228	24532.77
565.431	24682.54
565.634	24311.71
565.837	24166.79
566.04	24085.99
566.243	23831.41
566.446	23655.68
566.649	23890.31
566.852	23714.19
567.055	24024.19
567.258	24013.34
567.461	24281.29
567.664	24266.37
567.867	24432.03
568.07	24158.26
568.273	24333.41
568.475	24421.95
568.678	23902.13
568.881	23925.96
569.084	23590.19
569.287	23376.68
569.489	23627.39
569.692	23759.92
569.895	23812.23
570.098	23553.38
570.3	23673.51
570.503	23656.84
570.706	23436.36
570.909	23324.95
571.111	23100.21
571.314	23023.68
571.516	23026.2
571.719	23152.33
571.922	23008.57
572.124	23296.67
572.327	23472.01
572.529	23543.31
572.732	23711.67
572.935	23795.76
573.137	24222
573.34	23823.85
573.542	24194.3
573.745	23948.05
573.947	24011.4
574.15	23800.41
574.352	23922.08
574.554	24098.39
574.757	23757.79
574.959	23430.74
575.162	23836.06
575.364	23434.03
575.566	23506.88
575.769	23234.28
575.971	23425.32
576.173	22859.77
576.376	23156.39
576.578	23392.38
576.78	23284.27
576.982	23159.49
577.185	23350.14
577.387	23320.5
577.589	23595.62
577.791	23301.9
577.993	23389.47
578.196	23373.78
578.398	23102.92
578.6	23009.73
578.802	22926.61
579.004	22719.88
579.206	22852.6
579.408	23174.99
579.61	22912.66
579.812	23322.44
580.014	22954.32
580.216	22973.11
580.418	23301.9
580.62	23358.67
580.822	23259.08
581.024	23245.52
581.226	23430.93
581.428	23258.69
581.63	23551.64
581.832	23362.74
582.034	23630.11
582.236	23480.92
582.438	23558.61
582.64	23615.38
582.841	23659.17
583.043	24056.16
583.245	23592.33
583.447	23821.14
583.649	23744.8
583.85	23776
584.052	23742.09
584.254	23604.92
584.456	23667.69
584.657	23629.91
584.859	23823.66
585.061	23430.93
585.262	23536.91
585.464	23351.89
585.666	23424.73
585.867	23052.55
586.069	23069.21
586.27	22858.8
586.472	22887.67
586.674	22888.83
586.875	22935.33
587.077	22926.22
587.278	23088.58
587.48	22990.16
587.681	23274.77
587.883	23145.16
588.084	22856.67
588.285	22934.36
588.487	22522.84
588.688	22644.51
588.89	21872.04
589.091	21540.74
589.292	21095.12
589.494	20524.92
589.695	20279.64
589.896	19966.35
590.098	20196.71
590.299	20157.57
590.5	20469.7
590.702	20930.43
590.903	21078.84
591.104	21434.95
591.305	21861.19
591.507	21675.97
591.708	21796.87
591.909	21740.68
592.11	21666.67
592.311	21972.6
592.512	21613.59
592.714	21641.48
592.915	21892
593.116	21763.16
593.317	22084.39
593.518	21955.74
593.719	22113.84
593.92	22071.22
594.121	22093.69
594.322	21993.52
594.523	21937.72
594.724	21749.01
594.925	21752.11
595.126	21488.04
595.327	21522.52
595.528	21702.9
595.729	21681.59
595.929	21667.25
596.13	21716.08
596.331	22150.85
596.532	21835.04
596.733	22144.45
596.934	22107.06
597.135	22169.06
597.335	22123.33
597.536	22076.45
597.737	22042.35
597.938	21948.38
598.138	21933.46
