Data from tests_FLMT105791__2__15-39-58-264.txt Node

Date: Mon Mar 20 15:39:58 GMT 2023
User: antho
Spectrometer: FLMT10579
Trigger mode: 0
Integration Time (sec): 1.000000E-1
Scans to average: 10
Electric dark correction enabled: true
Nonlinearity correction enabled: false
Boxcar width: 0
XAxis mode: Wavelengths
Number of Pixels in Spectrum: 3648
>>>>>Begin Spectral Data<<<<<
345.248	-123.64
345.464	-123.64
345.681	-123.64
345.898	-174.4
346.114	-145.15
346.331	-33.55
346.548	23.22
346.764	-8.36
346.981	-0.23
347.197	-16.69
347.414	2.87
347.631	1.52
347.847	54.22
348.064	12.37
348.28	9.46
348.497	-34.91
348.713	-9.91
348.93	37.75
349.146	177.05
349.363	246.41
349.579	248.35
349.796	239.25
350.012	226.65
350.229	253.97
350.445	295.24
350.661	270.25
350.878	293.69
351.094	338.06
351.311	313.06
351.527	330.89
351.743	281.68
351.96	334.76
352.176	312.68
352.392	335.34
352.609	356.08
352.825	294.66
353.041	307.06
353.257	306.48
353.474	360.92
353.69	361.89
353.906	379.32
354.122	347.36
354.339	433.38
354.555	401.22
354.771	382.81
354.987	460.89
355.203	468.25
355.42	417.49
355.636	375.64
355.852	407.42
356.068	404.32
356.284	371.57
356.5	475.23
356.716	406.45
356.932	382.81
357.148	415.17
357.364	335.15
357.58	393.86
357.796	405.29
358.012	424.66
358.228	393.66
358.444	324.11
358.66	395.6
358.876	370.41
359.092	333.02
359.308	398.12
359.524	446.56
359.74	463.02
359.956	498.67
360.172	535.29
360.388	581.6
360.604	533.16
360.819	595.93
361.035	523.28
361.251	525.41
361.467	462.05
361.683	558.73
361.898	532.39
362.114	554.86
362.33	510.49
362.546	562.8
362.762	569.97
362.977	627.9
363.193	606.98
363.409	655.22
363.624	600.2
363.84	589.35
364.056	586.05
364.271	659.68
364.487	686.03
364.703	664.71
364.918	648.63
365.134	679.63
365.35	680.41
365.565	825.91
365.781	763.53
365.996	803.24
366.212	927.05
366.427	865.05
366.643	865.63
366.858	872.8
367.074	873.96
367.289	916.59
367.505	969.48
367.72	841.99
367.936	876.87
368.151	890.82
368.367	891.01
368.582	857.3
368.798	843.74
369.013	886.36
369.228	885.97
369.444	896.24
369.659	903.8
369.874	916.59
370.09	1005.71
370.305	937.9
370.52	1000.67
370.736	1033.03
370.951	927.24
371.166	948.17
371.381	987.3
371.597	983.04
371.812	915.23
372.027	978.2
372.242	955.34
372.458	966.57
372.673	865.44
372.888	857.88
373.103	920.85
373.318	954.95
373.533	889.85
373.749	855.94
373.964	750.54
374.179	833.66
374.394	755.97
374.609	845.48
374.824	795.69
375.039	869.51
375.254	785.42
375.469	902.64
375.684	926.66
375.899	1004.55
376.114	1010.55
376.329	1042.72
376.544	988.47
376.759	1009.58
376.974	971.61
377.189	988.66
377.404	1046.59
377.619	1123.12
377.834	1129.13
378.049	1187.25
378.264	1228.52
378.478	1298.27
378.693	1320.74
378.908	1317.84
379.123	1260.1
379.338	1267.07
379.553	1176.79
379.767	1113.24
379.982	1123.31
380.197	1146.18
380.412	1136.3
380.626	1223.87
380.841	1333.14
381.056	1321.13
381.271	1407.93
381.485	1323.46
381.7	1236.66
381.915	1256.81
382.129	1132.81
382.344	1086.89
382.559	1052.21
382.773	1059.77
382.988	921.04
383.202	964.64
383.417	873.96
383.632	955.34
383.846	908.84
384.061	908.06
384.275	903.99
384.49	1053.95
384.704	1172.91
384.919	1246.15
385.133	1318.42
385.348	1411.42
385.562	1318.81
385.777	1446.87
385.991	1335.27
386.206	1308.92
386.42	1262.04
386.634	1332.17
386.849	1390.69
387.063	1449
387.277	1438.35
387.492	1379.64
387.706	1376.74
387.92	1381
388.135	1466.44
388.349	1457.92
388.563	1446.48
388.778	1422.85
388.992	1423.82
389.206	1502.86
389.42	1583.46
389.635	1574.36
389.849	1711.34
390.063	1846.57
390.277	1883
390.491	1936.47
390.706	1898.11
390.92	1874.08
391.134	1922.33
391.348	2014.55
391.562	2002.54
391.776	2105.03
391.99	2140.49
392.205	2132.93
392.419	1988.01
392.633	1918.07
392.847	1797.55
393.061	1620.28
393.275	1539.48
393.489	1287.81
393.703	1098.9
393.917	1053.76
394.131	1083.6
394.345	1273.47
394.559	1523.6
394.773	1653.02
394.986	1914.38
395.2	2068.41
395.414	2237.75
395.628	2266.81
395.842	2377.05
396.056	2378.99
396.27	2255.38
396.484	2136.42
396.697	1929.69
396.911	1682.27
397.125	1433.31
397.339	1337.99
397.553	1355.62
397.766	1584.43
397.98	1889.39
398.194	2291.8
398.408	2516.16
398.621	2729.67
398.835	2882.93
399.049	2923.42
399.262	3106.7
399.476	3187.3
399.69	3205.71
399.903	3294.06
400.117	3258.02
400.331	3364
400.544	3364.39
400.758	3524.04
400.971	3421.74
401.185	3521.52
401.398	3455.06
401.612	3586.23
401.826	3660.43
402.039	3658.3
402.253	3764.48
402.466	3843.91
402.68	3804
402.893	3921.41
403.106	3861.16
403.32	3775.91
403.533	3796.44
403.747	3683.88
403.96	3807.1
404.174	3879.37
404.387	3873.94
404.6	3878.21
404.814	3930.13
405.027	3798.38
405.24	3779.39
405.454	3800.32
405.667	3925.67
405.88	3974.69
406.094	3954.74
406.307	3988.64
406.52	3760.02
406.733	3705.38
406.947	3810.98
407.16	3870.07
407.373	3927.61
407.586	4023.32
407.799	3969.65
408.012	3995.23
408.226	4088.23
408.439	4229.66
408.652	4238.19
408.865	4361.99
409.078	4533.46
409.291	4543.92
409.504	4505.75
409.717	4564.65
409.93	4522.8
410.143	4223.66
410.357	4030.1
410.57	3861.35
410.783	3934.01
410.996	3994.07
411.209	4172.9
411.421	4566.01
411.634	4662.88
411.847	4705.31
412.06	4774.09
412.273	4882.4
412.486	4809.55
412.699	4845
412.912	4940.33
413.125	4778.94
413.338	4786.69
413.55	4719.07
413.763	4671.21
413.976	4744.06
414.189	4722.75
414.402	4902.35
414.615	5086.03
414.827	4826.6
415.04	4891.89
415.253	4927.73
415.466	4984.12
415.678	5025
415.891	4961.83
416.104	4904.87
416.316	4943.62
416.529	5127.68
416.742	5282.29
416.954	5285.97
417.167	5225.33
417.38	5182.32
417.592	5082.15
417.805	4916.88
418.017	4955.05
418.23	4933.16
418.442	4926.57
418.655	5031.2
418.868	4932.19
419.08	5044.18
419.293	5071.3
419.505	5207.89
419.718	5143.57
419.93	5218.55
420.142	5148.03
420.355	5076.34
420.567	5002.91
420.78	5127.88
420.992	5155.58
421.205	5405.13
421.417	5528.74
421.629	5635.49
421.842	5584.93
422.054	5591.9
422.266	5598.49
422.479	5579.5
422.691	5324.72
422.903	5340.61
423.115	5151.32
423.328	5113.93
423.54	5106.56
423.752	5231.34
423.964	5489.02
424.177	5508.01
424.389	5423.15
424.601	5630.65
424.813	5628.91
425.025	5658.74
425.238	5590.93
425.45	5546.95
425.662	5477.01
425.874	5748.45
426.086	5530.09
426.298	5573.49
426.51	5565.94
426.722	5604.69
426.934	5675.79
427.146	5701.95
427.358	5678.89
427.57	5551.02
427.782	5421.79
427.994	5365.22
428.206	5357.08
428.418	5782.35
428.63	5865.86
428.842	5897.63
429.054	5634.14
429.266	5615.73
429.478	5530.29
429.69	5405.9
429.902	5319.69
430.114	5256.91
430.325	4951.37
430.537	4703.18
430.749	4531.52
430.961	4324.79
431.173	4335.64
431.384	4450.15
431.596	4537.53
431.808	5170.31
432.02	5811.8
432.231	6281.25
432.443	6679.21
432.655	6516.66
432.867	6386.46
433.078	6336.86
433.29	6316.13
433.502	6592.41
433.713	6738.69
433.925	6909.96
434.136	6659.83
434.348	6242.12
434.56	6101.46
434.771	6224.1
434.983	6075.11
435.194	6533.12
435.406	6865.21
435.617	6894.66
435.829	7092.47
436.04	7115.53
436.252	6943.48
436.463	7310.05
436.675	7532.47
436.886	7663.45
437.098	7763.03
437.309	7787.44
437.521	7619.85
437.732	7345.89
437.943	7286.99
438.155	7194.77
438.366	7146.53
438.578	7206.78
438.789	6931.86
439	6775.89
439.211	6847.19
439.423	6825.49
439.634	7114.75
439.845	7403.44
440.057	7523.37
440.268	7754.89
440.479	7664.03
440.69	7737.07
440.902	7479
441.113	7475.7
441.324	7661.12
441.535	7945.54
441.746	8141.23
441.957	8153.63
442.168	8287.51
442.38	8329.35
442.591	8385.54
442.802	8299.32
443.013	8627.34
443.224	8660.86
443.435	8525.81
443.646	8497.53
443.857	8355.9
444.068	8444.05
444.279	8372.75
444.49	8812.95
444.701	8560.88
444.912	8927.84
445.123	8935.01
445.334	8589.75
445.545	8812.37
445.756	8546.55
445.967	8473.7
446.178	8281.5
446.388	8131.73
446.599	8220.66
446.81	8360.35
447.021	8370.82
447.232	8608.74
447.443	8686.62
447.653	8976.66
447.864	9179.13
448.075	9167.51
448.286	9131.66
448.496	9001.46
448.707	9149.1
448.918	8892.58
449.129	9022.97
449.339	9115.58
449.55	9174.87
449.761	9133.6
449.971	9059.39
450.182	9309.13
450.393	9363.58
450.603	9363.19
450.814	9686.55
451.024	9628.62
451.235	9967.88
451.446	10029.68
451.656	9973.69
451.867	9833.22
452.077	9506.76
452.288	9756.5
452.498	9538.14
452.709	9553.64
452.919	9293.25
453.13	9104.73
453.34	9048.16
453.55	8663.18
453.761	9127.21
453.971	8971.05
454.182	9187.66
454.392	9283.37
454.602	9742.35
454.813	9756.88
455.023	9520.13
455.233	9406.78
455.444	9548.99
455.654	9166.92
455.864	9440.3
456.075	9606.92
456.285	9493.39
456.495	9603.82
456.705	9715.03
456.916	10002.94
457.126	10092.84
457.336	9963.23
457.546	9810.75
457.756	9988.99
457.967	10163.75
458.177	9863.64
458.387	9925.64
458.597	9720.65
458.807	9909.94
459.017	9645.09
459.227	9631.72
459.437	9648.19
459.647	9945.4
459.857	9870.23
460.068	10118.03
460.278	10109.5
460.488	10042.47
460.698	10116.48
460.908	10138.18
461.117	10464.26
461.327	10432.09
461.537	10604.92
461.747	10585.93
461.957	10512.5
462.167	10694.43
462.377	10606.47
462.587	10602.01
462.797	10782.19
463.007	10742.67
463.216	10985.24
463.426	11191.78
463.636	10896.31
463.846	10670.98
464.056	10712.06
464.265	10540.2
464.475	10631.07
464.685	10901.93
464.895	10753.91
465.104	10549.7
465.314	10990.47
465.524	10691.33
465.733	10660.52
465.943	10969.74
466.153	11155.35
466.362	11205.53
466.572	11192.16
466.782	11013.72
466.991	11215.61
467.201	11016.44
467.41	10805.83
467.62	11166.98
467.829	11237.69
468.039	11307.44
468.249	11347.55
468.458	11576.36
468.668	11490.73
468.877	11680.99
469.086	11751.12
469.296	12010.36
469.505	12084.95
469.715	11985.17
469.924	11888.49
470.134	12084.18
470.343	11711.99
470.552	11824.17
470.762	11718.77
470.971	11844.7
471.18	12022.76
471.39	12138.43
471.599	12014.62
471.808	12195.39
472.018	12535.99
472.227	12768.88
472.436	13220.89
472.645	13257.9
472.855	13181.37
473.064	13602.96
473.273	13689.76
473.482	13064.92
473.691	13339.46
473.901	13232.52
474.11	13068.41
474.319	13472.76
474.528	13479.16
474.737	14206.68
474.946	13931.94
475.155	14179.94
475.364	14420.96
475.573	14158.43
475.783	14585.84
475.992	14350.82
476.201	14320.41
476.41	14523.84
476.619	14309.36
476.828	14331.26
477.037	14335.52
477.245	14361.29
477.454	14556.78
477.663	15007.63
477.872	15343.39
478.081	15649.9
478.29	15556.32
478.499	15777.19
478.708	16097.26
478.917	15911.27
479.125	15566.59
479.334	15657.26
479.543	16105.79
479.752	16291.59
479.961	16104.24
480.169	16595
480.378	16763.56
480.587	17047.79
480.796	16843.96
481.004	16813.35
481.213	17023.37
481.422	17131.87
481.63	17437.99
481.839	17444.58
482.048	17772.4
482.256	17681.15
482.465	18177.53
482.674	17992.11
482.882	17979.71
483.091	18150.4
483.299	17800.49
483.508	18323.42
483.716	18523.56
483.925	18536.35
484.134	17977.77
484.342	18416.03
484.551	18342.21
484.759	18169.39
484.967	18893.03
485.176	18660.54
485.384	18862.23
485.593	18530.53
485.801	18431.92
486.01	17777.83
486.218	16867.99
486.426	16233.66
486.635	15674.89
486.843	15689.81
487.051	16257.49
487.26	16575.82
487.468	17024.73
487.676	17598.8
487.885	18093.44
488.093	18504.77
488.301	19212.33
488.509	19157.69
488.717	19587.81
488.926	19638.77
489.134	19250.3
489.342	19310.17
489.55	19107.71
489.758	19460.13
489.967	20129.53
490.175	20021.61
490.383	20915.76
490.591	21173.63
490.799	21063.97
491.007	20928.16
491.215	21001.78
491.423	20797.76
491.631	20804.35
491.839	20586.77
492.047	20479.82
492.255	20152.2
492.463	20139.8
492.671	19684.88
492.879	20276.78
493.087	20587.35
493.295	20747.2
493.503	21069.79
493.711	21706.63
493.919	21506.49
494.127	21454.18
494.334	21367.77
494.542	21378.23
494.75	21928.47
494.958	21723.88
495.166	22347.35
495.374	22441.32
495.581	22580.43
495.789	22489.56
495.997	22572.68
496.205	21756.81
496.412	21930.22
496.62	22407.42
496.828	22312.29
497.035	22512.43
497.243	22732.91
497.451	22706.17
497.658	22740.47
497.866	22711.6
498.074	23058.79
498.281	22527.54
498.489	22508.16
498.696	22170.85
498.904	21909.49
499.112	21852.72
499.319	22278.19
499.527	22550.98
499.734	22826.88
499.942	22626.35
500.149	22749.19
500.357	22856.72
500.564	22309.96
500.771	22290.78
500.979	21846.71
501.186	21639.79
501.394	22205.92
501.601	21648.31
501.808	21715.16
502.016	21801.37
502.223	21648.31
502.43	21762.04
502.638	21855.82
502.845	22176.08
503.052	22494.02
503.26	22557.76
503.467	22695.13
503.674	22830.17
503.881	22833.47
504.089	22608.53
504.296	22382.81
504.503	22169.49
504.71	22062.16
504.917	22345.22
505.125	22392.3
505.332	22856.33
505.539	22853.42
505.746	23375.38
505.953	23581.33
506.16	23701.07
506.367	23811.31
506.574	24079.26
506.781	24030.05
506.988	23965.34
507.195	23592.37
507.402	23702.23
507.609	23644.1
507.816	23321.52
508.023	23232
508.23	23031.28
508.437	22671.3
508.644	22824.36
508.851	22984.01
509.058	23480
509.265	23506.54
509.472	23757.25
509.679	24084.69
509.885	23979.48
510.092	23930.66
510.299	23845.21
510.506	23333.72
510.713	23494.73
510.92	23482.13
511.126	23663.09
511.333	23821.19
511.54	24052.72
511.746	23955.84
511.953	24244.33
512.16	24504.34
512.367	24317.96
512.573	24109.29
512.78	24001.57
512.987	23871.18
513.193	23453.46
513.4	23250.41
513.606	23429.82
513.813	23601.29
514.02	23310.67
514.226	23379.64
514.433	23276.95
514.639	23106.46
514.846	23213.21
515.052	23114.98
515.259	23294.58
515.465	23312.02
515.672	23398.05
515.878	23492.01
516.085	23972.51
516.291	23774.11
516.497	23807.63
516.704	23030.12
516.91	22481.81
517.117	21552.6
517.323	20903.16
517.529	20543.37
517.736	20503.27
517.942	20647.42
518.148	21295.11
518.354	21456.89
518.561	21666.53
518.767	21344.91
518.973	21414.07
519.179	21872.48
519.386	22158.26
519.592	22202.24
519.798	22277.99
520.004	23191.51
520.21	23220.38
520.417	23316.48
520.623	23502.48
520.829	23617.56
521.035	23560.6
521.241	23436.79
521.447	23712.69
521.653	24033.73
521.859	23825.06
522.065	24044.58
522.271	24147.85
522.477	24197.06
522.683	24452.81
522.889	23814.99
523.095	23560.41
523.301	23661.74
523.507	23490.85
523.713	23569.9
523.919	23445.32
524.125	24180.01
524.331	24360
524.537	24817.24
524.742	24923.03
524.948	24870.14
525.154	24979.99
525.36	24911.99
525.566	24607.8
525.772	24810.66
525.977	24757.57
526.183	24515.19
526.389	24684.14
526.595	23917.87
526.8	23572.61
527.006	22795.1
527.212	22190.42
527.417	22046.08
527.623	22130.94
527.829	22469.42
528.034	22995.63
528.24	23165.74
528.446	23730.71
528.651	24202.29
528.857	24253.63
529.062	24516.55
529.268	24948.99
529.473	25157.08
529.679	25426.97
529.884	25288.82
530.09	25223.53
530.295	24626.4
530.501	24892.81
530.706	24902.3
530.912	25204.74
531.117	25268.09
531.323	25272.94
531.528	25735.02
531.733	25704.8
531.939	25475.21
532.144	25430.45
532.35	25408.37
532.555	25259.38
532.76	24527.4
532.966	24437.31
533.171	24192.41
533.376	23927.94
533.581	23894.04
533.787	24214.88
533.992	24701
534.197	24134.09
534.402	24902.3
534.607	24889.32
534.813	24812.4
535.018	24800
535.223	25178.97
535.428	25133.83
535.633	25237.68
535.838	25641.44
536.043	25922.77
536.249	26033.01
536.454	25793.54
536.659	25914.05
536.864	25732.7
537.069	25340.17
537.274	25124.14
537.479	24998.79
537.684	24830.81
537.889	24748.08
538.094	25450.99
538.299	25201.06
538.504	25573.05
538.708	25448.47
538.913	25786.56
539.118	25721.46
539.323	25562.01
539.528	25254.14
539.733	25087.33
539.938	25190.79
540.142	24978.05
540.347	24744.39
540.552	24688.4
540.757	24297.61
540.962	24635.12
541.166	24270.88
541.371	24256.35
541.576	24295.1
541.781	24604.51
541.985	25099.92
542.19	24690.92
542.395	25538.37
542.599	25373.49
542.804	25018.35
543.008	25450.99
543.213	25387.64
543.418	24967.01
543.622	25250.27
543.827	24870.52
544.031	25285.14
544.236	25445.37
544.44	25738.51
544.645	25626.72
544.849	25523.07
545.054	25834.42
545.258	25755.56
545.463	25904.36
545.667	25444.21
545.872	25915.02
546.076	25646.87
546.281	25642.41
546.485	25583.13
546.689	25740.64
546.894	25598.24
547.098	25790.05
547.302	25698.99
547.507	25661.21
547.711	25764.67
547.915	25560.85
548.119	25330.09
548.324	25245.43
548.528	25352.96
548.732	25350.82
548.936	25610.25
549.141	25542.63
549.345	25666.24
549.549	25686.39
549.753	25954.15
549.957	25780.75
550.161	25996.2
550.366	25961.13
550.57	25804.19
550.774	25641.44
550.978	25713.52
551.182	25623.04
551.386	25473.85
551.59	25602.89
551.794	25536.82
551.998	25675.16
552.202	25697.24
552.406	25679.42
552.61	26064.59
552.814	25798.19
553.018	25722.43
553.222	25368.65
553.426	25426.39
553.63	25664.69
553.833	25654.04
554.037	25378.72
554.241	25422.32
554.445	25744.13
554.649	25722.04
554.853	25537.01
555.056	25850.3
555.26	26047.54
555.464	25681.16
555.668	25803.42
555.871	25582.55
556.075	25848.75
556.279	25696.47
556.483	25601.53
556.686	25271.77
556.89	25442.47
557.094	25328.93
557.297	24877.31
557.501	25030.95
557.704	24705.06
557.908	25033.47
558.112	24913.92
558.315	25236.13
558.519	25052.65
558.722	24730.06
558.926	24780.82
559.129	24123.82
559.333	24473.73
559.536	24350.89
559.74	24139.32
559.943	23933.95
560.147	24267.2
560.35	24075.39
560.553	24517.71
560.757	24515.97
560.96	24579.52
561.164	24833.71
561.367	24968.75
561.57	25053.62
561.774	24803.1
561.977	24662.44
562.18	24544.64
562.384	24687.24
562.587	24468.31
562.79	24819.96
562.993	24525.85
563.197	24419.67
563.4	24792.25
563.603	24927.87
563.806	24880.02
564.009	24973.79
564.212	24914.31
564.416	24496.59
564.619	24525.27
564.822	24316.02
565.025	24714.56
565.228	24627.95
565.431	24707.78
565.634	24432.85
565.837	24259.25
566.04	24095.34
566.243	23897.14
566.446	23678.79
566.649	24048.45
566.852	23742.14
567.055	24088.17
567.258	24073.25
567.461	24422
567.664	24365.43
567.867	24448.74
568.07	24202.68
568.273	24375.31
568.475	24642.87
568.678	23948.68
568.881	24057.75
569.084	23669.49
569.287	23543.36
569.489	23788.45
569.692	23765
569.895	23806.85
570.098	23632.87
570.3	23800.07
570.503	23694.67
570.706	23545.1
570.909	23532.51
571.111	23135.71
571.314	22977.61
571.516	22965.41
571.719	23129.12
571.922	23117.31
572.124	23314.54
572.327	23590.24
572.529	23493.76
572.732	23667.16
572.935	23899.85
573.137	24253.44
573.34	23796.97
573.542	24090.11
573.745	23923.49
573.947	24022.69
574.15	23798.91
574.352	23875.44
574.554	24071.32
574.757	23893.84
574.959	23445.9
575.162	23875.63
575.364	23438.93
575.566	23541.22
575.769	23387.78
575.971	23391.65
576.173	22882.68
576.376	23230.84
576.578	23468.57
576.78	23356.58
576.982	23286.25
577.185	23486.39
577.387	23400.76
577.589	23620.27
577.791	23406.18
577.993	23492.59
578.196	23486.2
578.398	23075.84
578.6	22957.27
578.802	22907.48
579.004	22802.27
579.206	22962.89
579.408	23190.93
579.61	22925.3
579.812	23324.03
580.014	22956.69
580.216	22993.11
580.418	23365.11
580.62	23364.91
580.822	23308.92
581.024	23316.09
581.226	23358.52
581.428	23266.68
581.63	23735.17
581.832	23520.88
582.034	23524.76
582.236	23479.42
582.438	23741.75
582.64	23735.55
582.841	23810.92
583.043	24087.2
583.245	23643.52
583.447	23960.3
583.649	23841.92
583.85	23882.22
584.052	23731.1
584.254	23597.99
584.456	23721.41
584.657	23679.37
584.859	23913.8
585.061	23555.17
585.262	23631.7
585.464	23305.63
585.666	23482.71
585.867	23119.44
586.069	23002.99
586.27	22879.19
586.472	22976.84
586.674	22888.1
586.875	22950.1
587.077	23075.26
587.278	23154.89
587.48	23082.04
587.681	23290.13
587.883	23228.13
588.084	23014.04
588.285	23026.05
588.487	22545.75
588.688	22693.39
588.89	21953.85
589.091	21527.03
589.292	21085.09
589.494	20611.19
589.695	20322.89
589.896	20008.44
590.098	20188.04
590.299	20246.17
590.5	20531.36
590.702	20941.91
590.903	21206.76
591.104	21458.44
591.305	21805.06
591.507	21766.69
591.708	21733.56
591.909	21867.25
592.11	21676.99
592.311	22072.43
592.512	21642.89
592.714	21707.99
592.915	21904.64
593.116	21769.21
593.317	22077.08
593.518	22006.17
593.719	22143.53
593.92	22106.14
594.121	22068.75
594.322	22102.07
594.523	22010.04
594.724	21739.96
594.925	21930.02
595.126	21606.85
595.327	21605.88
595.528	21820.75
595.729	21761.08
595.929	21724.46
596.13	21925.57
596.331	22205.14
596.532	21955.98
596.733	22250.87
596.934	22277.41
597.135	22302.6
597.335	22161.94
597.536	22161.94
597.737	22085.41
597.938	21953.85
598.138	22010.43
