Data from tests_FLMT105791__8__15-40-04-264.txt Node

Date: Mon Mar 20 15:40:04 GMT 2023
User: antho
Spectrometer: FLMT10579
Trigger mode: 0
Integration Time (sec): 1.000000E-1
Scans to average: 10
Electric dark correction enabled: true
Nonlinearity correction enabled: false
Boxcar width: 0
XAxis mode: Wavelengths
Number of Pixels in Spectrum: 3648
>>>>>Begin Spectral Data<<<<<
345.248	-152.95
345.464	-152.95
345.681	-152.95
345.898	-163.22
346.114	-183.75
346.331	-48.52
346.548	20.84
346.764	-11.51
346.981	16.58
347.197	-20.42
347.414	33.24
347.631	-3.18
347.847	49.71
348.064	-10.16
348.28	14.26
348.497	-28.95
348.713	-11.9
348.93	45.84
349.146	169.25
349.363	247.72
349.579	268.65
349.796	252.57
350.012	233.77
350.229	286.47
350.445	272.72
350.661	250.24
350.878	315.73
351.094	311.08
351.311	312.05
351.527	322.7
351.743	290.73
351.96	333.55
352.176	335.1
352.392	321.73
352.609	349.63
352.825	287.63
353.041	315.53
353.257	304.68
353.474	326.19
353.69	352.15
353.906	378.5
354.122	346.92
354.339	451.93
354.555	395.74
354.771	384.51
354.987	473.24
355.203	479.06
355.42	383.54
355.636	404.46
355.852	397.29
356.068	397.88
356.284	388.38
356.5	473.44
356.716	411.83
356.932	357.38
357.148	411.24
357.364	373.46
357.58	396.33
357.796	422.09
358.012	414.73
358.228	381.21
358.444	297.13
358.66	400.98
358.876	350.21
359.092	337.43
359.308	390.9
359.524	445.73
359.74	459.29
359.956	503.86
360.172	543.96
360.388	562.56
360.604	532.53
360.819	617.78
361.035	517.22
361.251	520.71
361.467	481.38
361.683	556.94
361.898	546.67
362.114	551.52
362.33	540.86
362.546	592.59
362.762	597.82
362.977	622.82
363.193	582.32
363.409	665.63
363.624	612.35
363.84	596.08
364.056	580.97
364.271	677.26
364.487	676.48
364.703	670.28
364.918	677.26
365.134	642.39
365.35	687.53
365.565	816.76
365.781	731.7
365.996	827.99
366.212	894.45
366.427	879.14
366.643	854.93
366.858	902.2
367.074	861.32
367.289	929.52
367.505	946.96
367.72	868.68
367.936	868.68
368.151	921.57
368.367	896
368.582	869.07
368.798	869.07
369.013	897.74
369.228	875.66
369.444	893.48
369.659	904.14
369.874	881.28
370.09	989.97
370.305	931.26
370.52	986.09
370.736	1013.6
370.951	915.96
371.166	934.17
371.381	970.21
371.597	963.81
371.812	937.46
372.027	950.44
372.242	936.11
372.458	1007.99
372.673	869.65
372.888	876.43
373.103	906.27
373.318	956.06
373.533	907.82
373.749	849.69
373.964	784.4
374.179	799.9
374.394	755.53
374.609	858.22
374.824	818.5
375.039	844.08
375.254	769.48
375.469	891.35
375.684	938.43
375.899	1006.44
376.114	1058.36
376.329	1027.17
376.544	1007.79
376.759	1013.8
376.974	973.31
377.189	1005.27
377.404	1046.15
377.619	1147.48
377.834	1098.85
378.049	1181.58
378.264	1246.68
378.478	1313.33
378.693	1325.73
378.908	1329.8
379.123	1307.52
379.338	1278.26
379.553	1208.71
379.767	1125.59
379.982	1138.57
380.197	1169.57
380.412	1102.73
380.626	1239.13
380.841	1310.23
381.056	1322.24
381.271	1401.87
381.485	1335.03
381.7	1272.64
381.915	1303.06
382.129	1141.48
382.344	1094.2
382.559	1081.8
382.773	1066.69
382.988	910.34
383.202	972.92
383.417	892.51
383.632	981.83
383.846	928.94
384.061	900.07
384.275	914.02
384.49	1045.77
384.704	1159.3
384.919	1245.13
385.133	1311.01
385.348	1400.71
385.562	1357.89
385.777	1384.82
385.991	1329.22
386.206	1312.56
386.42	1295.89
386.634	1342.01
386.849	1411.56
387.063	1442.95
387.277	1460.19
387.492	1402.46
387.706	1398.77
387.92	1381.53
388.135	1444.11
388.349	1492.94
388.563	1460.77
388.778	1436.36
388.992	1430.36
389.206	1516.57
389.42	1573.73
389.635	1574.31
389.849	1760.31
390.063	1874.42
390.277	1908.91
390.491	1952.89
390.706	1879.65
390.92	1918.21
391.134	1919.57
391.348	1981.76
391.562	2064.1
391.776	2169.11
391.99	2103.43
392.205	2165.24
392.419	1993.38
392.633	1936.42
392.847	1815.72
393.061	1648.9
393.275	1563.85
393.489	1277.68
393.703	1078.32
393.917	1047.12
394.131	1048.48
394.345	1276.71
394.559	1515.6
394.773	1679.9
394.986	1940.1
395.2	2054.22
395.414	2234.99
395.628	2272.38
395.842	2401.03
396.056	2379.14
396.27	2216.78
396.484	2190.23
396.697	1953.86
396.911	1675.25
397.125	1440.24
397.339	1379.59
397.553	1339.29
397.766	1630.3
397.98	1862.99
398.194	2241.57
398.408	2489.57
398.621	2708.51
398.835	2899.54
399.049	2976.46
399.262	3129.52
399.476	3232.4
399.69	3246.15
399.903	3314.35
400.117	3319.58
400.331	3334.7
400.544	3422.46
400.758	3522.44
400.971	3423.05
401.185	3513.53
401.398	3542.39
401.612	3672.59
401.826	3704.75
402.039	3771.6
402.253	3760.36
402.466	3850.45
402.68	3824.1
402.893	3994.6
403.106	3858.98
403.32	3759.2
403.533	3799.5
403.747	3685.38
403.96	3810.15
404.174	3827.4
404.387	3879.71
404.6	3915.36
404.814	3877.38
405.027	3858.2
405.24	3791.36
405.454	3820.61
405.667	3918.84
405.88	3939.38
406.094	4015.14
406.307	3974.64
406.52	3795.81
406.733	3722.58
406.947	3780.7
407.16	3877
407.373	3997.31
407.586	4043.42
407.799	4021.53
408.012	4019.4
408.226	4031.41
408.439	4262.55
408.652	4212.37
408.865	4402.05
409.078	4545.62
409.291	4540.58
409.504	4523.34
409.717	4554.14
409.93	4548.14
410.143	4282.12
410.357	4048.07
410.57	3868.47
410.783	3952.17
410.996	4010.29
411.209	4226.71
411.421	4577.59
411.634	4664.19
411.847	4703.33
412.06	4829.07
412.273	4935.24
412.486	4882.16
412.699	4852.32
412.912	4918.19
413.125	4832.56
413.338	4837.59
413.55	4738.59
413.763	4713.01
413.976	4793.03
414.189	4825.97
414.402	4836.82
414.615	5077.26
414.827	4919.55
415.04	4914.32
415.253	4957.33
415.466	5068.73
415.678	5100.9
415.891	4975.35
416.104	4889.52
416.316	4979.22
416.529	5166.58
416.742	5312.27
416.954	5310.92
417.167	5274.11
417.38	5171.23
417.592	5087.14
417.805	5004.6
418.017	5017.78
418.23	4976.51
418.442	4924.97
418.655	5026.3
418.868	5000.15
419.08	5064.47
419.293	5111.75
419.505	5217.14
419.718	5153.4
419.93	5238.46
420.142	5153.79
420.355	5090.43
420.567	4992.4
420.78	5169.48
420.992	5176.65
421.205	5389.19
421.417	5573.06
421.629	5633.12
421.842	5643.39
422.054	5638.54
422.266	5613.16
422.479	5582.55
422.691	5365.75
422.903	5341.14
423.115	5167.55
423.328	5137.13
423.54	5162.7
423.752	5234.39
423.964	5424.07
424.177	5511.83
424.389	5428.72
424.601	5624.21
424.813	5622.08
425.025	5606.96
425.238	5610.65
425.45	5594.56
425.662	5542.25
425.874	5830.74
426.086	5543.8
426.298	5670.71
426.51	5601.35
426.722	5632.34
426.934	5720.5
427.146	5759.44
427.358	5662.96
427.57	5583.52
427.782	5412.64
427.994	5371.17
428.206	5339.98
428.418	5804.97
428.63	5902.62
428.842	5941.95
429.054	5756.15
429.266	5571.7
429.478	5508.54
429.69	5442.09
429.902	5325.84
430.114	5297.55
430.325	4998.79
430.537	4744.98
430.749	4588.43
430.961	4322.42
431.173	4402.44
431.384	4438.28
431.596	4553.37
431.808	5234
432.02	5777.27
432.231	6325.77
432.443	6724.3
432.655	6533.27
432.867	6418.76
433.078	6355.6
433.29	6383.12
433.502	6586.94
433.713	6700.28
433.925	6930.06
434.136	6597.4
434.348	6242.07
434.56	6127.37
434.771	6255.63
434.983	6172.9
435.194	6559.23
435.406	6947.11
435.617	6954.67
435.829	7103.66
436.04	7110.44
436.252	7030.81
436.463	7322.6
436.675	7606.82
436.886	7721.72
437.098	7793.01
437.309	7809.29
437.521	7693.82
437.732	7356.11
437.943	7297.21
438.155	7329.18
438.366	7207.7
438.578	7230.95
438.789	6978.11
439	6812.46
439.211	6821.37
439.423	6908.75
439.634	7141.83
439.845	7449.5
440.057	7526.22
440.268	7839.32
440.479	7777.13
440.69	7805.22
440.902	7560.32
441.113	7480.31
441.324	7677.54
441.535	7978.62
441.746	8137.5
441.957	8186.51
442.168	8433.54
442.38	8342.67
442.591	8405.06
442.802	8353.72
443.013	8601.71
443.224	8719.9
443.435	8573.43
443.646	8486.63
443.857	8371.16
444.068	8561.42
444.279	8390.14
444.49	8889.24
444.701	8688.32
444.912	8966.35
445.123	8968.87
445.334	8669.91
445.545	8872.57
445.756	8580.02
445.967	8560.06
446.178	8373.29
446.388	8234.37
446.599	8346.55
446.81	8417.27
447.021	8429.86
447.232	8602.1
447.443	8812.12
447.653	9048.69
447.864	9221.51
448.075	9193.81
448.286	9198.46
448.496	9049.66
448.707	9231.78
448.918	8985.33
449.129	9099.65
449.339	9159.13
449.55	9255.81
449.761	9160.29
449.971	9136.26
450.182	9392.2
450.393	9460.98
450.603	9405.18
450.814	9810.5
451.024	9694.84
451.235	10110.62
451.446	10033.7
451.656	9996.11
451.867	9901.57
452.077	9582.85
452.288	9783.57
452.498	9622.96
452.709	9646.4
452.919	9261.04
453.13	9220.74
453.34	9105.85
453.55	8749.35
453.761	9150.41
453.971	9043.65
454.182	9281.77
454.392	9380
454.602	9731.65
454.813	9787.06
455.023	9534.41
455.233	9406.15
455.444	9588.86
455.654	9313.35
455.864	9493.53
456.075	9666.94
456.285	9593.51
456.495	9781.05
456.705	9750.44
456.916	10132.51
457.126	10173
457.336	10040.48
457.546	9833.37
457.756	10028.08
457.967	10133.87
458.177	9938.38
458.387	10033.31
458.597	9785.32
458.807	9951.75
459.017	9773.69
459.227	9765.17
459.437	9814.96
459.647	9970.15
459.857	9978.87
460.068	10251.47
460.278	10208.07
460.488	10086.01
460.698	10157.7
460.908	10290.42
461.117	10399.69
461.327	10451.42
461.537	10639.94
461.747	10629.28
461.957	10646.72
462.167	10712.78
462.377	10751.15
462.587	10682.95
462.797	10872.82
463.007	10774.98
463.216	11105.51
463.426	11282.21
463.636	11010.38
463.846	10694.96
464.056	10799.97
464.265	10680.62
464.475	10696.32
464.685	10965.24
464.895	10807.33
465.104	10625.4
465.314	10967.76
465.524	10798.61
465.733	10750.95
465.943	11127.4
466.153	11273.49
466.362	11314.37
466.572	11342.85
466.782	11089.82
466.991	11315.92
467.201	11087.69
467.41	10818.18
467.62	11214.78
467.829	11203.93
468.039	11430.23
468.249	11418.22
468.458	11627.85
468.668	11560.04
468.877	11674.93
469.086	11794.86
469.296	12075.02
469.505	12259.66
469.715	12042.28
469.924	11963.81
470.134	12154.07
470.343	11855.51
470.552	11852.79
470.762	11811.91
470.971	12002.75
471.18	12058.17
471.39	12147.29
471.599	12041.5
471.808	12214.91
472.018	12648.32
472.227	12828.5
472.436	13280.32
472.645	13266.57
472.855	13317.52
473.064	13746.48
473.273	13721.68
473.482	13278.58
473.691	13545.76
473.901	13312.87
474.11	13221.81
474.319	13616.86
474.528	13589.93
474.737	14335.28
474.946	14013.85
475.155	14244.22
475.364	14505.58
475.573	14294.78
475.783	14662.52
475.992	14463.92
476.201	14359.5
476.41	14631.71
476.619	14434.67
476.828	14437.38
477.037	14427.89
477.245	14486.4
477.454	14715.22
477.663	15110.46
477.872	15550.46
478.081	15752.34
478.29	15638.23
478.499	15854.45
478.708	16194.86
478.917	16147.59
479.125	15774.62
479.334	15799.23
479.543	16236.71
479.752	16340.17
479.961	16291.74
480.169	16708.1
480.378	16852.83
480.587	17150.04
480.796	16946.02
481.004	17027.59
481.213	17094.62
481.422	17307.17
481.63	17602.44
481.839	17642.93
482.048	17934.52
482.256	17748.72
482.465	18338.29
482.674	18114.9
482.882	18155.78
483.091	18324.14
483.299	17958.93
483.508	18421.79
483.716	18631.23
483.925	18767.24
484.134	18139.5
484.342	18495.8
484.551	18517.7
484.759	18313.68
484.967	19066.78
485.176	18825.37
485.384	18920.3
485.593	18601.01
485.801	18601.78
486.01	17893.44
486.218	17019.84
486.426	16336.88
486.635	15818.8
486.843	15858.13
487.051	16378.15
487.26	16715.27
487.468	17178.71
487.676	17661.14
487.885	18212.55
488.093	18650.41
488.301	19259.56
488.509	19406.22
488.717	19668.36
488.926	19683.09
489.134	19577.88
489.342	19488.18
489.55	19309.93
489.758	19637.94
489.967	20287.19
490.175	20195.16
490.383	20991.08
490.591	21408.79
490.799	21274.91
491.007	21065.86
491.215	21200.32
491.423	20951.94
491.631	21059.08
491.839	20805.66
492.047	20703.17
492.255	20319.16
492.463	20341.25
492.671	19812.32
492.879	20373.8
493.087	20740.17
493.295	20951.55
493.503	21178.62
493.711	21728.09
493.919	21675.78
494.127	21606.03
494.334	21545.19
494.542	21610.29
494.75	22134.77
494.958	21924.55
495.166	22456
495.374	22593.17
495.581	22754.18
495.789	22647.23
495.997	22778.01
496.205	21907.69
496.412	22175.45
496.62	22634.83
496.828	22424.61
497.035	22769.48
497.243	22778.2
497.451	22850.66
497.658	22869.84
497.866	22827.41
498.074	23134.69
498.281	22717.17
498.489	22799.51
498.696	22284.53
498.904	21970.27
499.112	21987.32
499.319	22493.97
499.527	22685.59
499.734	22866.74
499.942	22747.98
500.149	22902.97
500.357	22887.67
500.564	22495.33
500.771	22332
500.979	22058.04
501.186	21898.39
501.394	22340.72
501.601	21783.5
501.808	21923.77
502.016	21948.77
502.223	21712.98
502.43	22048.16
502.638	22029.95
502.845	22396.91
503.052	22697.21
503.26	22713.88
503.467	22927.58
503.674	23037.05
503.881	22937.27
504.089	22802.22
504.296	22642
504.503	22270
504.71	22258.96
504.917	22577.09
505.125	22683.26
505.332	22920.6
505.539	22987.06
505.746	23462.32
505.953	23776.19
506.16	23903.68
506.367	23966.84
506.574	24206.31
506.781	24155.35
506.988	24102.27
507.195	23902.9
507.402	23851.95
507.609	23827.15
507.816	23491.19
508.023	23429.77
508.23	23262.57
508.437	22986.87
508.644	23098.85
508.851	23202.31
509.058	23743.45
509.265	23701.21
509.472	24000.16
509.679	24224.14
509.885	24255.52
510.092	24133.66
510.299	24176.47
510.506	23484.6
510.713	23738.22
510.92	23648.12
511.126	23911.23
511.333	24049.76
511.54	24106.72
511.746	24160
511.953	24426.6
512.16	24633.14
512.367	24483.37
512.573	24276.45
512.78	24163.1
512.987	24047.83
513.193	23673.31
513.4	23516.96
513.606	23701.79
513.813	23744.03
514.02	23459.41
514.226	23426.67
514.433	23509.98
514.639	23311.97
514.846	23338.13
515.052	23299.19
515.259	23582.44
515.465	23707.99
515.672	23512.5
515.878	23743.06
516.085	24103.24
516.291	23955.02
516.497	24028.06
516.704	23205.8
516.91	22702.83
517.117	21791.83
517.323	21000.38
517.529	20739.59
517.736	20674.69
517.942	20930.43
518.148	21480.48
518.354	21705.42
518.561	21827.48
518.767	21598.28
518.973	21652.14
519.179	22031.69
519.386	22371.52
519.592	22346.53
519.798	22443.4
520.004	23407.68
520.21	23332.12
520.417	23526.26
520.623	23708.96
520.829	23738.8
521.035	23782.78
521.241	23615.19
521.447	23883.92
521.653	24282.45
521.859	24001.71
522.065	24217.16
522.271	24335.54
522.477	24400.45
522.683	24706.76
522.889	24151.48
523.095	23848.85
523.301	23854.27
523.507	23602.98
523.713	23678.74
523.919	23708.77
524.125	24352.98
524.331	24522.12
524.537	25030.7
524.742	25060.74
524.948	25103.36
525.154	25249.45
525.36	24982.07
525.566	24732.72
525.772	25074.1
525.977	24891.4
526.183	24767.79
526.389	24992.54
526.595	24106.53
526.8	23845.75
527.006	23053.32
527.212	22438.95
527.417	22256.63
527.623	22297.51
527.829	22684.43
528.034	23175.19
528.24	23362.54
528.446	23919.56
528.651	24424.47
528.857	24562.03
529.062	24665.49
529.268	25088.25
529.473	25301.18
529.679	25651.28
529.884	25487.56
530.09	25324.23
530.295	24777.48
530.501	25133.39
530.706	25194.81
530.912	25483.88
531.117	25464.12
531.323	25426.53
531.528	25875.64
531.733	25959.72
531.939	25706.11
532.144	25671.43
532.35	25459.47
532.555	25343.22
532.76	24715.87
532.966	24580.63
533.171	24358.01
533.376	24094.32
533.581	24091.81
533.787	24382.04
533.992	24892.56
534.197	24358.79
534.402	25103.75
534.607	25066.94
534.813	24984.59
535.018	25010.56
535.223	25357.75
535.428	25269.79
535.633	25386.62
535.838	25833.98
536.043	26067.64
536.249	26255.96
536.454	25901.99
536.659	26073.45
536.864	26009.13
537.069	25458.69
537.274	25397.27
537.479	25198.49
537.684	25097.16
537.889	24980.72
538.094	25682.66
538.299	25424.01
538.504	25831.66
538.708	25620.86
538.913	25981.42
539.118	25961.47
539.323	25762.68
539.528	25596.64
539.733	25274.25
539.938	25340.31
540.142	25144.43
540.347	25086.89
540.552	24862.53
540.757	24510.88
540.962	24813.51
541.166	24464.19
541.371	24483.56
541.576	24502.94
541.781	24760.62
541.985	25265.91
542.19	24914.07
542.395	25711.53
542.599	25658.64
542.804	25283.16
543.008	25486.4
543.213	25478.07
543.418	25148.31
543.622	25435.25
543.827	25126.03
544.031	25404.25
544.236	25573
544.44	25938.6
544.645	25808.79
544.849	25847.74
545.054	25925.04
545.258	26049.82
545.463	26063.18
545.667	25610.01
545.872	26040.71
546.076	25772.56
546.281	25818.48
546.485	25730.91
546.689	25886.29
546.894	25736.33
547.098	25976.77
547.302	25979.49
547.507	25799.49
547.711	26060.67
547.915	25724.32
548.119	25344.96
548.324	25387.39
548.528	25466.83
548.732	25506.74
548.936	25799.49
549.141	25736.72
549.345	25808.79
549.549	25861.49
549.753	26131.96
549.957	25986.27
550.161	26066.09
550.366	26139.13
550.57	26031.22
550.774	25883.19
550.978	25917.1
551.182	25815.96
551.386	25623.18
551.59	25779.93
551.794	25636.55
551.998	25867.69
552.202	25856.26
552.406	25936.09
552.61	26234.65
552.814	25990.72
553.018	25844.25
553.222	25469.93
553.426	25672.98
553.63	25777.6
553.833	25839.6
554.037	25541.42
554.241	25558.08
554.445	25893.66
554.649	25970.38
554.853	25770.63
555.056	26024.63
555.26	26118.4
555.464	25952.94
555.668	25957.4
555.871	25963.79
556.075	26106
556.279	25830.88
556.483	25763.46
556.686	25540.26
556.89	25558.47
557.094	25508.1
557.297	25140.75
557.501	25173.69
557.704	24940.61
557.908	25202.36
558.112	25203.14
558.315	25282.19
558.519	25172.72
558.722	24858.85
558.926	24898.38
559.129	24252.23
559.333	24567.84
559.536	24341.35
559.74	24290.2
559.943	24090.45
560.147	24410.91
560.35	24318.88
560.553	24763.33
560.757	24713.15
560.96	24778.45
561.164	24934.99
561.367	25188.03
561.57	25188.8
561.774	24893.14
561.977	24823.78
562.18	24741.83
562.384	24827.66
562.587	24657.16
562.79	24977.04
562.993	24655.42
563.197	24689.13
563.4	24972
563.603	25007.26
563.806	25079.14
564.009	25035.16
564.212	24989.63
564.416	24699.4
564.619	24714.32
564.822	24588.19
565.025	24832.11
565.228	24713.35
565.431	24826.11
565.634	24526.19
565.837	24392.7
566.04	24272.77
566.243	24027.87
566.446	23782.2
566.649	24195.07
566.852	23887.21
567.055	24233.63
567.258	24115.06
567.461	24385.33
567.664	24617.83
567.867	24548.66
568.07	24358.4
568.273	24636.82
568.475	24866.02
568.678	24076.89
568.881	24173.95
569.084	23876.36
569.287	23543.11
569.489	23996.29
569.692	23960.25
569.895	24044.14
570.098	23855.63
570.3	23929.64
570.503	23850.01
570.706	23700.82
570.909	23578.96
571.111	23236.41
571.314	23189.33
571.516	23185.07
571.719	23266.64
571.922	23313.91
572.124	23379.4
572.327	23720.2
572.529	23712.64
572.732	23904.65
572.935	23996.48
573.137	24377.2
573.34	23924.21
573.542	24390.18
573.745	24100.14
573.947	24309.38
574.15	23925.76
574.352	24134.43
574.554	24366.93
574.757	23973.23
574.959	23647.74
575.162	24012.56
575.364	23594.65
575.566	23855.63
575.769	23463.68
575.971	23570.82
576.173	23061.85
576.376	23384.82
576.578	23552.99
576.78	23468.91
576.982	23390.05
577.185	23629.72
577.387	23576.44
577.589	23797.31
577.791	23560.74
577.993	23552.03
578.196	23631.07
578.398	23245.52
578.6	23145.74
578.802	23054.29
579.004	22874.49
579.206	23124.04
579.408	23311.39
579.61	23019.8
579.812	23509.01
580.014	23200.76
580.216	23211.61
580.418	23520.06
580.62	23508.43
580.822	23485.57
581.024	23497.78
581.226	23523.16
581.428	23504.56
581.63	23892.63
581.832	23598.33
582.034	23655.1
582.236	23672.92
582.438	23736.86
582.64	23911.62
582.841	23926.93
583.043	24277.22
583.245	23903.29
583.447	24028.84
583.649	23957.35
583.85	23978.08
584.052	23972.07
584.254	23780.84
584.456	23928.48
584.657	23757.01
584.859	24074.17
585.061	23758.95
585.262	23717.1
585.464	23553.38
585.666	23560.94
585.867	23249.39
586.069	23180.42
586.27	23180.81
586.472	23148.06
586.674	23181.97
586.875	23156.59
587.077	23280
587.278	23315.07
587.48	23355.37
587.681	23541.76
587.883	23400.9
588.084	23212.77
588.285	23269.16
588.487	22672.99
588.688	22740.42
588.89	22015.61
589.091	21750.18
589.292	21228.22
589.494	20788.61
589.695	20411.38
589.896	20186.64
590.098	20281.96
590.299	20274.21
590.5	20577.81
590.702	21033.31
590.903	21306.69
591.104	21552.17
591.305	21961.17
591.507	21879.02
591.708	21897.62
591.909	22121.78
592.11	21965.43
592.311	22272.33
592.512	21806.75
592.714	21845.31
592.915	22116.17
593.116	21992.36
593.317	22177.58
593.518	22167.7
593.719	22242.88
593.92	22207.23
594.121	22143.1
594.322	22249.66
594.523	22078.58
594.724	21937.72
594.925	22086.72
595.126	21775.75
595.327	21768.2
595.528	21943.73
595.729	21958.84
595.929	21893.94
596.13	22033.24
596.331	22337.04
596.532	22074.9
596.733	22394.97
596.934	22416.67
597.135	22385.67
597.335	22329.09
597.536	22321.34
597.737	22326.96
597.938	22146.2
598.138	22158.01
