Data from tests_FLMT105791__7__15-40-03-264.txt Node

Date: Mon Mar 20 15:40:03 GMT 2023
User: antho
Spectrometer: FLMT10579
Trigger mode: 0
Integration Time (sec): 1.000000E-1
Scans to average: 10
Electric dark correction enabled: true
Nonlinearity correction enabled: false
Boxcar width: 0
XAxis mode: Wavelengths
Number of Pixels in Spectrum: 3648
>>>>>Begin Spectral Data<<<<<
345.248	-161.65
345.464	-161.65
345.681	-161.65
345.898	-181.02
346.114	-157.19
346.331	-33
346.548	28.61
346.764	10.59
346.981	-17.11
347.197	-27.38
347.414	5.17
347.631	-25.25
347.847	58.25
348.064	-7.04
348.28	66.78
348.497	-60.13
348.713	0.52
348.93	24.15
349.146	151.64
349.363	252
349.579	249.68
349.796	241.15
350.012	270.79
350.229	287.07
350.445	309.74
350.661	283.58
350.878	310.9
351.094	313.42
351.311	335.51
351.527	335.12
351.743	290.17
351.96	332.99
352.176	326.21
352.392	335.89
352.609	328.92
352.825	308.19
353.041	317.87
353.257	291.91
353.474	345.39
353.69	356.04
353.906	348.49
354.122	361.47
354.339	454.08
354.555	394.02
354.771	360.89
354.987	473.65
355.203	473.07
355.42	403.7
355.636	396.92
355.852	400.02
356.068	399.83
356.284	381.81
356.5	449.43
356.716	446.14
356.932	389.75
357.148	388.98
357.364	361.66
357.58	424.44
357.796	469.38
358.012	433.35
358.228	402.54
358.444	318.26
358.66	402.15
358.876	338.8
359.092	366.12
359.308	398.86
359.524	451.95
359.74	459.7
359.956	524.99
360.172	545.33
360.388	582.34
360.604	544.56
360.819	597.84
361.035	519.95
361.251	558.12
361.467	479.85
361.683	561.22
361.898	531.97
362.114	533.13
362.33	534.1
362.546	588.35
362.762	576.53
362.977	627.1
363.193	586.99
363.409	646.86
363.624	632.91
363.84	622.06
364.056	622.45
364.271	632.33
364.487	699.94
364.703	697.62
364.918	675.34
365.134	665.07
365.35	675.53
365.565	830.14
365.781	772.21
365.996	828.4
366.212	890.2
366.427	897.18
366.643	890.98
366.858	868.89
367.074	872.96
367.289	899.5
367.505	977.97
367.72	879.94
367.936	893.3
368.151	929.34
368.367	880.71
368.582	883.23
368.798	817.94
369.013	886.72
369.228	888.07
369.444	874.9
369.659	906.67
369.874	925.66
370.09	999.67
370.305	951.82
370.52	964.99
370.736	1009.16
370.951	956.27
371.166	961.89
371.381	966.54
371.597	970.22
371.812	935.15
372.027	948.91
372.242	966.93
372.458	988.82
372.673	878.77
372.888	890.98
373.103	893.11
373.318	967.12
373.533	920.82
373.749	847.97
373.964	767.37
374.179	848.94
374.394	762.72
374.609	861.72
374.824	790.04
375.039	864.63
375.254	781.32
375.469	903.38
375.684	933.99
375.899	1008.97
376.114	1036.48
376.329	1030.28
376.544	1022.15
376.759	1002.19
376.974	932.44
377.189	999.09
377.404	1057.02
377.619	1111.66
377.834	1100.81
378.049	1145.76
378.264	1270.53
378.478	1324.97
378.693	1303.66
378.908	1356.36
379.123	1275.95
379.338	1260.65
379.553	1184.51
379.767	1134.52
379.982	1140.53
380.197	1174.24
380.412	1139.56
380.626	1228.87
380.841	1326.52
381.056	1334.66
381.271	1412.35
381.485	1326.91
381.7	1262.2
381.915	1281.57
382.129	1175.01
382.344	1127.35
382.559	1058.38
382.773	1053.92
382.988	941.55
383.202	954.14
383.417	908.42
383.632	994.83
383.846	899.89
384.061	900.86
384.275	933.22
384.49	1037.26
384.704	1157.38
384.919	1266.85
385.133	1329.43
385.348	1394.53
385.562	1334.08
385.777	1437.73
385.991	1329.24
386.206	1319.74
386.42	1271.3
386.634	1371.47
386.849	1353.84
387.063	1448
387.277	1425.92
387.492	1415.65
387.706	1357.91
387.92	1402.28
388.135	1481.13
388.349	1463.7
388.563	1436.76
388.778	1438.12
388.992	1431.34
389.206	1516.78
389.42	1613.85
389.635	1596.03
389.849	1735.52
390.063	1852.55
390.277	1900.01
390.491	1913.96
390.706	1899.63
390.92	1895.56
391.134	1910.09
391.348	2020.33
391.562	2043.97
391.776	2137.74
391.99	2158.47
392.205	2148.01
392.419	2008.9
392.633	1912.22
392.847	1825.81
393.061	1625.86
393.275	1533.25
393.489	1270.92
393.703	1086.66
393.917	1083.56
394.131	1075.81
394.345	1262.78
394.559	1496.63
394.773	1641.36
394.986	1946.9
395.2	2049.59
395.414	2240.23
395.628	2300.68
395.842	2407.83
396.056	2393.68
396.27	2240.82
396.484	2179.01
396.697	1934.89
396.911	1679.92
397.125	1455.56
397.339	1357.13
397.553	1384.26
397.766	1602.03
397.98	1928.88
398.194	2257.87
398.408	2507.61
398.621	2742.04
398.835	2904.79
399.049	2977.64
399.262	3163.44
399.476	3206.26
399.69	3213.62
399.903	3313.79
400.117	3291.51
400.331	3357.57
400.544	3362.03
400.758	3541.25
400.971	3439.92
401.185	3485.64
401.398	3483.9
401.612	3607.7
401.826	3669.12
402.039	3707.48
402.253	3749.72
402.466	3855.51
402.68	3809.2
402.893	3989
403.106	3904.33
403.32	3766.96
403.533	3801.84
403.747	3657.5
403.96	3782.85
404.174	3883.79
404.387	3887.67
404.6	3929.52
404.814	3921.77
405.027	3804.94
405.24	3808.81
405.454	3782.46
405.667	3952.19
405.88	3943.85
406.094	3941.14
406.307	3954.7
406.52	3811.14
406.733	3758.24
406.947	3801.45
407.16	3897.74
407.373	3996.36
407.586	3979.7
407.799	4042.67
408.012	4046.54
408.226	4000.43
408.439	4254.24
408.652	4186.04
408.865	4410.2
409.078	4560.36
409.291	4502.43
409.504	4489.45
409.717	4581.09
409.93	4580.7
410.143	4238.16
410.357	4045.38
410.57	3892.9
410.783	3942.11
410.996	4021.16
411.209	4256.76
411.421	4555.71
411.634	4687.26
411.847	4700.44
412.06	4746.16
412.273	4911.04
412.486	4820.37
412.699	4906.58
412.912	4941.85
413.125	4811.84
413.338	4823.08
413.55	4760.89
413.763	4695.59
413.976	4756.62
414.189	4777.55
414.402	4867.06
414.615	5031.94
414.827	4913.56
415.04	4927.9
415.253	4976.14
415.466	5028.45
415.678	5014.69
415.891	5016.83
416.104	4910.85
416.316	5010.24
416.529	5144.7
416.742	5323.14
416.954	5279.35
417.167	5260.75
417.38	5179.19
417.592	5038.33
417.805	4929.64
418.017	4990.67
418.23	4957.15
418.442	4916.85
418.655	5064.29
418.868	5005.98
419.08	5084.06
419.293	5086.38
419.505	5233.82
419.718	5155.55
419.93	5253.59
420.142	5122.42
420.355	5122.61
420.567	4964.13
420.78	5169.31
420.992	5208.44
421.205	5407.03
421.417	5567.07
421.629	5621.12
421.842	5618.02
422.054	5611.44
422.266	5670.14
422.479	5560.29
422.691	5356.47
422.903	5293.69
423.115	5159.81
423.328	5128.42
423.54	5130.75
423.752	5254.17
423.964	5475.23
424.177	5536.07
424.389	5456.05
424.601	5608.34
424.813	5602.91
425.025	5635.27
425.238	5626.35
425.45	5605.82
425.662	5526.19
425.874	5835.6
426.086	5583.15
426.298	5658.9
426.51	5628.87
426.722	5606.4
426.934	5702.89
427.146	5652.32
427.358	5668.98
427.57	5565.32
427.782	5435.51
427.994	5413.04
428.206	5417.69
428.418	5747.06
428.63	5899.15
428.842	5882.49
429.054	5741.05
429.266	5618.02
429.478	5523.09
429.69	5435.13
429.902	5273.15
430.114	5275.48
430.325	4987.57
430.537	4731.24
430.749	4546.6
430.961	4323.79
431.173	4352.47
431.384	4457.28
431.596	4572.95
431.808	5182.48
432.02	5821.07
432.231	6342.83
432.443	6667.36
432.655	6542.2
432.867	6386.23
433.078	6372.67
433.29	6443.39
433.502	6544.14
433.713	6756.1
433.925	6999.83
434.136	6680.53
434.348	6262.43
434.56	6065.77
434.771	6279.28
434.983	6128.94
435.194	6546.07
435.406	6915.94
435.617	6950.81
435.829	7090.89
436.04	7144.75
436.252	6991.11
436.463	7263.52
436.675	7653.92
436.886	7725.61
437.098	7787.41
437.309	7768.04
437.521	7554.14
437.732	7351.29
437.943	7304.21
438.155	7218.38
438.366	7135.06
438.578	7298.01
438.789	6952.75
439	6818.29
439.211	6805.69
439.423	6863.43
439.634	7162.19
439.845	7438.86
440.057	7557.63
440.268	7834.69
440.479	7790.9
440.69	7789.54
440.902	7513.84
441.113	7483.81
441.324	7681.63
441.535	7961.98
441.746	8179.94
441.957	8147.2
442.168	8358.38
442.38	8353.73
442.591	8439.56
442.802	8302.59
443.013	8581
443.224	8686.4
443.435	8506.02
443.646	8536.63
443.857	8388.61
444.068	8540.51
444.279	8341.72
444.49	8832.48
444.701	8624.98
444.912	8981.86
445.123	8905.91
445.334	8615.29
445.545	8897.58
445.756	8657.14
445.967	8514.93
446.178	8336.68
446.388	8240.97
446.599	8306.07
446.81	8390.74
447.021	8360.71
447.232	8616.84
447.443	8794.9
447.653	9023.71
447.864	9186.27
448.075	9185.1
448.286	9185.69
448.496	9102.76
448.707	9251.75
448.918	8952.61
449.129	9072.15
449.339	9149.84
449.55	9300.96
449.761	9189.17
449.971	9077.77
450.182	9369.75
450.393	9405.59
450.603	9393.58
450.814	9777.78
451.024	9705.12
451.235	10062.78
451.446	10033.14
451.656	9981.41
451.867	9891.89
452.077	9590.81
452.288	9824.08
452.498	9581.7
452.709	9672.18
452.919	9368.39
453.13	9170.96
453.34	9071.57
453.55	8713.33
453.761	9166.12
453.971	9023.13
454.182	9281.2
454.392	9316.08
454.602	9779.91
454.813	9804.13
455.023	9563.1
455.233	9424.58
455.444	9593.14
455.654	9235.87
455.864	9504.79
456.075	9619.49
456.285	9590.81
456.495	9751.23
456.705	9839.78
456.916	10094.94
457.126	10192.78
457.336	10013.57
457.546	9849.27
457.756	10002.33
457.967	10179.03
458.177	9926.19
458.387	9973.46
458.597	9807.42
458.807	9956.8
459.017	9728.37
459.227	9762.86
459.437	9721.2
459.647	10040.11
459.857	9904.68
460.068	10191.23
460.278	10063.36
460.488	10037.59
460.698	10163.92
460.908	10266.99
461.117	10475.07
461.327	10482.63
461.537	10618.83
461.747	10592.68
461.957	10586.87
462.167	10745.54
462.377	10692.65
462.587	10681.22
462.797	10893.37
463.007	10736.05
463.216	10968.35
463.426	11260.52
463.636	10970.1
463.846	10763.37
464.056	10729.27
464.265	10617.48
464.475	10664.17
464.685	11007.1
464.895	10863.34
465.104	10556.45
465.314	10940.26
465.524	10788.36
465.733	10696.72
465.943	11035.58
466.153	11218.67
466.362	11338.22
466.572	11276.8
466.782	11066.78
466.991	11304.7
467.201	11103.78
467.41	10843.77
467.62	11158.61
467.829	11191.94
468.039	11394.4
468.249	11393.82
468.458	11609.27
468.668	11514.33
468.877	11737.14
469.086	11825.49
469.296	12095.96
469.505	12277.12
469.715	11986.69
469.924	11932.63
470.134	12212.02
470.343	11825.49
470.552	11851.07
470.762	11767.17
470.971	11940.77
471.18	12018.66
471.39	12106.04
471.599	12020.59
471.808	12252.7
472.018	12586.34
472.227	12797.33
472.436	13313.66
472.645	13326.64
472.855	13209.23
473.064	13747.46
473.273	13666.28
473.482	13180.56
473.691	13473.12
473.901	13281.7
474.11	13069.54
474.319	13571.15
474.528	13553.52
474.737	14245.78
474.946	13993.91
475.155	14127.01
475.364	14487.97
475.573	14193.28
475.783	14611.77
475.992	14446.31
476.201	14375.98
476.41	14596.08
476.619	14411.05
476.828	14414.92
477.037	14363.97
477.245	14402.91
477.454	14667.76
477.663	15061.26
477.872	15502.62
478.081	15684.55
478.29	15630.3
478.499	15836.64
478.708	16156.32
478.917	15972.84
479.125	15656.46
479.334	15768.44
479.543	16182.48
479.752	16325.46
479.961	16272.38
480.169	16696.49
480.378	16794.72
480.587	17222.71
480.796	16941.39
481.004	16964.64
481.213	17191.51
481.422	17127.38
481.63	17597.61
481.839	17634.42
482.048	17829.91
482.256	17801.24
482.465	18341.21
482.674	18111.81
482.882	18145.33
483.091	18247.82
483.299	17908.96
483.508	18525.66
483.716	18602.77
483.925	18691.12
484.134	18056.4
484.342	18514.23
484.551	18498.34
484.759	18219.73
484.967	19066.99
485.176	18762.61
485.384	18895.33
485.593	18643.26
485.801	18485.94
486.01	17835.92
486.218	17011.91
486.426	16251.45
486.635	15746.55
486.843	15795.18
487.051	16313.06
487.26	16560.48
487.468	17098.9
487.676	17703.39
487.885	18142.62
488.093	18510.35
488.301	19206.87
488.509	19229.93
488.717	19540.51
488.926	19709.65
489.134	19414.38
489.342	19376.79
489.55	19188.47
489.758	19569.18
489.967	20214.16
490.175	20080.09
490.383	20801.41
490.591	21250.52
490.799	21142.8
491.007	21048.83
491.215	21089.71
491.423	20943.24
491.631	20957.96
491.839	20731.86
492.047	20715.97
492.255	20324.02
492.463	20243.42
492.671	19878.21
492.879	20353.47
493.087	20677.8
493.295	20889.96
493.503	21161.59
493.711	21798.05
493.919	21625.81
494.127	21471
494.334	21426.64
494.542	21517.5
494.75	22012.33
494.958	21753.87
495.166	22480.23
495.374	22616.24
495.581	22701.88
495.789	22621.47
495.997	22618.76
496.205	21901.32
496.412	22247.74
496.62	22589.51
496.828	22425.79
497.035	22706.53
497.243	22722.61
497.451	22982.62
497.658	22890.01
497.866	22692
498.074	23053.72
498.281	22564.51
498.489	22724.94
498.696	22310.12
498.904	21998.58
499.112	21920.69
499.319	22500.96
499.527	22679.4
499.734	22879.35
499.942	22842.93
500.149	22746.05
500.357	22937.86
500.564	22422.11
500.771	22354.49
500.979	21990.44
501.186	21963.7
501.394	22190
501.601	21757.75
501.808	21739.34
502.016	21824.01
502.223	21747.48
502.43	21871.67
502.638	21894.73
502.845	22408.35
503.052	22504.45
503.26	22575.36
503.467	22789.45
503.674	23036.67
503.881	22927.01
504.089	22616.05
504.296	22566.84
504.503	22308.19
504.71	22084.41
504.917	22435.09
505.125	22592.8
505.332	22967.7
505.539	22854.36
505.746	23348.03
505.953	23680.69
506.16	23773.69
506.367	23810.69
506.574	24283.63
506.781	24173.2
506.988	24010.45
507.195	23770.59
507.402	23738.43
507.609	23685.92
507.816	23382.71
508.023	23348.61
508.23	23146.34
508.437	22959.95
508.644	23063.8
508.851	23114.17
509.058	23589.82
509.265	23606.49
509.472	23937.41
509.679	24095.31
509.885	24142.2
510.092	24065.67
510.299	23999.79
510.506	23459.24
510.713	23609
510.92	23659.96
511.126	23886.64
511.333	23949.03
511.54	24175.13
511.746	24122.24
511.953	24228.8
512.16	24603.7
512.367	24434.95
512.573	24279.18
512.78	24125.15
512.987	24093.57
513.193	23596.41
513.4	23330.59
513.606	23559.02
513.813	23664.42
514.02	23432.31
514.226	23331.56
514.433	23406.73
514.639	23210.08
514.846	23348.22
515.052	23250.57
515.259	23402.08
515.465	23526.27
515.672	23556.5
515.878	23580.72
516.085	24067.41
516.291	23941.28
516.497	23821.16
516.704	23082.59
516.91	22594.74
517.117	21703.89
517.323	21035.07
517.529	20703.38
517.736	20531.72
517.942	20730.31
518.148	21425.09
518.354	21663.39
518.561	21715.32
518.767	21599.65
518.973	21550.44
519.179	21905.97
519.386	22280.09
519.592	22344.03
519.798	22438
520.004	23359.46
520.21	23316.45
520.417	23612.3
520.623	23709.75
520.829	23693.67
521.035	23797.71
521.241	23626.83
521.447	23764.2
521.653	24123.4
521.859	23907.18
522.065	24126.12
522.271	24288.09
522.477	24219.31
522.683	24390.58
522.889	23929.46
523.095	23844.02
523.301	23719.44
523.507	23375.73
523.713	23567.74
523.919	23559.21
524.125	24214.46
524.331	24510.9
524.537	24933.07
524.742	24959.81
524.948	25028.78
525.154	25134.38
525.36	25042.35
525.566	24662.21
525.772	24970.47
525.977	24882.89
526.183	24583.16
526.389	24773.81
526.595	23991.27
526.8	23684.37
527.006	22937.09
527.212	22314
527.417	22245.8
527.623	22317.1
527.829	22557.54
528.034	23158.15
528.24	23192.64
528.446	23821.74
528.651	24365.01
528.857	24506.25
529.062	24660.28
529.268	25053.2
529.473	25236.09
529.679	25521.29
529.884	25458.71
530.09	25224.27
530.295	24806.17
530.501	25090.4
530.706	25171.19
530.912	25409.3
531.117	25396.32
531.323	25415.89
531.528	25908.2
531.733	25973.5
531.939	25694.5
532.144	25585.81
532.35	25488.74
532.555	25387.6
532.76	24690.5
532.966	24518.07
533.171	24285.96
533.376	23980.03
533.581	23991.27
533.787	24390.39
533.992	24766.45
534.197	24297.39
534.402	25045.06
534.607	24995.46
534.813	24945.08
535.018	24929.97
535.223	25328.9
535.428	25229.89
535.633	25474.4
535.838	25698.37
536.043	25887.86
536.249	26167.63
536.454	25788.47
536.659	25984.54
536.864	25906.65
537.069	25515.67
537.274	25310.88
537.479	25086.71
537.684	24991.78
537.889	24864.1
538.094	25523.23
538.299	25306.62
538.504	25737.51
538.708	25527.3
538.913	25882.82
539.118	25769.09
539.323	25616.23
539.528	25343.62
539.733	25293.05
539.938	25181.65
540.142	25016.58
540.347	24939.66
540.552	24758.12
540.757	24416.74
540.962	24721.89
541.166	24358.03
541.371	24399.49
541.576	24456.26
541.781	24623.08
541.985	25262.64
542.19	24881.73
542.395	25547.44
542.599	25590.26
542.804	25150.07
543.008	25506.37
543.213	25422.87
543.418	25064.24
543.622	25375.59
543.827	25011.73
544.031	25362.03
544.236	25501.14
544.44	25836.32
544.645	25808.23
544.849	25683.07
545.054	25847.37
545.258	25774.52
545.463	25936.88
545.667	25467.81
545.872	25963.42
546.076	25653.04
546.281	25799.7
546.485	25720.07
546.689	25822.57
546.894	25651.87
547.098	25985.12
547.302	25792.54
547.507	25747.78
547.711	25852.79
547.915	25651.49
548.119	25334.52
548.324	25283.95
548.528	25389.54
548.732	25489.71
548.936	25667.96
549.141	25688.3
549.345	25859.96
549.549	25827.8
549.753	26085.67
549.957	25846.2
550.161	26065.33
550.366	26099.04
550.57	25861.9
550.774	25853.37
550.978	25889.6
551.182	25755.72
551.386	25526.33
551.59	25687.72
551.794	25586
551.998	25718.91
552.202	25828.18
552.406	25773.74
552.61	26185.84
552.814	25916.73
553.018	25782.65
553.222	25492.23
553.426	25616.81
553.63	25836.52
553.833	25789.05
554.037	25424.03
554.241	25439.92
554.445	25927
554.649	25893.48
554.853	25604.6
555.056	25907.62
555.26	26086.06
555.464	25843.3
555.668	25963.61
555.871	25944.24
556.075	26083.74
556.279	25878.37
556.483	25780.33
556.686	25484.48
556.89	25639.86
557.094	25525.75
557.297	25172.16
557.501	25225.05
557.704	24811.21
557.908	25182.04
558.112	25158.4
558.315	25247.14
558.519	25074.51
558.722	24834.26
558.926	24833.29
559.129	24267.74
559.333	24548.1
559.536	24478.35
559.74	24203.23
559.943	24098.22
560.147	24406.47
560.35	24174.16
560.553	24684.3
560.757	24565.92
560.96	24642.65
561.164	24928.04
561.367	25112.48
561.57	25040.21
561.774	24892.19
561.977	24623.46
562.18	24751.92
562.384	24748.63
562.587	24607
562.79	24832.52
562.993	24585.1
563.197	24568.83
563.4	24905.37
563.603	24953.03
563.806	25048.16
564.009	24941.4
564.212	25027.23
564.416	24558.95
564.619	24622.69
564.822	24453.55
565.025	24674.61
565.228	24592.46
565.431	24867.78
565.634	24551.58
565.837	24301.07
566.04	24178.04
566.243	23898.46
566.446	23784.73
566.649	24152.46
566.852	23846.93
567.055	24126.7
567.258	24108.29
567.461	24371.01
567.664	24426.62
567.867	24550.03
568.07	24273.17
568.273	24548.1
568.475	24708.91
568.678	24060.05
568.881	24051.91
569.084	23675.27
569.287	23522.21
569.489	23866.69
569.692	23828.52
569.895	24067.22
570.098	23790.35
570.3	23798.29
570.503	23744.43
570.706	23614.04
570.909	23550.49
571.111	23180.24
571.314	23015.94
571.516	23102.55
571.719	23190.7
571.922	23130.06
572.124	23406.93
572.327	23671.58
572.529	23693.09
572.732	23807.79
572.935	23949.03
573.137	24328.39
573.34	23843.83
573.542	24257.67
573.745	24089.69
573.947	24124.18
574.15	23927.14
574.352	23982.55
574.554	24239.26
574.757	23925.01
574.959	23512.71
575.162	24057.53
575.364	23612.1
575.566	23709.56
575.769	23414.48
575.971	23495.27
576.173	22941.93
576.376	23248.63
576.578	23464.08
576.78	23403.44
576.982	23339.11
577.185	23556.69
577.387	23460.01
577.589	23681.85
577.791	23505.35
577.993	23571.8
578.196	23474.74
578.398	23178.11
578.6	23091.51
578.802	23087.05
579.004	22872.57
579.206	23008.78
579.408	23243.98
579.61	23000.83
579.812	23454.39
580.014	23066.71
580.216	23211.05
580.418	23490.82
580.62	23471.25
580.822	23415.84
581.024	23362.56
581.226	23465.05
581.428	23392.39
581.63	23794.03
581.832	23530.15
582.034	23714.4
582.236	23719.44
582.438	23925.2
582.64	23787.64
582.841	23922.49
583.043	24209.23
583.245	23798.1
583.447	24058.88
583.649	23938.76
583.85	23782.41
584.052	23988.55
584.254	23744.43
584.456	23764
584.657	23794.23
584.859	24074.19
585.061	23585.56
585.262	23752.76
585.464	23485.2
585.666	23560.76
585.867	23216.08
586.069	23083.95
586.27	23082.59
586.472	23145.75
586.674	23137.81
586.875	23126.96
587.077	23312.38
587.278	23232.17
587.48	23217.83
587.681	23445.68
587.883	23342.21
588.084	22965.18
588.285	23081.62
588.487	22702.27
588.688	22847.58
588.89	22034.61
589.091	21633.94
589.292	21228.04
589.494	20634.21
589.695	20377.88
589.896	20132.98
590.098	20278.68
590.299	20320.14
590.5	20635.76
590.702	21059.48
590.903	21408.42
591.104	21590.74
591.305	21936.97
591.507	21852.3
591.708	22016.4
591.909	21876.9
592.11	21931.35
592.311	22174.31
592.512	21782.16
592.714	21722.29
592.915	22079.95
593.116	21838.54
593.317	22137.49
593.518	22101.46
593.719	22173.72
593.92	22201.04
594.121	22156.67
594.322	22203.76
594.523	22054.76
594.724	21809.29
594.925	21962.93
595.126	21722.87
595.327	21647.51
595.528	21876.9
595.729	21849.39
595.929	21869.93
596.13	21966.8
596.331	22330.08
596.532	22021.63
596.733	22351.2
596.934	22266.34
597.135	22336.47
597.335	22249.67
597.536	22180.7
597.737	22149.31
597.938	22084.99
598.138	22158.81
598.339	22192.52
