Data from tests_FLMT105791__3__15-39-59-264.txt Node

Date: Mon Mar 20 15:39:59 GMT 2023
User: antho
Spectrometer: FLMT10579
Trigger mode: 0
Integration Time (sec): 1.000000E-1
Scans to average: 10
Electric dark correction enabled: true
Nonlinearity correction enabled: false
Boxcar width: 0
XAxis mode: Wavelengths
Number of Pixels in Spectrum: 3648
>>>>>Begin Spectral Data<<<<<
345.248	-150.69
345.464	-150.69
345.681	-150.69
345.898	-158.24
346.114	-162.12
346.331	-28.63
346.548	17.49
346.764	-7.9
346.981	10.32
347.197	6.44
347.414	-11.77
347.631	-19.33
347.847	56.82
348.064	22.72
348.28	6.64
348.497	-45.09
348.713	-7.7
348.93	26.59
349.146	145.36
349.363	265.68
349.579	254.63
349.796	245.53
350.012	225.57
350.229	295.9
350.445	288.93
350.661	281.76
350.878	293.38
351.094	317.79
351.311	288.54
351.527	325.16
351.743	288.54
351.96	308.3
352.176	334.07
352.392	345.5
352.609	342.59
352.825	274.01
353.041	310.82
353.257	306.17
353.474	342.01
353.69	366.04
353.906	365.65
354.122	353.25
354.339	439.66
354.555	417.57
354.771	399.36
354.987	471.44
355.203	474.73
355.42	407.31
355.636	411.37
355.852	416.41
356.068	408.27
356.284	412.34
356.5	466.79
356.716	418.54
356.932	371.27
357.148	399.17
357.364	374.95
357.58	420.87
357.796	427.65
358.012	405.76
358.228	372.24
358.444	300.16
358.66	439.66
358.876	373.21
359.092	338.72
359.308	375.53
359.524	449.15
359.74	461.55
359.956	494.3
360.172	532.66
360.388	586.33
360.604	547.38
360.819	633.8
361.035	528.01
361.251	502.63
361.467	469.5
361.683	559.98
361.898	528.4
362.114	549.32
362.33	551.84
362.546	592.72
362.762	578
362.977	621.78
363.193	617.33
363.409	664.8
363.624	603.57
363.84	615.97
364.056	614.81
364.271	678.16
364.487	703.74
364.703	659.76
364.918	662.47
365.134	653.75
365.35	670.41
365.565	825.8
365.781	753.53
365.996	800.81
366.212	899.42
366.427	868.62
366.643	893.42
366.858	869.2
367.074	843.62
367.289	920.35
367.505	974.21
367.72	841.88
367.936	868.62
368.151	924.61
368.367	888.57
368.582	871.33
368.798	825.02
369.013	896.13
369.228	870.94
369.444	869.59
369.659	927.13
369.874	915.31
370.09	987.58
370.305	927.9
370.52	951.15
370.736	987.58
370.951	925.39
371.166	971.5
371.381	969.17
371.597	962.97
371.812	934.49
372.027	962.39
372.242	986.61
372.458	989.52
372.673	869.78
372.888	907.56
373.103	875.2
373.318	962.2
373.533	892.84
373.749	874.43
373.964	758.76
374.179	818.44
374.394	744.81
374.609	860.87
374.824	796.93
375.039	854.86
375.254	781.82
375.469	913.76
375.684	889.54
375.899	1002.3
376.114	1011.22
376.329	1033.11
376.544	1011.99
376.759	1034.85
376.974	964.13
377.189	1002.5
377.404	1014.9
377.619	1126.88
377.834	1119.13
378.049	1162.34
378.264	1237.71
378.478	1343.49
378.693	1327.22
378.908	1332.64
379.123	1300.67
379.338	1241
379.553	1185.2
379.767	1136.18
379.982	1109.06
380.197	1126.3
380.412	1114.29
380.626	1221.04
380.841	1333.61
381.056	1330.12
381.271	1407.43
381.485	1345.43
381.7	1269.87
381.915	1265.8
382.129	1162.73
382.344	1097.43
382.559	1069.53
382.773	1058.1
382.988	924.22
383.202	961.03
383.417	911.63
383.632	954.45
383.846	908.14
384.061	927.13
384.275	918.6
384.49	1041.05
384.704	1127.08
384.919	1247.39
385.133	1321.21
385.348	1432.23
385.562	1377.59
385.777	1385.34
385.991	1336.13
386.206	1274.32
386.42	1248.75
386.634	1344.85
386.849	1367.71
387.063	1414.02
387.277	1459.93
387.492	1369.84
387.706	1364.8
387.92	1354.34
388.135	1441.92
388.349	1493.06
388.563	1466.91
388.778	1443.47
388.992	1405.68
389.206	1486.48
389.42	1624.04
389.635	1606.41
389.849	1729.82
390.063	1843.17
390.277	1895.28
390.491	1925.7
390.706	1882.5
390.92	1904
391.134	1923.38
391.348	1972.98
391.562	2020.44
391.776	2151.22
391.99	2109.18
392.205	2149.67
392.419	1980.53
392.633	1931.13
392.847	1829.02
393.061	1605.83
393.275	1523.1
393.489	1288.47
393.703	1075.54
393.917	1036.01
394.131	1061.01
394.345	1290.4
394.559	1527.94
394.773	1658.72
394.986	1927.25
395.2	2075.28
395.414	2196.56
395.628	2259.33
395.842	2384.3
396.056	2389.53
396.27	2247.71
396.484	2138.24
396.697	1921.44
396.911	1709.09
397.125	1456.83
397.339	1364.22
397.553	1386.7
397.766	1576.38
397.98	1885.6
398.194	2255.65
398.408	2495.32
398.621	2726.46
398.835	2890.76
399.049	2929.7
399.262	3118.8
399.476	3192.42
399.69	3228.85
399.903	3276.9
400.117	3286.39
400.331	3313.13
400.544	3290.46
400.758	3480.91
400.971	3401.47
401.185	3447.97
401.398	3428.99
401.612	3603.75
401.826	3647.34
402.039	3674.66
402.253	3756.81
402.466	3789.55
402.68	3802.34
402.893	3907.74
403.106	3823.26
403.32	3738.21
403.533	3786.64
403.747	3708.76
403.96	3825.59
404.174	3818.61
404.387	3850.58
404.6	3902.51
404.814	3916.65
405.027	3760.1
405.24	3788.19
405.454	3737.43
405.667	3888.56
405.88	3962.37
406.094	3914.52
406.307	3982.33
406.52	3825.59
406.733	3698.68
406.947	3783.93
407.16	3872.67
407.373	3951.52
407.586	4002.28
407.799	4034.25
408.012	3947.26
408.226	4003.45
408.439	4187.89
408.652	4169.68
408.865	4360.72
409.078	4497.7
409.291	4498.28
409.504	4503.9
409.717	4592.44
409.93	4503.51
410.143	4276.24
410.357	4040.26
410.57	3879.45
410.783	3914.9
410.996	3976.13
411.209	4190.8
411.421	4578.68
411.634	4643.78
411.847	4667.23
412.06	4740.46
412.273	4854
412.486	4845.28
412.699	4857.68
412.912	4922.39
413.125	4794.71
413.338	4804.2
413.55	4720.51
413.763	4654.05
413.976	4721.67
414.189	4779.99
414.402	4856.32
414.615	5040.38
414.827	4849.35
415.04	4921.23
415.253	4854
415.466	5020.62
415.678	5051.23
415.891	4983.42
416.104	4913.09
416.316	4946.8
416.529	5084.56
416.742	5256.22
416.954	5273.65
417.167	5229.09
417.38	5146.56
417.592	5030.7
417.805	4855.16
418.017	4903.02
418.23	4916.58
418.442	4897.98
418.655	4999.5
418.868	4948.55
419.08	4968.89
419.293	5097.73
419.505	5196.74
419.718	5089.98
419.93	5184.72
420.142	5113.81
420.355	5044.26
420.567	4998.34
420.78	5173.29
420.992	5134.93
421.205	5347.86
421.417	5527.46
421.629	5601.09
421.842	5558.27
422.054	5595.08
422.266	5594.69
422.479	5538.12
422.691	5287.22
422.903	5258.15
423.115	5073.32
423.328	5054.91
423.54	5085.72
423.752	5194.02
423.964	5435.24
424.177	5430.59
424.389	5410.44
424.601	5595.27
424.813	5601.28
425.025	5654.37
425.238	5552.84
425.45	5501.11
425.662	5489.29
425.874	5768.29
426.086	5539.67
426.298	5636.54
426.51	5590.82
426.722	5536.76
426.934	5665.02
427.146	5683.04
427.358	5590.24
427.57	5535.21
427.782	5366.27
427.994	5281.79
428.206	5327.32
428.418	5709.97
428.63	5867.3
428.842	5872.53
429.054	5682.85
429.266	5543.16
429.478	5469.34
429.69	5388.74
429.902	5266.68
430.114	5261.64
430.325	4889.07
430.537	4710.82
430.749	4497.12
430.961	4261.71
431.173	4334.95
431.384	4414.58
431.596	4551.75
431.808	5105.68
432.02	5754.73
432.231	6263.12
432.443	6665.53
432.655	6483.61
432.867	6352.44
433.078	6318.92
433.29	6364.64
433.502	6521.97
433.713	6700.99
433.925	6915.08
434.136	6618.26
434.348	6211.97
434.56	6114.13
434.771	6232.12
434.983	6101.34
435.194	6509.37
435.406	6825.76
435.617	6877.3
435.829	7141.96
436.04	7085.77
436.252	6954.61
436.463	7271.77
436.675	7565.68
436.886	7720.29
437.098	7680.77
437.309	7787.14
437.521	7570.72
437.732	7272.74
437.943	7258.21
438.155	7186.71
438.366	7157.85
438.578	7197.18
438.789	6858.51
439	6773.06
439.211	6776.55
439.423	6808.13
439.634	7121.23
439.845	7401.58
440.057	7474.04
440.268	7805.93
440.479	7737.34
440.69	7725.14
440.902	7494.77
441.113	7462.8
441.324	7623.03
441.535	7952.6
441.746	8154.29
441.957	8113.6
442.168	8340.48
442.38	8310.25
442.591	8404.8
442.802	8251.74
443.013	8489.86
443.224	8622.38
443.435	8499.35
443.646	8433.48
443.857	8293.01
444.068	8434.25
444.279	8334.86
444.49	8787.65
444.701	8546.43
444.912	8930.63
445.123	8859.53
445.334	8563.68
445.545	8786.1
445.756	8551.08
445.967	8474.75
446.178	8245.74
446.388	8128.33
446.599	8182.38
446.81	8356.37
447.021	8280.22
447.232	8583.24
447.443	8721
447.653	8988.18
447.864	9142.79
448.075	9169.33
448.286	9144.72
448.496	9018.59
448.707	9124.38
448.918	8875.8
449.129	9040.1
449.339	9065.29
449.55	9166.04
449.761	9089.7
449.971	9024.99
450.182	9272.79
450.393	9303.02
450.603	9298.17
450.814	9720.15
451.024	9673.07
451.235	10027.82
451.446	9958.85
451.656	9919.52
451.867	9810.44
452.077	9489.79
452.288	9677.72
452.498	9571.94
452.709	9549.07
452.919	9250.32
453.13	9117.6
453.34	9035.26
453.55	8670.62
453.761	9136.59
453.971	8923.08
454.182	9222.03
454.392	9273.95
454.602	9725.77
454.813	9738.37
455.023	9479.13
455.233	9389.81
455.444	9476.81
455.654	9100.74
455.864	9432.44
456.075	9571.55
456.285	9530.47
456.495	9645.56
456.705	9734.1
456.916	9985.39
457.126	10087.5
457.336	9943.16
457.546	9776.53
457.756	9934.44
457.967	10092.34
458.177	9809.86
458.387	9846.67
458.597	9636.84
458.807	9856.36
459.017	9675.2
459.227	9545.01
459.437	9647.69
459.647	9904.6
459.857	9850.55
460.068	10053.98
460.278	10027.05
460.488	10051.27
460.698	10054.95
460.908	10167.13
461.117	10413.19
461.327	10430.04
461.537	10485.26
461.747	10556.75
461.957	10511.8
462.167	10658.47
462.377	10646.85
462.587	10579.81
462.797	10810.76
463.007	10716.4
463.216	10960.52
463.426	11166.86
463.636	10882.25
463.846	10649.56
464.056	10636.19
464.265	10576.32
464.475	10641.23
464.685	10976.41
464.895	10679.4
465.104	10460.07
465.314	10896.2
465.524	10711.36
465.733	10630.18
465.943	10954.52
466.153	11139.74
466.362	11197.28
466.572	11153.69
466.782	10940.57
466.991	11134.9
467.201	10979.12
467.41	10683.66
467.62	11063.21
467.829	11118.23
468.039	11318.76
468.249	11268.77
468.458	11555.33
468.668	11459.62
468.877	11657.24
469.086	11792.86
469.296	11960.06
469.505	12120.88
469.715	11938.56
469.924	11873.27
470.134	12019.55
470.343	11720.59
470.552	11804.1
470.762	11697.92
470.971	11807.2
471.18	11932.94
471.39	12126.3
471.599	11994.16
471.808	12159.43
472.018	12523.09
472.227	12682.35
472.436	13258.95
472.645	13237.25
472.855	13150.25
473.064	13564.68
473.273	13567.2
473.482	13102.2
473.691	13329.86
473.901	13164.2
474.11	13025.87
474.319	13420.14
474.528	13398.83
474.737	14100.39
474.946	13895.79
475.155	14125.97
475.364	14330.37
475.573	14180.6
475.783	14519.66
475.992	14228.26
476.201	14255.39
476.41	14529.73
476.619	14340.83
476.828	14298.21
477.037	14298.79
477.245	14310.22
477.454	14496.02
477.663	14999.96
477.872	15344.25
478.081	15590.89
478.29	15477.35
478.499	15737.75
478.708	16059.76
478.917	15909.02
479.125	15519.78
479.334	15536.64
479.543	16089.01
479.752	16283.53
479.961	16126.99
480.169	16557.3
480.378	16733.22
480.587	17033.72
480.796	16718.11
481.004	16897.91
481.213	17005.82
481.422	17105.02
481.63	17432.65
481.839	17515.19
482.048	17699.05
482.256	17679.29
482.465	18194.66
482.674	17902.1
482.882	18020.87
483.091	18110.96
483.299	17866.64
483.508	18339.39
483.716	18501.94
483.925	18526.16
484.134	17930
484.342	18367.67
484.551	18395.77
484.759	18219.07
484.967	18906.1
485.176	18601.72
485.384	18761.37
485.593	18583.51
485.801	18359.92
486.01	17659.53
486.218	16818.08
486.426	16226.19
486.635	15752.47
486.843	15757.32
487.051	16166.9
487.26	16534.44
487.468	17020.94
487.676	17536.5
487.885	18098.95
488.093	18506.78
488.301	19083.38
488.509	19070.2
488.717	19489.28
488.926	19531.13
489.134	19225
489.342	19276.74
489.55	19060.32
489.758	19388.53
489.967	20129.42
490.175	20020.92
490.383	20793
490.591	21105.13
490.799	20933.66
491.007	20928.43
491.215	20867.59
491.423	20727.32
491.631	20872.82
491.839	20526.4
492.047	20561.28
492.255	20152.28
492.463	20135.23
492.671	19631.1
492.879	20311.73
493.087	20532.02
493.295	20716.47
493.503	21038.48
493.711	21658.47
493.919	21474.41
494.127	21314.18
494.334	21223.51
494.542	21372.5
494.75	21903.56
494.958	21675.13
495.166	22266.64
495.374	22392.77
495.581	22569.08
495.789	22470.85
495.997	22515.61
496.205	21729.77
496.412	22153.69
496.62	22463.68
496.828	22153.3
497.035	22526.84
497.243	22518.71
497.451	22648.52
497.658	22620.42
497.866	22660.72
498.074	22870.55
498.281	22403.82
498.489	22585.94
498.696	22157.56
498.904	21836.72
499.112	21807.46
499.319	22312.75
499.527	22479.18
499.734	22670.22
499.942	22652.78
500.149	22619.65
500.357	22784.34
500.564	22286.4
500.771	22280.59
500.979	21870.43
501.186	21749.72
501.394	22106.22
501.601	21560.63
501.808	21624.95
502.016	21677.26
502.223	21512.77
502.43	21790.99
502.638	21803.2
502.845	22231.38
503.052	22448.76
503.26	22422.03
503.467	22658.98
503.674	22855.25
503.881	22739.19
504.089	22561.14
504.296	22452.06
504.503	22187.01
504.71	21990.55
504.917	22314.5
505.125	22460.97
505.332	22787.43
505.539	22779.1
505.746	23300.87
505.953	23511.66
506.16	23605.63
506.367	23810.03
506.574	24164.2
506.781	23979.56
506.988	23864.09
507.195	23695.72
507.402	23648.64
507.609	23657.94
507.816	23271.42
508.023	23166.99
508.23	22928.1
508.437	22696.57
508.644	22807.78
508.851	22989.13
509.058	23373.71
509.265	23594.39
509.472	23751.52
509.679	23882.49
509.885	23990.02
510.092	23870.09
510.299	23779.61
510.506	23325.28
510.713	23451.99
510.92	23340.39
511.126	23564.75
511.333	23848.39
511.54	23886.18
511.746	23997.19
511.953	24108.79
512.16	24386.24
512.367	24309.51
512.573	24082.83
512.78	23978.01
512.987	23867.96
513.193	23434.94
513.4	23250.3
513.606	23426.99
513.813	23529.1
514.02	23212.32
514.226	23182.68
514.433	23240.42
514.639	23011.41
514.846	23122.42
515.052	23028.65
515.259	23243.52
515.465	23224.72
515.672	23383.79
515.878	23360.15
516.085	23817.2
516.291	23689.91
516.497	23689.13
516.704	22988.35
516.91	22471.63
517.117	21610.23
517.323	20797.07
517.529	20516.91
517.736	20425.27
517.942	20608.17
518.148	21221.18
518.354	21399.43
518.561	21581.16
518.767	21419.39
518.973	21330.07
519.179	21741.78
519.386	22186.62
519.592	22157.18
519.798	22184.88
520.004	23167.18
520.21	23104.21
520.417	23325.66
520.623	23546.92
520.829	23458.96
521.035	23639.92
521.241	23368.29
521.447	23595.75
521.653	23942.56
521.859	23774.77
522.065	23976.85
522.271	24202.95
522.477	24059
522.683	24350.39
522.889	23806.16
523.095	23571.72
523.301	23623.07
523.507	23358.21
523.713	23527.36
523.919	23501.97
524.125	24101.62
524.331	24333.34
524.537	24739.83
524.742	24923.3
524.948	24772.96
525.154	24964.38
525.36	24875.84
525.566	24482.72
525.772	24775.67
525.977	24699.33
526.183	24528.45
526.389	24643.53
526.595	23851.69
526.8	23603.5
527.006	22755.08
527.212	22150.01
527.417	22056.62
527.623	22038.6
527.829	22488.29
528.034	22959.87
528.24	23005.79
528.446	23614.54
528.651	24152.38
528.857	24314.55
529.062	24435.26
529.268	24735.56
529.473	25066.48
529.679	25301.69
529.884	25254.81
530.09	24987.24
530.295	24576.88
530.501	24876.61
530.706	24929.5
530.912	24997.7
531.117	25213.73
531.323	25147.28
531.528	25587.28
531.733	25715.92
531.939	25387.91
532.144	25392.17
532.35	25271.27
532.555	25151.54
532.76	24469.55
532.966	24289.94
533.171	24101.62
533.376	23863.7
533.581	23862.34
533.787	24231.24
533.992	24615.83
534.197	24206.05
534.402	24807.44
534.607	24771.21
534.813	24641.4
535.018	24836.89
535.223	25106.98
535.428	24985.3
535.633	25196.1
535.838	25528.18
536.043	25769.79
536.249	26023.79
536.454	25757.97
536.659	25773.27
536.864	25614.01
537.069	25314.67
537.274	25098.84
537.479	25077.72
537.684	24937.45
537.889	24704.95
538.094	25449.72
538.299	25200.94
538.504	25556.86
538.708	25355.75
538.913	25667.29
539.118	25587.86
539.323	25591.15
539.528	25234.07
539.733	25056.8
539.938	25057.18
540.142	24816.36
540.347	24687.71
540.552	24542.2
540.757	24112.28
540.962	24464.12
541.166	24242.48
541.371	24188.03
541.576	24254.1
541.781	24568.94
541.985	25072.49
542.19	24643.73
542.395	25354.39
542.599	25435.57
542.804	24994.6
543.008	25295.88
543.213	25118.8
543.418	24879.71
543.622	25255
543.827	24835.54
544.031	25168.59
544.236	25328.82
544.44	25669.23
544.645	25617.69
544.849	25466.77
545.054	25753.32
545.258	25740.53
545.463	25830.04
545.667	25387.72
545.872	25771.34
546.076	25608.39
546.281	25562.09
546.485	25567.51
546.689	25603.55
546.894	25604.91
547.098	25725.81
547.302	25684.54
547.507	25583.21
547.711	25767.07
547.915	25536.9
548.119	25121.9
548.324	25080.24
548.528	25232.72
548.732	25219.93
548.936	25488.47
549.141	25435.96
549.345	25460.76
549.549	25667.29
549.753	25893.59
549.957	25736.85
550.161	25881
550.366	25870.15
550.57	25704.11
550.774	25601.42
550.978	25717.28
551.182	25543.88
551.386	25472.97
551.59	25630.29
551.794	25377.06
551.998	25573.52
552.202	25642.69
552.406	25676.21
552.61	25921.68
552.814	25701.59
553.018	25612.66
553.222	25313.51
553.426	25496.99
553.63	25490.02
553.833	25622.93
554.037	25320.68
554.241	25289.87
554.445	25789.16
554.649	25653.15
554.853	25497.38
555.056	25770.95
555.26	25967.41
555.464	25633.39
555.668	25727.55
555.871	25664
556.075	25737.24
556.279	25559.38
556.483	25473.35
556.686	25327.46
556.89	25311.19
557.094	25270.31
557.297	24942.68
557.501	24965.15
557.704	24758.04
557.908	24969.42
558.112	24912.26
558.315	25083.53
558.519	24936.87
558.722	24641.79
558.926	24657.48
559.129	24078.57
559.333	24308.54
559.536	24271.15
559.74	24133.59
559.943	23874.36
560.147	24189.39
560.35	24056.48
560.553	24442.42
560.757	24373.06
560.96	24402.9
561.164	24717.35
561.367	25018.82
561.57	24884.94
561.774	24705.92
561.977	24605.56
562.18	24552.86
562.384	24610.21
562.587	24408.13
562.79	24713.28
562.993	24510.62
563.197	24441.26
563.4	24778.58
563.603	24630.36
563.806	24744.28
564.009	24739.63
564.212	24698.17
564.416	24433.71
564.619	24459.47
564.822	24187.84
565.025	24545.5
565.228	24462.96
565.431	24645.08
565.634	24348.07
565.837	24163.23
566.04	24076.24
566.243	23787.75
566.446	23523.48
566.649	23970.46
566.852	23648.45
567.055	23970.65
567.258	24008.04
567.461	24172.34
567.664	24359.31
567.867	24361.24
568.07	24102.2
568.273	24222.71
568.475	24547.24
568.678	23885.21
568.881	23916.79
569.084	23532.97
569.287	23417.5
569.489	23638.57
569.692	23742.22
569.895	23748.42
570.098	23548.28
570.3	23614.54
570.503	23559.32
570.706	23445.01
570.909	23352.4
571.111	22940.11
571.314	22937.59
571.516	22978.86
571.719	23097.04
571.922	22993.58
572.124	23240.42
572.327	23369.26
572.529	23518.64
572.732	23637.4
572.935	23730.21
573.137	24225.43
573.34	23786.2
573.542	24125.26
573.745	23909.62
573.947	23988.28
574.15	23877.46
574.352	23760.82
574.554	23987.12
574.757	23699.4
574.959	23356.28
575.162	23690.1
575.364	23306.48
575.566	23524.06
575.769	23140.25
575.971	23348.14
576.173	22823.08
576.376	23132.5
576.578	23355.89
576.78	23309.58
576.982	23267.54
577.185	23404.91
577.387	23280.91
577.589	23520.19
577.791	23314.04
577.993	23372.36
578.196	23287.3
578.398	23030.59
578.6	22841.49
578.802	22855.25
579.004	22654.91
579.206	22903.49
579.408	23083.48
579.61	22856.99
579.812	23260.57
580.014	22916.47
580.216	22990.87
580.418	23307.26
580.62	23310.55
580.822	23242.35
581.024	23184.62
581.226	23307.26
581.428	23222.01
581.63	23630.43
581.832	23397.74
582.034	23524.06
582.236	23439.01
582.438	23650.77
582.64	23693.4
582.841	23676.54
583.043	23970.46
583.245	23569.79
583.447	23794.34
583.649	23698.43
583.85	23711.61
584.052	23797.44
584.254	23522.32
584.456	23660.46
584.657	23633.14
584.859	23778.84
585.061	23468.65
585.262	23462.06
585.464	23306.1
585.666	23349.88
585.867	23039.11
586.069	23094.52
586.27	22866.68
586.472	22954.64
586.674	22924.22
586.875	22888.57
587.077	22987.77
587.278	23019.93
587.48	23047.06
587.681	23212.52
587.883	23107.12
588.084	22788.98
588.285	22922.67
588.487	22523.16
588.688	22514.45
588.89	21910.53
589.091	21552.1
589.292	21049.13
589.494	20568.25
589.695	20223.19
589.896	19994.76
590.098	20172.04
590.299	20201.49
590.5	20506.64
590.702	20882.12
590.903	21151.05
591.104	21525.56
591.305	21768.91
591.507	21657.31
591.708	21757.47
591.909	21741.97
592.11	21660.6
592.311	21976.41
592.512	21544.74
592.714	21663.7
592.915	21889.61
593.116	21691.79
593.317	21931.07
593.518	21853.57
593.719	22051
593.92	22031.43
594.121	22002.95
594.322	21986.1
594.523	21834.39
594.724	21650.14
594.925	21748.95
595.126	21534.47
595.327	21550.75
595.528	21713.49
595.729	21585.23
595.929	21653.82
596.13	21845.24
596.331	21983.58
596.532	21851.05
596.733	22128.31
596.934	22153.11
597.135	22262.38
597.335	22077.55
597.536	22097.89
597.737	21948.12
597.938	21877.99
598.138	21926.03
598.339	22070.96
