Data from calibration2_FLMT105791__9__17-17-51-083.txt Node

Date: Mon Mar 20 17:17:51 GMT 2023
User: antho
Spectrometer: FLMT10579
Trigger mode: 0
Integration Time (sec): 1.000000E-1
Scans to average: 10
Electric dark correction enabled: true
Nonlinearity correction enabled: false
Boxcar width: 0
XAxis mode: Wavelengths
Number of Pixels in Spectrum: 3648
>>>>>Begin Spectral Data<<<<<
345.248	-154.03
345.464	-154.03
345.681	-154.03
345.898	-163.91
346.114	-166.43
346.331	-37.2
346.548	14.53
346.764	-1.16
346.981	-1.55
347.197	-15.5
347.414	27.12
347.631	-36.62
347.847	54.44
348.064	4.46
348.28	32.55
348.497	-52.31
348.713	11.24
348.93	8.72
349.146	79.63
349.363	100.94
349.579	100.55
349.796	102.88
350.012	73.24
350.229	147.44
350.445	113.15
350.661	80.21
350.878	113.92
351.094	127.68
351.311	124.19
351.527	124.58
351.743	77.89
351.96	126.13
352.176	148.8
352.392	155.58
352.609	125.35
352.825	117.6
353.041	122.64
353.257	119.54
353.474	95.52
353.69	116.44
353.906	150.54
354.122	91.64
354.339	185.22
354.555	151.51
354.771	112.18
354.987	191.42
355.203	228.82
355.42	134.07
355.636	132.33
355.852	160.23
356.068	157.9
356.284	88.54
356.5	187.74
356.716	147.25
356.932	133.88
357.148	156.74
357.364	136.4
357.58	170.3
357.796	168.95
358.012	164.69
358.228	160.81
358.444	49.21
358.66	189.1
358.876	168.17
359.092	130.39
359.308	152.87
359.524	190.65
359.74	177.47
359.956	157.52
360.172	201.3
360.388	238.12
360.604	164.3
360.819	268.34
361.035	209.63
361.251	208.86
361.467	144.73
361.683	213.12
361.898	199.17
362.114	239.47
362.33	204.6
362.546	210.6
362.762	210.41
362.977	237.73
363.193	219.71
363.409	275.9
363.624	220.48
363.84	200.53
364.056	198.59
364.271	251.48
364.487	250.13
364.703	229.01
364.918	234.24
365.134	249.74
365.35	257.1
365.565	369.67
365.781	280.74
365.996	289.85
366.212	358.43
366.427	330.53
366.643	279
366.858	334.99
367.074	270.86
367.289	400.86
367.505	427.41
367.72	276.48
367.936	314.45
368.151	351.07
368.367	350.1
368.582	315.61
368.798	284.23
369.013	353.78
369.228	314.65
369.444	319.88
369.659	343.9
369.874	356.88
370.09	380.33
370.305	281.9
370.52	336.35
370.736	379.94
370.951	339.06
371.166	372.58
371.381	377.03
371.597	366.76
371.812	317.36
372.027	339.25
372.242	333.44
372.458	399.7
372.673	306.12
372.888	336.73
373.103	343.71
373.318	387.49
373.533	326.46
373.749	324.91
373.964	275.31
374.179	337.9
374.394	279.19
374.609	342.16
374.824	285.2
375.039	350.29
375.254	287.13
375.469	359.98
375.684	341.96
375.899	434.19
376.114	365.99
376.329	383.81
376.544	385.36
376.759	375.29
376.974	342.16
377.189	378
377.404	402.41
377.619	461.31
377.834	398.15
378.049	428.96
378.264	445.04
378.478	500.06
378.693	478.75
378.908	490.37
379.123	433.99
379.338	483.01
379.553	455.69
379.767	433.8
379.982	457.24
380.197	447.56
380.412	407.84
380.626	460.15
380.841	544.62
381.056	496.77
381.271	567.68
381.485	471.19
381.7	424.89
381.915	503.36
382.129	393.69
382.344	402.03
382.559	384.01
382.773	405.51
382.988	326.66
383.202	356.49
383.417	312.13
383.632	448.33
383.846	357.46
384.061	347.58
384.275	355.53
384.49	389.63
384.704	449.69
384.919	491.34
385.133	525.44
385.348	555.86
385.562	448.91
385.777	551.99
385.991	490.37
386.206	503.94
386.42	473.71
386.634	551.4
386.849	533.58
387.063	533.19
387.277	504.91
387.492	490.37
387.706	514.4
387.92	526.22
388.135	584.34
388.349	570.39
388.563	563.61
388.778	558.19
388.992	591.12
389.206	586.67
389.42	665.91
389.635	610.89
389.849	698.85
390.063	743.21
390.277	712.8
390.491	765.11
390.706	719.58
390.92	738.95
391.134	745.54
391.348	748.06
391.562	771.7
391.776	805.02
391.99	787.39
392.205	837.57
392.419	791.84
392.633	710.66
392.847	704.66
393.061	631.81
393.275	607.01
393.489	484.56
393.703	422.18
393.917	453.56
394.131	420.43
394.345	541.33
394.559	624.83
394.773	655.06
394.986	774.21
395.2	787
395.414	885.81
395.628	852.68
395.842	919.72
396.056	918.17
396.27	781.77
396.484	818.97
396.697	726.75
396.911	671.14
397.125	569.23
397.339	573.49
397.553	572.33
397.766	746.31
397.98	816.26
398.194	921.07
398.408	980.36
398.621	1088.86
398.835	1152.21
399.049	1151.44
399.262	1240.76
399.476	1281.64
399.69	1270.21
399.903	1325.42
400.117	1244.83
400.331	1332.4
400.544	1291.33
400.758	1452.52
400.971	1347.32
401.185	1397.69
401.398	1343.06
401.612	1446.32
401.826	1452.91
402.039	1458.34
402.253	1455.82
402.466	1518.2
402.68	1486.62
402.893	1553.47
403.106	1490.69
403.32	1455.24
403.533	1500.57
403.747	1453.69
403.96	1493.4
404.174	1540.29
404.387	1520.72
404.6	1515.68
404.814	1541.84
405.027	1484.69
405.24	1473.64
405.454	1459.69
405.667	1581.95
405.88	1515.3
406.094	1567.22
406.307	1611.78
406.52	1518.78
406.733	1465.7
406.947	1452.52
407.16	1580.01
407.373	1629.03
407.586	1573.61
407.799	1566.64
408.012	1622.05
408.226	1621.86
408.439	1702.84
408.652	1646.66
408.865	1779.57
409.078	1845.64
409.291	1800.11
409.504	1776.66
409.717	1856.1
409.93	1789.64
410.143	1709.24
410.357	1573.61
410.57	1507.55
410.783	1581.95
410.996	1666.61
411.209	1689.86
411.421	1882.06
411.634	1886.71
411.847	1851.45
412.06	1964.4
412.273	1922.55
412.486	1961.3
412.699	2024.66
412.912	1964.02
413.125	1970.99
413.338	1913.25
413.55	1927.78
413.763	1930.69
413.976	1921.97
414.189	1921
414.402	1939.8
414.615	2087.05
414.827	1989.78
415.04	1989.4
415.253	2013.42
415.466	2063.99
415.678	2070.77
415.891	2043.45
416.104	2013.23
416.316	2033.57
416.529	2093.63
416.742	2188.37
416.954	2173.65
417.167	2118.24
417.38	2105.45
417.592	2045.97
417.805	1972.73
418.017	1978.35
418.23	2043.06
418.442	1990.95
418.655	2054.3
418.868	2060.89
419.08	2121.73
419.293	2094.41
419.505	2135.68
419.718	2134.71
419.93	2193.22
420.142	2102.35
420.355	2094.8
420.567	2105.06
420.78	2160.28
420.992	2087.82
421.205	2311.99
421.417	2264.13
421.629	2300.36
421.842	2314.7
422.054	2270.33
422.266	2292.61
422.479	2286.02
422.691	2197.87
422.903	2208.14
423.115	2111.46
423.328	2132.38
423.54	2166.87
423.752	2192.64
423.964	2247.66
424.177	2276.53
424.389	2255.8
424.601	2398.98
424.813	2339.69
425.025	2343.57
425.238	2353.06
425.45	2297.26
425.662	2293.97
425.874	2553.98
426.086	2319.93
426.298	2345.7
426.51	2356.74
426.722	2346.67
426.934	2352.48
427.146	2357.13
427.358	2321.48
427.57	2317.22
427.782	2258.12
427.994	2275.37
428.206	2275.56
428.418	2403.43
428.63	2472.8
428.842	2460.59
429.054	2352.09
429.266	2349.57
429.478	2280.4
429.69	2254.25
429.902	2197.67
430.114	2191.47
430.325	2104.87
430.537	1964.02
430.749	1881.48
430.961	1779.18
431.173	1841.37
431.384	1909.19
431.596	1974.87
431.808	2248.24
432.02	2525.69
432.231	2684.95
432.443	2837.04
432.655	2685.72
432.867	2628.57
433.078	2680.3
433.29	2778.92
433.502	2811.08
433.713	2869.59
433.925	2897.3
434.136	2831.81
434.348	2582.84
434.56	2538.48
434.771	2688.63
434.983	2584.01
435.194	2778.34
435.406	2949.22
435.617	2963.75
435.829	3042.8
436.04	3043.19
436.252	3009.28
436.463	3187.53
436.675	3244.49
436.886	3302.81
437.098	3309.4
437.309	3336.33
437.521	3204.39
437.732	3127.27
437.943	3117.2
438.155	3100.34
438.366	3026.91
438.578	3098.99
438.789	2962.59
439	2888.38
439.211	2938.76
439.423	2968.4
439.634	3097.63
439.845	3194.12
440.057	3202.06
440.268	3359.19
440.479	3326.06
440.69	3302.42
440.902	3241.58
441.113	3212.14
441.324	3283.43
441.535	3441.14
441.746	3520.19
441.957	3457.23
442.168	3571.92
442.38	3604.47
442.591	3653.49
442.802	3562.43
443.013	3679.26
443.224	3707.55
443.435	3682.17
443.646	3591.1
443.857	3605.83
444.068	3627.34
444.279	3644.39
444.49	3811.78
444.701	3730.41
444.912	3932.29
445.123	3881.34
445.334	3742.81
445.545	3803.06
445.756	3704.83
445.967	3638.57
446.178	3591.3
446.388	3574.64
446.599	3638.77
446.81	3632.95
447.021	3656.59
447.232	3786.79
447.443	3848.4
447.653	3912.53
447.864	4047.57
448.075	4022.97
448.286	3935.97
448.496	3946.82
448.707	4025.1
448.918	3899.55
449.129	3996.04
449.339	3918.73
449.55	4030.72
449.761	4014.25
449.971	4003.21
450.182	4131.66
450.393	4150.26
450.603	4084.97
450.814	4256.82
451.024	4232.21
451.235	4445.53
451.446	4385.08
451.656	4342.46
451.867	4308.16
452.077	4184.55
452.288	4329.67
452.498	4227.18
452.709	4187.85
452.919	4119.65
453.13	3977.63
453.34	4040.6
453.55	3797.45
453.761	4042.34
453.971	3972.79
454.182	4073.54
454.392	4201.21
454.602	4333.74
454.813	4280.85
455.023	4209.74
455.233	4123.72
455.444	4188.82
455.654	4023.16
455.864	4196.76
456.075	4269.8
456.285	4252.56
456.495	4316.88
456.705	4313.01
456.916	4437.59
457.126	4531.36
457.336	4444.37
457.546	4332.19
457.756	4431
457.967	4552.67
458.177	4362.99
458.387	4404.26
458.597	4341.88
458.807	4370.36
459.017	4298.48
459.227	4344.39
459.437	4294.6
459.647	4421.7
459.857	4406.97
460.068	4475.37
460.278	4530.78
460.488	4458.32
460.698	4507.34
460.908	4562.36
461.117	4635.6
461.327	4653.23
461.537	4745.84
461.747	4694.3
461.957	4699.92
462.167	4863.06
462.377	4809.19
462.587	4718.33
462.797	4872.16
463.007	4783.62
463.216	4935.13
463.426	5038.98
463.636	4921.57
463.846	4728.01
464.056	4815.97
464.265	4787.49
464.475	4761.73
464.685	4933.39
464.895	4874.49
465.104	4708.25
465.314	4955.47
465.524	4814.81
465.733	4784.98
465.943	5035.3
466.153	5101.56
466.362	5130.62
466.572	5082.18
466.782	4977.17
466.991	5092.26
467.201	5015.15
467.41	4809.77
467.62	5040.92
467.829	5057.77
468.039	5182.54
468.249	5141.66
468.458	5234.47
468.668	5237.18
468.877	5310.22
469.086	5355.56
469.296	5472.2
469.505	5516.56
469.715	5460.18
469.924	5381.91
470.134	5513.66
470.343	5354.4
470.552	5369.9
470.762	5322.62
470.971	5364.09
471.18	5464.45
471.39	5525.28
471.599	5424.92
471.808	5548.15
472.018	5662.46
472.227	5821.91
472.436	6013.14
472.645	5998.41
472.855	6013.53
473.064	6156.51
473.273	6206.5
473.482	5995.7
473.691	6107.11
473.901	6036.97
474.11	5948.62
474.319	6232.85
474.528	6189.06
474.737	6462.83
474.946	6398.31
475.155	6420.78
475.364	6523.08
475.573	6460.7
475.783	6571.91
475.992	6545.17
476.201	6545.94
476.41	6591.28
476.619	6496.34
476.828	6478.33
477.037	6458.76
477.245	6523.86
477.454	6616.66
477.663	6786.58
477.872	7014.04
478.081	7107.42
478.29	7006.87
478.499	7211.08
478.708	7297.88
478.917	7285.09
479.125	7060.34
479.334	7181.05
479.543	7374.41
479.752	7428.66
479.961	7410.64
480.169	7570.48
480.378	7629.38
480.587	7918.84
480.796	7732.84
481.004	7730.13
481.213	7816.93
481.422	7838.43
481.63	8052.52
481.839	8058.33
482.048	8265.26
482.256	8208.68
482.465	8345.08
482.674	8256.54
482.882	8280.56
483.091	8433.62
483.299	8218.18
483.508	8493.1
483.716	8558.2
483.925	8572.73
484.134	8231.74
484.342	8496.78
484.551	8541.35
484.759	8393.9
484.967	8766.67
485.176	8702.93
485.384	8667.86
485.593	8581.84
485.801	8536.5
486.01	8143.39
486.218	7780.5
486.426	7486.78
486.635	7271.14
486.843	7370.92
487.051	7645.27
487.26	7791.93
487.468	7952.74
487.676	8209.65
487.885	8484.58
488.093	8638.22
488.301	8967.98
488.509	8903.07
488.717	9119.88
488.926	9109.8
489.134	9003.43
489.342	9031.91
489.55	8889.32
489.758	9154.56
489.967	9434.33
490.175	9455.64
490.383	9767.77
490.591	9948.73
490.799	9755.56
491.007	9809.03
491.215	9829.18
491.423	9756.72
491.631	9737.74
491.839	9658.3
492.047	9585.26
492.255	9372.91
492.463	9432.2
492.671	9213.84
492.879	9591.26
493.087	9662.17
493.295	9815.23
493.503	9922.18
493.711	10162.04
493.919	10113.22
494.127	10056.26
494.334	10066.72
494.542	10106.82
494.75	10364.12
494.958	10235.08
495.166	10478.43
495.374	10618.51
495.581	10592.35
495.789	10603.2
495.997	10591.77
496.205	10229.08
496.412	10401.51
496.62	10563.29
496.828	10461.38
497.035	10612.12
497.243	10633.82
497.451	10678.38
497.658	10684.97
497.866	10683.61
498.074	10770.8
498.281	10528.22
498.489	10659.97
498.696	10453.83
498.904	10349.59
499.112	10337.38
499.319	10616.77
499.527	10727.98
499.734	10799.86
499.942	10703.95
500.149	10694.07
500.357	10731.66
500.564	10523.57
500.771	10515.63
500.979	10311.81
501.186	10158.75
501.394	10528.81
501.601	10251.75
501.808	10282.17
502.016	10305.03
502.223	10249.23
502.43	10379.62
502.638	10305.22
502.845	10503.62
503.052	10628.59
503.26	10622.77
503.467	10767.7
503.674	10803.15
503.881	10746.97
504.089	10635.37
504.296	10625.68
504.503	10487.15
504.71	10408.29
504.917	10596.04
505.125	10698.14
505.332	10778.35
505.539	10854.3
505.746	11124.38
505.953	11189.68
506.16	11178.83
506.367	11315.03
506.574	11413.84
506.781	11451.43
506.988	11296.43
507.195	11251.48
507.402	11179.02
507.609	11237.92
507.816	10995.35
508.023	11015.5
508.23	10909.71
508.437	10787.26
508.644	10893.05
508.851	11007.94
509.058	11196.85
509.265	11220.68
509.472	11354.17
509.679	11487.47
509.885	11459.76
510.092	11381.68
510.299	11443.1
510.506	11191.81
510.713	11204.6
510.92	11169.53
511.126	11366.57
511.333	11411.13
511.54	11518.66
511.746	11507.42
511.953	11588.8
512.16	11748.06
512.367	11600.42
512.573	11501.22
512.78	11518.27
512.987	11435.74
513.193	11245.09
513.4	11132.52
513.606	11255.16
513.813	11345.26
514.02	11170.88
514.226	11220.29
514.433	11175.34
514.639	11014.92
514.846	11048.82
515.052	11125.16
515.259	11163.33
515.465	11217.96
515.672	11286.94
515.878	11357.85
516.085	11504.32
516.291	11407.64
516.497	11384.39
516.704	10964.54
516.91	10746
517.117	10284.1
517.323	9954.35
517.529	9946.21
517.736	9955.12
517.942	10068.85
518.148	10268.99
518.354	10456.73
518.561	10394.93
518.767	10344.16
518.973	10392.02
519.179	10583.44
519.386	10701.24
519.592	10715.19
519.798	10762.66
520.004	11263.11
520.21	11227.07
520.417	11325.3
520.623	11373.74
520.829	11358.82
521.035	11377.03
521.241	11354.75
521.447	11423.92
521.653	11720.35
521.859	11496.19
522.065	11669.01
522.271	11736.43
522.477	11688.58
522.683	11847.64
522.889	11454.53
523.095	11428.57
523.301	11427.6
523.507	11305.54
523.713	11422.37
523.919	11341.77
524.125	11700.01
524.331	11785.45
524.537	12018.92
524.742	12023.18
524.948	12060.76
525.154	12009.03
525.36	12039.45
525.566	11861.79
525.772	11972.8
525.977	11905.77
526.183	11812.77
526.389	11873.61
526.595	11454.92
526.8	11342.93
527.006	11010.46
527.212	10673.53
527.417	10667.92
527.623	10719.65
527.829	10908.74
528.034	11172.05
528.24	11262.91
528.446	11535.9
528.651	11727.13
528.857	11737.21
529.062	11856.36
529.268	12033.25
529.473	12198.91
529.679	12283.77
529.884	12230.49
530.09	12204.33
530.295	11932.31
530.501	12078.2
530.706	12075.68
530.912	12186.7
531.117	12225.64
531.323	12165.19
531.528	12437.22
531.733	12435.67
531.939	12311.47
532.144	12296.56
532.35	12169.26
532.555	12167.71
532.76	11867.41
532.966	11823.81
533.171	11720.35
533.376	11559.73
533.581	11590.35
533.787	11743.79
533.992	12008.65
534.197	11746.51
534.402	12040.23
534.607	12038.68
534.813	12055.73
535.018	11989.85
535.223	12200.65
535.428	12155.89
535.633	12334.14
535.838	12490.5
536.043	12544.55
536.249	12686.57
536.454	12454.27
536.659	12564.12
536.864	12476.35
537.069	12195.61
537.274	12155.12
537.479	12171.78
537.684	12146.98
537.889	12080.53
538.094	12435.67
538.299	12218.28
538.504	12407.77
538.708	12341.31
538.913	12593.96
539.118	12527.11
539.323	12434.7
539.528	12244.05
539.733	12204.91
539.938	12235.72
540.142	12172.17
540.347	12108.43
540.552	11965.44
540.757	11783.9
540.962	11953.62
541.166	11833.89
541.371	11912.94
541.576	11825.36
541.781	11968.35
541.985	12290.94
542.19	12007.48
542.395	12412.42
542.599	12456.01
542.804	12174.3
543.008	12363.2
543.213	12292.29
543.418	12070.26
543.622	12357.97
543.827	12107.26
544.031	12349.84
544.236	12386.45
544.44	12541.06
544.645	12526.34
544.849	12452.13
545.054	12617.79
545.258	12662.93
545.463	12667
545.667	12391.88
545.872	12642.39
546.076	12582.72
546.281	12413.77
546.485	12468.22
546.689	12499.41
546.894	12535.06
547.098	12571.87
547.302	12577.88
547.507	12512.58
547.711	12580.2
547.915	12489.14
548.119	12323.29
548.324	12312.44
548.528	12431.02
548.732	12408.15
548.936	12531.38
549.141	12568.58
549.345	12539.9
549.549	12600.16
549.753	12694.9
549.957	12685.99
550.161	12726.87
550.366	12774.92
550.57	12618.18
550.774	12608.1
550.978	12617.01
551.182	12610.23
551.386	12473.83
551.59	12588.34
551.794	12552.69
551.998	12628.83
552.202	12659.25
552.406	12681.14
552.61	12742.95
552.814	12653.63
553.018	12612.56
553.222	12498.25
553.426	12483.91
553.63	12571.48
553.833	12618.37
554.037	12458.53
554.241	12460.66
554.445	12636.58
554.649	12607.52
554.853	12520.91
555.056	12674.94
555.26	12739.46
555.464	12672.04
555.668	12694.9
555.871	12667.78
556.075	12736.17
556.279	12617.01
556.483	12531.18
556.686	12455.62
556.89	12521.3
557.094	12448.84
557.297	12205.49
557.501	12313.41
557.704	12114.05
557.908	12351.77
558.112	12290.16
558.315	12400.6
558.519	12323.68
558.722	12134.39
558.926	12109.98
559.129	11823.04
559.333	12049.33
559.536	11913.9
559.74	11848.22
559.943	11734.11
560.147	11867.99
560.35	11880.97
560.553	12100.87
560.757	12035.58
560.96	12117.53
561.164	12192.13
561.367	12264.59
561.57	12254.32
561.774	12158.99
561.977	12113.66
562.18	12005.35
562.384	12150.08
562.587	11965.05
562.79	12128
562.993	12071.81
563.197	12008.84
563.4	12149.5
563.603	12240.56
563.806	12217.51
564.009	12100.29
564.212	12166.94
564.416	11964.09
564.619	11980.36
564.822	11893.17
565.025	12129.16
565.228	11981.13
565.431	12067.55
565.634	11858.69
565.837	11889.1
566.04	11775.96
566.243	11787
566.446	11497.93
566.649	11768.01
566.852	11625.22
567.055	11742.83
567.258	11763.36
567.461	11894.92
567.664	11920.88
567.867	11915.65
568.07	11846.67
568.273	11932.31
568.475	11978.23
568.678	11641.5
568.881	11625.22
569.084	11473.13
569.287	11392.53
569.489	11509.36
569.692	11499.67
569.895	11586.08
570.098	11483.4
570.3	11441.74
570.503	11386.33
570.706	11405.51
570.909	11265.82
571.111	11142.21
571.314	11105.4
571.516	11156.35
571.719	11202.08
571.922	11193.55
572.124	11334.79
572.327	11393.11
572.529	11318.91
572.732	11372.77
572.935	11460.73
573.137	11694
573.34	11451.04
573.542	11644.01
573.745	11566.13
573.947	11526.02
574.15	11499.87
574.352	11483.59
574.554	11603.91
574.757	11432.44
574.959	11256.91
575.162	11392.72
575.364	11216.41
575.566	11388.07
575.769	11113.53
575.971	11282.09
576.173	10910.88
576.376	11162.75
576.578	11261.95
576.78	11321.04
576.982	11181.73
577.185	11174.57
577.387	11194.13
577.589	11285.39
577.791	11251.29
577.993	11242.76
578.196	11241.6
578.398	11097.65
578.6	11088.15
578.802	11091.64
579.004	10947.88
579.206	11066.07
579.408	11189.29
579.61	10987.79
579.812	11330.14
580.014	11105.4
580.216	11213.9
580.418	11290.62
580.62	11429.73
580.822	11255.94
581.024	11372.19
581.226	11445.23
581.428	11379.16
581.63	11570.39
581.832	11369.67
582.034	11523.12
582.236	11546.95
582.438	11700.98
582.64	11751.93
582.841	11745.93
583.043	11838.73
583.245	11617.47
583.447	11844.74
583.649	11715.89
583.85	11722.87
584.052	11787.97
584.254	11679.28
584.456	11692.84
584.657	11668.81
584.859	11837.96
585.061	11653.12
585.262	11674.63
585.464	11536.29
585.666	11604.68
585.867	11465.19
586.069	11500.64
586.27	11460.92
586.472	11403.38
586.674	11467.32
586.875	11396.99
587.077	11438.26
587.278	11549.08
587.48	11483.98
587.681	11580.27
587.883	11474.1
588.084	11357.46
588.285	11389.24
588.487	11144.92
588.688	11202.66
588.89	10764.79
589.091	10545.08
589.292	10362.57
589.494	10153.32
589.695	9926.06
589.896	9801.48
590.098	9869.1
590.299	9977.01
590.5	10126.78
590.702	10270.15
590.903	10436.58
591.104	10594.87
591.305	10769.25
591.507	10761.11
591.708	10719.26
591.909	10699.3
592.11	10743.48
592.311	10837.25
592.512	10644.67
592.714	10634.79
592.915	10845.39
593.116	10728.75
593.317	10891.89
593.518	10886.27
593.719	10956.02
593.92	10940.52
594.121	10916.69
594.322	10932.77
594.523	10810.13
594.724	10671.4
594.925	10755.1
595.126	10647.96
595.327	10680.12
595.528	10707.63
595.729	10772.73
595.929	10808.96
596.13	10860.31
596.331	10939.55
596.532	10894.99
596.733	11117.41
596.934	11023.05
597.135	11039.14
597.335	11035.45
597.536	10925.41
597.737	10975.97
597.938	10916.3
598.138	10953.11
598.339	10987.6
598.54	11040.3
598.74	10762.27
598.941	10877.94
599.142	11090.87
599.342	10984.89
599.543	10888.79
599.744	10980.62
599.944	10964.35
600.145	11028.87
600.345	10983.34
600.546	11000.19
600.746	11002.71
600.947	11186.19
601.147	10886.08
601.348	11067.81
