Data from calibration2_FLMT105791__0__17-17-42-084.txt Node

Date: Mon Mar 20 17:17:42 GMT 2023
User: antho
Spectrometer: FLMT10579
Trigger mode: 0
Integration Time (sec): 1.000000E-1
Scans to average: 10
Electric dark correction enabled: true
Nonlinearity correction enabled: false
Boxcar width: 0
XAxis mode: Wavelengths
Number of Pixels in Spectrum: 3648
>>>>>Begin Spectral Data<<<<<
345.248	-169.06
345.464	-169.06
345.681	-169.06
345.898	-153.95
346.114	-165.19
346.331	-32.66
346.548	21.01
346.764	-16.19
346.981	8.8
347.197	-13.68
347.414	9.57
347.631	-16.39
347.847	69.83
348.064	1.82
348.28	33.79
348.497	-47.58
348.713	-18.33
348.93	22.36
349.146	81.26
349.363	72.74
349.579	107.61
349.796	84.94
350.012	99.09
350.229	130.86
350.445	130.47
350.661	91.14
350.878	110.71
351.094	139.38
351.311	127.18
351.527	143.07
351.743	122.34
351.96	148.1
352.176	150.82
352.392	150.23
352.609	167.48
352.825	111.49
353.041	115.94
353.257	146.36
353.474	157.98
353.69	146.55
353.906	138.42
354.122	105.29
354.339	192.08
354.555	166.7
354.771	124.27
354.987	220.37
355.203	200.42
355.42	139.97
355.636	128.92
355.852	105.67
356.068	163.8
356.284	109.35
356.5	198.67
356.716	161.47
356.932	161.47
357.148	164.57
357.364	124.27
357.58	186.47
357.796	212.43
358.012	206.62
358.228	182.4
358.444	101.02
358.66	208.94
358.876	157.98
359.092	139.58
359.308	164.57
359.524	186.66
359.74	195.18
359.956	195.57
360.172	219.02
360.388	221.53
360.604	201.97
360.819	279.85
361.035	198.87
361.251	208.75
361.467	161.47
361.683	229.09
361.898	210.68
362.114	224.63
362.33	226.38
362.546	268.61
362.762	201.97
362.977	215.14
363.193	201.97
363.409	271.52
363.624	204.48
363.84	227.54
364.056	204.68
364.271	259.51
364.487	266.29
364.703	253.7
364.918	215.53
365.134	225.41
365.35	237.61
365.565	369.56
365.781	276.75
365.996	324.03
366.212	358.9
366.427	340.11
366.643	289.73
366.858	298.65
367.074	287.02
367.289	372.46
367.505	433.69
367.72	268.81
367.936	324.22
368.151	372.46
368.367	353.09
368.582	312.98
368.798	331
369.013	363.36
369.228	330.42
369.444	326.35
369.659	394.16
369.874	393.39
370.09	423.22
370.305	322.09
370.52	344.95
370.736	417.99
370.951	334.88
371.166	366.26
371.381	397.65
371.597	401.91
371.812	307.17
372.027	328.68
372.242	338.75
372.458	411.79
372.673	318.99
372.888	339.72
373.103	362
373.318	407.14
373.533	357.16
373.749	320.54
373.964	251.37
374.179	345.53
374.394	274.81
374.609	379.44
374.824	270.36
375.039	355.99
375.254	309.5
375.469	405.4
375.684	342.43
375.899	417.61
376.114	382.54
376.329	392.81
376.544	412.37
376.759	420.32
376.974	379.63
377.189	397.84
377.404	393.19
377.619	461.2
377.834	390.68
378.049	434.85
378.264	428.07
378.478	525.33
378.693	482.71
378.908	530.37
379.123	502.47
379.338	489.1
379.553	462.94
379.767	446.86
379.982	438.34
380.197	436.01
380.412	439.31
380.626	508.67
380.841	575.32
381.056	539.28
381.271	579.38
381.485	472.44
381.7	442.02
381.915	487.55
382.129	428.46
382.344	419.35
382.559	411.99
382.773	436.79
382.988	330.23
383.202	382.54
383.417	337.98
383.632	443.18
383.846	350.57
384.061	353.09
384.275	364.13
384.49	443.37
384.704	496.27
384.919	492.2
385.133	516.61
385.348	546.84
385.562	491.04
385.777	557.88
385.991	486
386.206	507.7
386.42	469.92
386.634	546.64
386.849	554.2
387.063	586.36
387.277	533.85
387.492	535.99
387.706	514.48
387.92	507.5
388.135	583.84
388.349	572.41
388.563	535.99
388.778	557.49
388.992	590.04
389.206	619.3
389.42	665.02
389.635	652.62
389.849	694.66
390.063	734
390.277	734.19
390.491	799.48
390.706	717.91
390.92	761.7
391.134	795.41
391.348	821.18
391.562	742.33
391.776	803.74
391.99	812.85
392.205	850.44
392.419	758.02
392.633	730.31
392.847	751.82
393.061	617.36
393.275	647.58
393.489	459.84
393.703	439.89
393.917	463.72
394.131	434.07
394.345	530.17
394.559	639.83
394.773	672.58
394.986	807.62
395.2	815.37
395.414	901.01
395.628	888.8
395.842	955.64
396.056	894.81
396.27	810.53
396.484	847.14
396.697	752.21
396.911	665.99
397.125	583.07
397.339	571.83
397.553	586.75
397.766	740
397.98	830.87
398.194	928.13
398.408	1049.61
398.621	1111.41
398.835	1194.34
399.049	1188.33
399.262	1267.19
399.476	1301.67
399.69	1306.91
399.903	1367.74
400.117	1303.22
400.331	1352.44
400.544	1320.47
400.758	1430.52
400.971	1365.8
401.185	1409.59
401.398	1384.79
401.612	1442.14
401.826	1488.83
402.039	1501.62
402.253	1478.37
402.466	1545.6
402.68	1493.87
402.893	1613.03
403.106	1494.45
403.32	1474.3
403.533	1542.89
403.747	1461.9
403.96	1519.64
404.174	1564.98
404.387	1527
404.6	1579.51
404.814	1588.23
405.027	1531.46
405.24	1539.01
405.454	1509.37
405.667	1621.75
405.88	1571.56
406.094	1603.34
406.307	1604.11
406.52	1553.93
406.733	1519.83
406.947	1508.6
407.16	1617.48
407.373	1631.63
407.586	1616.71
407.799	1659.53
408.012	1624.46
408.226	1645.58
408.439	1733.15
408.652	1677.74
408.865	1784.3
409.078	1879.24
409.291	1849.2
409.504	1775.77
409.717	1877.88
409.93	1851.14
410.143	1737.61
410.357	1597.14
410.57	1537.08
410.783	1581.06
410.996	1669.41
411.209	1725.98
411.421	1863.54
411.634	1909.65
411.847	1910.62
412.06	1950.34
412.273	1970.3
412.486	2008.85
412.699	2015.44
412.912	1991.8
413.125	1957.9
413.338	1937.94
413.55	1977.27
413.763	1934.26
413.976	1984.05
414.189	1961.38
414.402	2004.98
414.615	2105.53
414.827	1987.93
415.04	2049.15
415.253	2004.98
415.466	2092.74
415.678	2125.1
415.891	2075.89
416.104	2035.78
416.316	2078.79
416.529	2105.34
416.742	2189.62
416.954	2193.3
417.167	2123.94
417.38	2077.63
417.592	2072.79
417.805	2023.19
418.017	2004.01
418.23	2051.09
418.442	2056.71
418.655	2087.71
418.868	2074.53
419.08	2120.06
419.293	2178.19
419.505	2193.69
419.718	2170.24
419.93	2211.51
420.142	2157.26
420.355	2134.21
420.567	2116.38
420.78	2178.38
420.992	2173.54
421.205	2317.1
421.417	2290.75
421.629	2316.14
421.842	2344.62
422.054	2332.99
422.266	2376.39
422.479	2337.64
422.691	2220.23
422.903	2224.88
423.115	2176.64
423.328	2173.73
423.54	2219.65
423.752	2218.49
423.964	2313.81
424.177	2318.46
424.389	2308.77
424.601	2434.51
424.813	2376.78
425.025	2421.73
425.238	2413.01
425.45	2357.21
425.662	2357.6
425.874	2574.01
426.086	2385.69
426.298	2432.19
426.51	2387.63
426.722	2408.94
426.934	2415.33
427.146	2423.28
427.358	2369.42
427.57	2366.7
427.782	2309.94
427.994	2299.67
428.206	2323.11
428.418	2425.6
428.63	2494.77
428.842	2518.21
429.054	2422.11
429.266	2403.32
429.478	2334.73
429.69	2282.42
429.902	2270.02
430.114	2280.49
430.325	2108.44
430.537	2011.56
430.749	1923.99
430.961	1844.55
431.173	1905.2
431.384	1978.82
431.596	1954.6
431.808	2227.98
432.02	2545.73
432.231	2724.17
432.443	2881.88
432.655	2780.55
432.867	2698.59
433.078	2760.2
433.29	2760.59
433.502	2854.75
433.713	2931.67
433.925	2953.37
434.136	2870.64
434.348	2616.44
434.56	2597.26
434.771	2780.16
434.983	2715.45
435.194	2838.28
435.406	3004.91
435.617	3015.76
435.829	3125.22
436.04	3096.55
436.252	3064.19
436.463	3220.74
436.675	3271.89
436.886	3378.45
437.098	3359.27
437.309	3390.85
437.521	3299.4
437.732	3200.2
437.943	3148.47
438.155	3179.28
438.366	3063.22
438.578	3180.64
438.789	2995.61
439	3009.36
439.211	3014.21
439.423	3010.91
439.634	3169.79
439.845	3265.69
440.057	3259.88
440.268	3439.29
440.479	3329.05
440.69	3408.09
440.902	3275.38
441.113	3267.82
441.324	3360.82
441.535	3501.67
441.746	3580.14
441.957	3524.54
442.168	3639.62
442.38	3651.44
442.591	3717.32
442.802	3604.75
443.013	3742.89
443.224	3781.45
443.435	3727.58
443.646	3682.25
443.857	3681.28
444.068	3709.95
444.279	3695.42
444.49	3875.61
444.701	3794.04
444.912	4019.17
445.123	3901.37
445.334	3814.96
445.545	3862.43
445.756	3757.81
445.967	3713.63
446.178	3611.72
446.388	3643.11
446.599	3725.45
446.81	3693.1
447.021	3696.97
447.232	3816.13
447.443	3912.03
447.653	3974.81
447.864	4131.16
448.075	4063.93
448.286	4094.35
448.496	4020.34
448.707	4129.22
448.918	3937.22
449.129	4059.47
449.339	4055.79
449.55	4110.23
449.761	4057.54
449.971	4079.43
450.182	4168.36
450.393	4235.78
450.603	4174.56
450.814	4365.01
451.024	4369.27
451.235	4483.39
451.446	4488.24
451.656	4491.72
451.867	4401.05
452.077	4261.94
452.288	4378.57
452.498	4314.64
452.709	4251.86
452.919	4166.03
453.13	4077.49
453.34	4061.41
453.55	3906.02
453.761	4167.39
453.971	4095.51
454.182	4199.75
454.392	4262.71
454.602	4378.96
454.813	4404.15
455.023	4330.14
455.233	4201.3
455.444	4306.31
455.654	4169.91
455.864	4251.86
456.075	4365.4
456.285	4332.08
456.495	4337.69
456.705	4402.99
456.916	4549.46
457.126	4590.53
457.336	4539.77
457.546	4374.12
457.756	4511.1
457.967	4608.55
458.177	4468.47
458.387	4509.16
458.597	4398.34
458.807	4457.62
459.017	4374.31
459.227	4395.43
459.437	4420.62
459.647	4540.93
459.857	4482.62
460.068	4548.1
460.278	4563.22
460.488	4590.73
460.698	4623.66
460.908	4669.78
461.117	4717.05
461.327	4776.14
461.537	4797.46
461.747	4821.67
461.957	4758.71
462.167	4945.28
462.377	4904.02
462.587	4852.29
462.797	4944.51
463.007	4903.24
463.216	5014.65
463.426	5141.55
463.636	4995.47
463.846	4844.54
464.056	4892.97
464.265	4865.27
464.475	4879.6
464.685	5040.8
464.895	4957.68
465.104	4859.45
465.314	5017.55
465.524	4907.89
465.733	4885.03
465.943	5121.21
466.153	5189.02
466.362	5189.21
466.572	5163.25
466.782	5057.27
466.991	5111.13
467.201	5087.5
467.41	4954.39
467.62	5169.06
467.829	5157.83
468.039	5220.41
468.249	5245.79
468.458	5357.77
468.668	5329.68
468.877	5455.03
469.086	5450.58
469.296	5583.49
469.505	5580
469.715	5575.54
469.924	5496.88
470.134	5668.35
470.343	5427.91
470.552	5478.09
470.762	5399.82
470.971	5498.43
471.18	5572.64
471.39	5641.42
471.599	5560.63
471.808	5668.74
472.018	5790.02
472.227	5983.38
472.436	6115.52
472.645	6115.13
472.855	6093.24
473.064	6311.01
473.273	6314.5
473.482	6099.05
473.691	6227.5
473.901	6133.92
474.11	6066.31
474.319	6269.74
474.528	6228.28
474.737	6600.86
474.946	6495.84
475.155	6575.09
475.364	6662.47
475.573	6569.47
475.783	6730.67
475.992	6646
476.201	6643.67
476.41	6724.08
476.619	6580.12
476.828	6607.05
477.037	6621.39
477.245	6621.39
477.454	6777.75
477.663	6955.61
477.872	7070.3
478.081	7274.71
478.29	7093.94
478.499	7318.88
478.708	7408.59
478.917	7416.53
479.125	7184.23
479.334	7317.91
479.543	7427.19
479.752	7570.37
479.961	7510.3
480.169	7780.39
480.378	7779.42
480.587	7962.32
480.796	7885.59
481.004	7848.2
481.213	7966.39
481.422	8001.07
481.63	8169.43
481.839	8229.69
482.048	8417.62
482.256	8335.86
482.465	8492.41
482.674	8468.77
482.882	8443.39
483.091	8529.61
483.299	8347.49
483.508	8620.67
483.716	8700.49
483.925	8717.74
484.134	8433.9
484.342	8672.59
484.551	8677.24
484.759	8564.48
484.967	8969.03
485.176	8865.95
485.384	8922.14
485.593	8678.79
485.801	8684.22
486.01	8382.55
486.218	7945.07
486.426	7674.02
486.635	7400.26
486.843	7601.56
487.051	7833.47
487.26	7934.22
487.468	8116.15
487.676	8382.55
487.885	8633.26
488.093	8851.23
488.301	9137.39
488.509	9157.35
488.717	9297.82
488.926	9318.74
489.134	9174.4
489.342	9178.47
489.55	9107.17
489.758	9312.54
489.967	9631.06
490.175	9628.74
490.383	9918.58
490.591	10097.02
490.799	9983.1
491.007	9918.58
491.215	10022.43
491.423	9902.89
491.631	9903.66
491.839	9855.03
492.047	9810.47
492.255	9612.46
492.463	9638.42
492.671	9429.18
492.879	9762.81
493.087	9883.13
493.295	9929.24
493.503	10097.22
493.711	10319.64
493.919	10342.89
494.127	10251.44
494.334	10202.03
494.542	10256.09
494.75	10576.55
494.958	10423.88
495.166	10715.46
495.374	10763.13
495.581	10793.16
495.789	10776.3
495.997	10858.64
496.205	10413.99
496.412	10601.74
496.62	10824.74
496.828	10635.25
497.035	10836.56
497.243	10924.52
497.451	10883.44
497.658	10970.05
497.866	10797.23
498.074	10991.17
498.281	10808.08
498.489	10826.68
498.696	10602.9
498.904	10470.18
499.112	10541.29
499.319	10784.25
499.527	10897.59
499.734	10973.15
499.942	10851.09
500.149	10897.01
500.357	10933.43
500.564	10705.78
500.771	10700.74
500.979	10481.03
501.186	10432.98
501.394	10692.8
501.601	10346.38
501.808	10442.67
502.016	10519.39
502.223	10477.93
502.43	10432.21
502.638	10531.6
502.845	10711.01
503.052	10905.53
503.26	10860.58
503.467	10960.17
503.674	10993.3
503.881	10919.09
504.089	10840.43
504.296	10826.68
504.503	10656.95
504.71	10641.84
504.917	10744.53
505.125	10852.44
505.332	11022.75
505.539	11022.36
505.746	11301.94
505.953	11351.34
506.16	11458.29
506.367	11485.22
506.574	11701.25
506.781	11655.53
506.988	11549.93
507.195	11450.93
507.402	11368.01
507.609	11390.09
507.816	11198.48
508.023	11207
508.23	11188.6
508.437	10966.37
508.644	11124.47
508.851	11193.44
509.058	11422.64
509.265	11448.6
509.472	11668.51
509.679	11753.95
509.885	11680.91
510.092	11658.05
510.299	11542.96
510.506	11381.37
510.713	11491.42
510.92	11418.96
511.126	11585.97
511.333	11638.28
511.54	11726.63
511.746	11697.96
511.953	11799.87
512.16	11975.6
512.367	11857.8
512.573	11771.77
512.78	11696.41
512.987	11654.17
513.193	11508.86
513.4	11416.44
513.606	11447.05
513.813	11515.64
514.02	11420.9
514.226	11416.25
514.433	11465.65
514.639	11246.53
514.846	11342.82
515.052	11300
515.259	11466.62
515.465	11510.02
515.672	11410.44
515.878	11603.41
516.085	11756.47
516.291	11630.15
516.497	11575.9
516.704	11263.77
516.91	10952.22
517.117	10491.88
517.323	10194.28
517.529	10127.64
517.736	10052.46
517.942	10270.62
518.148	10429.11
518.354	10575.97
518.561	10605.42
518.767	10527.14
518.973	10497.5
519.179	10843.14
519.386	10961.14
519.592	10925.87
519.798	10976.83
520.004	11509.44
520.21	11417.41
520.417	11512.73
520.623	11616.58
520.829	11601.08
521.035	11585.2
521.241	11518.74
521.447	11696.6
521.653	11930.65
521.859	11768.87
522.065	11843.66
522.271	11967.27
522.477	11781.66
522.683	12032.36
522.889	11775.07
523.095	11662.7
523.301	11661.53
523.507	11562.92
523.713	11690.4
523.919	11619.3
524.125	11880.66
524.331	11987.03
524.537	12228.82
524.742	12242.58
524.948	12269.51
525.154	12263.12
525.36	12317.56
525.566	12138.15
525.772	12276.29
525.977	12121.68
526.183	12009.7
526.389	12115.48
526.595	11701.25
526.8	11616.39
527.006	11148.49
527.212	10877.63
527.417	10891.19
527.623	10883.44
527.829	11161.28
528.034	11402.11
528.24	11450.54
528.446	11679.36
528.651	11971.53
528.857	12046.51
529.062	12161.79
529.268	12268.74
529.473	12374.13
529.679	12471.2
529.884	12517.7
530.09	12360.96
530.295	12156.36
530.501	12320.47
530.706	12286.75
530.912	12417.15
531.117	12429.16
531.323	12452.41
531.528	12631.63
531.733	12594.04
531.939	12552.96
532.144	12474.88
532.35	12397.77
532.555	12405.33
532.76	12175.93
532.966	12046.31
533.171	11882.99
533.376	11816.92
533.581	11837.84
533.787	12022.29
533.992	12204.99
534.197	12009.31
534.402	12256.92
534.607	12229.21
534.813	12233.28
535.018	12304
535.223	12438.65
535.428	12405.91
535.633	12537.85
535.838	12688.59
536.043	12777.71
536.249	12910.62
536.454	12730.82
536.659	12780.42
536.864	12694.4
537.069	12537.66
537.274	12471.98
537.479	12421.41
537.684	12302.06
537.889	12334.8
538.094	12683.74
538.299	12539.01
538.504	12718.81
538.708	12604.11
538.913	12804.45
539.118	12759.11
539.323	12703.51
539.528	12507.63
539.733	12393.7
539.938	12482.44
540.142	12384.4
540.347	12293.15
540.552	12223.98
540.757	12056.39
540.962	12132.73
541.166	12074.6
541.371	12054.84
541.576	12144.54
541.781	12126.53
541.985	12541.73
542.19	12304.77
542.395	12710.09
542.599	12630.27
542.804	12499.49
543.008	12647.32
543.213	12551.8
543.418	12341.97
543.622	12569.82
543.827	12384.79
544.031	12574.08
544.236	12655.84
544.44	12773.45
544.645	12842.62
544.849	12745.16
545.054	12840.29
545.258	12865.67
545.463	12863.93
545.667	12635.11
545.872	12901.51
546.076	12794.76
546.281	12722.1
546.485	12652.16
546.689	12857.15
546.894	12795.34
547.098	12830.41
547.302	12744.39
547.507	12764.73
547.711	12816.46
547.915	12741.67
548.119	12565.56
548.324	12605.08
548.528	12645.38
548.732	12694.21
548.936	12833.7
549.141	12756.2
549.345	12759.11
549.549	12802.9
549.753	12931.93
549.957	12933.87
550.161	13013.69
550.366	12937.75
550.57	12881.95
550.774	12836.22
550.978	12868
551.182	12803.48
551.386	12691.88
551.59	12853.47
551.794	12761.63
551.998	12903.45
552.202	12888.73
552.406	12809.29
552.61	12983.28
552.814	12964.1
553.018	12905.97
553.222	12715.91
553.426	12770.15
553.63	12893.38
553.833	12852.5
554.037	12707.19
554.241	12756.79
554.445	12926.31
554.649	12851.53
554.853	12768.22
555.056	12987.15
555.26	13033.26
555.464	12897.25
555.668	12970.68
555.871	12959.06
556.075	12991.61
556.279	12819.37
556.483	12775.19
556.686	12666.69
556.89	12656.23
557.094	12652.74
557.297	12445.63
557.501	12582.03
557.704	12356.31
557.908	12543.28
558.112	12517.31
558.315	12663.79
558.519	12575.83
558.722	12378.98
558.926	12389.83
559.129	12055.03
559.333	12210.81
559.536	12220.69
559.74	12088.16
559.943	12016.09
560.147	12092.62
560.35	12099.98
560.553	12311.17
560.757	12240.64
560.96	12346.04
561.164	12426.64
561.367	12510.15
561.57	12494.65
561.774	12365.42
561.977	12262.34
562.18	12304.39
562.384	12422.96
562.587	12358.64
562.79	12399.13
562.993	12267.19
563.197	12275.71
563.4	12490.38
563.603	12419.86
563.806	12491.55
564.009	12359.99
564.212	12445.63
564.416	12209.64
564.619	12213.52
564.822	12139.51
565.025	12282.88
565.228	12216.81
565.431	12353.6
565.634	12118
565.837	12075.18
566.04	12017.06
566.243	11925.42
566.446	11753.18
566.649	12085.84
566.852	11768.29
567.055	12008.53
567.258	11981.8
567.461	12120.71
567.664	12191.63
567.867	12094.17
568.07	11997.49
568.273	12068.79
568.475	12165.08
568.678	11861.67
568.881	11878.34
569.084	11668.9
569.287	11566.6
569.489	11663.08
569.692	11771.39
569.895	11784.95
570.098	11668.31
570.3	11616.78
570.503	11626.46
570.706	11580.16
570.909	11539.86
571.111	11332.36
571.314	11293.22
571.516	11365.1
571.719	11409.86
571.922	11376.53
572.124	11514.09
572.327	11577.45
572.529	11597.98
572.732	11632.47
572.935	11674.71
573.137	11932.97
573.34	11671.41
573.542	11835.71
573.745	11760.92
573.947	11795.41
574.15	11715.98
574.352	11643.9
574.554	11874.85
574.757	11643.32
574.959	11508.47
575.162	11680.33
575.364	11383.12
575.566	11587.52
575.769	11368.39
575.971	11492.97
576.173	11160.89
576.376	11319.38
576.578	11517.19
576.78	11483.48
576.982	11354.83
577.185	11431.17
577.387	11463.91
577.589	11547.8
577.791	11467.2
577.993	11529.98
578.196	11490.26
578.398	11292.64
578.6	11248.46
578.802	11240.71
579.004	11153.14
579.206	11333.91
579.408	11412.95
579.61	11242.26
579.812	11467.2
580.014	11369.75
580.216	11377.5
580.418	11550.13
580.62	11544.51
580.822	11537.34
581.024	11585.39
581.226	11608.64
581.428	11550.9
581.63	11837.46
581.832	11671.8
582.034	11784.76
582.236	11663.86
582.438	11853.54
582.64	12004.66
582.841	11974.82
583.043	12100.76
583.245	11895.19
583.447	11994.39
583.649	12057.75
583.85	11961.26
584.052	12064.53
584.254	11914.95
584.456	11979.47
584.657	11826.61
584.859	12098.63
585.061	11934.72
585.262	11900.04
585.464	11731.28
585.666	11791.15
585.867	11630.53
586.069	11707.06
586.27	11617.36
586.472	11612.13
586.674	11625.88
586.875	11636.73
587.077	11671.41
587.278	11687.69
587.48	11686.72
587.681	11856.25
587.883	11735.35
588.084	11589.07
588.285	11621.04
588.487	11317.83
588.688	11314.92
588.89	11005.5
589.091	10739.68
589.292	10601.35
589.494	10341.53
589.695	10167.94
589.896	10033.67
590.098	10093.15
590.299	10210.17
590.5	10293.87
590.702	10516.29
590.903	10620.53
591.104	10811.56
591.305	10970.63
591.507	10960.56
591.708	10950.67
591.909	10915.99
592.11	10914.44
592.311	11076.8
592.512	10884.22
592.714	10887.32
592.915	11055.69
593.116	10948.35
593.317	11160.31
593.518	11108.58
593.719	11085.52
593.92	11211.85
594.121	11228.51
594.322	11105.87
594.523	11059.75
594.724	10969.47
594.925	10953.39
595.126	10811.37
595.327	10928.39
595.528	11024.49
595.729	10913.47
595.929	10953
596.13	10996.2
596.331	11182.98
596.532	11076.8
596.733	11227.35
596.934	11265.13
597.135	11219.79
597.335	11223.08
597.536	11175.42
597.737	11182.78
597.938	11138.22
598.138	11110.52
598.339	11146.17
598.54	11206.42
598.74	11060.34
598.941	11092.11
599.142	11280.04
599.342	11123.5
599.543	11054.33
599.744	11216.3
599.944	11240.91
600.145	11277.33
600.345	11266.48
600.546	11253.89
600.746	11238.19
600.947	11360.64
601.147	11024.69
