Data from calibration2_FLMT105791__6__17-17-48-084.txt Node

Date: Mon Mar 20 17:17:48 GMT 2023
User: antho
Spectrometer: FLMT10579
Trigger mode: 0
Integration Time (sec): 1.000000E-1
Scans to average: 10
Electric dark correction enabled: true
Nonlinearity correction enabled: false
Boxcar width: 0
XAxis mode: Wavelengths
Number of Pixels in Spectrum: 3648
>>>>>Begin Spectral Data<<<<<
345.248	-165.14
345.464	-165.14
345.681	-165.14
345.898	-170.76
346.114	-156.42
346.331	-56.64
346.548	33.26
346.764	5.36
346.981	18.15
347.197	-15.37
347.414	6.14
347.631	-37.07
347.847	68.33
348.064	8.46
348.28	38.49
348.497	-52.18
348.713	-16.92
348.93	58.64
349.146	56.32
349.363	97.78
349.579	96.42
349.796	61.93
350.012	86.35
350.229	116.57
350.445	86.54
350.661	82.67
350.878	139.43
351.094	106.88
351.311	133.43
351.527	148.54
351.743	90.22
351.96	139.63
352.176	137.5
352.392	124.51
352.609	130.52
352.825	106.5
353.041	103.4
353.257	106.88
353.474	141.56
353.69	93.32
353.906	142.15
354.122	130.52
354.339	153.58
354.555	124.51
354.771	107.08
354.987	204.53
355.203	194.65
355.42	114.44
355.636	146.41
355.852	139.63
356.068	149.9
356.284	117.93
356.5	178.57
356.716	161.13
356.932	134.59
357.148	143.5
357.364	145.05
357.58	180.9
357.796	179.54
358.012	156.48
358.228	164.04
358.444	86.73
358.66	163.85
358.876	155.9
359.092	96.23
359.308	153.96
359.524	182.64
359.74	178.38
359.956	165.78
360.172	199.88
360.388	216.16
360.604	178.18
360.819	258.98
361.035	183.03
361.251	206.28
361.467	147.18
361.683	211.51
361.898	198.53
362.114	190
362.33	203.95
362.546	247.93
362.762	200.46
362.977	258.2
363.193	210.93
363.409	254.13
363.624	202.21
363.84	202.79
364.056	199.3
364.271	266.53
364.487	275.44
364.703	219.06
364.918	228.36
365.134	235.73
365.35	244.83
365.565	359.34
365.781	294.24
365.996	345.39
366.212	365.54
366.427	323.69
366.643	304.12
366.858	310.9
367.074	285.71
367.289	377.55
367.505	413.39
367.72	292.11
367.936	315.94
368.151	336.86
368.367	346.94
368.582	309.93
368.798	284.94
369.013	342.48
369.228	319.42
369.444	334.73
369.659	359.72
369.874	344.61
370.09	419.01
370.305	299.47
370.52	313.03
370.736	411.65
370.951	340.16
371.166	395.18
371.381	408.16
371.597	379.29
371.812	310.32
372.027	322.52
372.242	342.67
372.458	418.24
372.673	309.93
372.888	331.05
373.103	362.05
373.318	414.36
373.533	330.86
373.749	332.21
373.964	247.35
374.179	328.72
374.394	262.08
374.609	361.08
374.824	277.19
375.039	347.32
375.254	279.13
375.469	363.02
375.684	359.14
375.899	401.77
376.114	381.62
376.329	357.59
376.544	399.44
376.759	395.95
376.974	334.92
377.189	359.72
377.404	390.34
377.619	467.25
377.834	390.92
378.049	453.89
378.264	458.54
378.478	489.34
378.693	438.97
378.908	494.96
379.123	470.74
379.338	465.9
379.553	430.05
379.767	418.04
379.982	422.5
380.197	439.94
380.412	421.72
380.626	481.4
380.841	567.61
381.056	516.47
381.271	571.88
381.485	476.94
381.7	465.9
381.915	491.08
382.129	427.54
382.344	446.91
382.559	382.59
382.773	418.43
382.988	313.61
383.202	363.79
383.417	308.57
383.632	437.03
383.846	337.83
384.061	385.3
384.275	339.19
384.49	425.02
384.704	463.77
384.919	476.75
385.133	544.56
385.348	566.84
385.562	469.77
385.777	574.01
385.991	507.75
386.206	493.22
386.42	478.68
386.634	565.87
386.849	557.35
387.063	547.85
387.277	499.42
387.492	529.83
387.706	510.27
387.92	524.41
388.135	579.82
388.349	556.96
388.563	554.83
388.778	555.6
388.992	594.55
389.206	588.54
389.42	658.87
389.635	617.6
389.849	686.38
390.063	748.96
390.277	727.26
390.491	772.6
390.706	738.31
390.92	761.56
391.134	724.55
391.348	788.1
391.562	738.31
391.776	798.37
391.99	760.01
392.205	832.27
392.419	763.3
392.633	731.33
392.847	693.94
393.061	606.17
393.275	616.63
393.489	471.32
393.703	428.5
393.917	449.04
394.131	412.81
394.345	519.76
394.559	614.7
394.773	679.41
394.986	770.27
395.2	832.47
395.414	887.49
395.628	859.98
395.842	903.96
396.056	896.79
396.27	824.52
396.484	818.9
396.697	732.49
396.911	646.86
397.125	599.58
397.339	551.34
397.553	584.28
397.766	706.92
397.98	793.91
398.194	928.95
398.408	1014.98
398.621	1080.85
398.835	1164.36
399.049	1135.88
399.262	1265.69
399.476	1275.57
399.69	1263.75
399.903	1335.24
400.117	1277.12
400.331	1316.06
400.544	1319.55
400.758	1454.2
400.971	1369.15
401.185	1356.36
401.398	1354.62
401.612	1427.27
401.826	1454.2
402.039	1447.81
402.253	1458.27
402.466	1503.03
402.68	1480.94
402.893	1552.82
403.106	1504.96
403.32	1452.07
403.533	1511.75
403.747	1474.35
403.96	1501.86
404.174	1546.04
404.387	1514.65
404.6	1552.04
404.814	1554.18
405.027	1502.64
405.24	1480.36
405.454	1526.28
405.667	1586.73
405.88	1523.95
406.094	1582.08
406.307	1579.36
406.52	1528.79
406.733	1476.87
406.947	1468.93
407.16	1618.11
407.373	1591.96
407.586	1582.85
407.799	1561.54
408.012	1624.51
408.226	1594.09
408.439	1713.05
408.652	1688.06
408.865	1787.64
409.078	1877.35
409.291	1845.38
409.504	1777.76
409.717	1813.8
409.93	1832.4
410.143	1689.41
410.357	1577.43
410.57	1507.87
410.783	1577.43
410.996	1646.4
411.209	1715.57
411.421	1884.13
411.634	1922.68
411.847	1871.34
412.06	1936.63
412.273	1977.32
412.486	1966.08
412.699	2018.01
412.912	1978.48
413.125	1949.03
413.338	1918.42
413.55	1942.25
413.763	1910.28
413.976	1937.41
414.189	1928.3
414.402	1951.74
414.615	2070.9
414.827	2001.73
415.04	2037.38
415.253	1999.6
415.466	2064.12
415.678	2060.24
415.891	2015.29
416.104	2003.86
416.316	2030.02
416.529	2065.67
416.742	2182.11
416.954	2165.64
417.167	2132.9
417.38	2078.46
417.592	2079.62
417.805	1988.56
418.017	2028.08
418.23	2072.06
418.442	2049.39
418.655	2030.02
418.868	2058.31
419.08	2116.04
419.293	2142.2
419.505	2175.52
419.718	2129.99
419.93	2177.27
420.142	2097.44
420.355	2119.14
420.567	2105.39
420.78	2151.11
420.992	2153.63
421.205	2312.5
421.417	2274.14
421.629	2315.99
421.842	2320.45
422.054	2313.08
422.266	2330.33
422.479	2303.78
422.691	2160.99
422.903	2213.5
423.115	2118.37
423.328	2138.9
423.54	2159.64
423.752	2183.47
423.964	2284.41
424.177	2311.53
424.389	2263.68
424.601	2389.81
424.813	2380.12
425.025	2341.18
425.238	2368.88
425.45	2344.47
425.662	2298.94
425.874	2617.65
426.086	2316.57
426.298	2393.88
426.51	2346.41
426.722	2355.71
426.934	2344.28
427.146	2386.13
427.358	2325.87
427.57	2346.02
427.782	2232.1
427.994	2268.33
428.206	2269.49
428.418	2381.48
428.63	2489.78
428.842	2451.23
429.054	2410.15
429.266	2375.66
429.478	2313.28
429.69	2263.29
429.902	2214.85
430.114	2256.7
430.325	2098.61
430.537	1978.87
430.749	1927.33
430.961	1794.81
431.173	1858.36
431.384	1938.96
431.596	1955.23
431.808	2258.06
432.02	2540.35
432.231	2729.25
432.443	2868.36
432.655	2746.3
432.867	2674.62
433.078	2688.18
433.29	2738.16
433.502	2842.98
433.713	2855.77
433.925	2915.64
434.136	2845.69
434.348	2630.25
434.56	2554.3
434.771	2762
434.983	2617.07
435.194	2826.32
435.406	2960.01
435.617	2972.02
435.829	3089.82
436.04	3035.57
436.252	3020.45
436.463	3183.01
436.675	3305.65
436.886	3303.91
437.098	3304.49
437.309	3332.97
437.521	3244.43
437.732	3156.47
437.943	3108.03
438.155	3136.12
438.366	2994.69
438.578	3115.39
438.789	2985.58
439	2957.29
439.211	2974.54
439.423	3017.35
439.634	3115.39
439.845	3239.78
440.057	3274.26
440.268	3400.2
440.479	3351.76
440.69	3313.4
440.902	3259.15
441.113	3243.85
441.324	3326.96
441.535	3446.89
441.746	3610.03
441.957	3541.44
442.168	3594.53
442.38	3649.36
442.591	3697.6
442.802	3596.08
443.013	3666.21
443.224	3771.81
443.435	3718.14
443.646	3633.66
443.857	3656.14
444.068	3662.92
444.279	3602.47
444.49	3847.95
444.701	3709.03
444.912	3936.1
445.123	3895.42
445.334	3778.39
445.545	3839.62
445.756	3718.14
445.967	3671.83
446.178	3624.75
446.388	3633.08
446.599	3651.88
446.81	3702.06
447.021	3663.5
447.232	3795.06
447.443	3890.77
447.653	3944.44
447.864	4080.83
448.075	4022.13
448.286	4049.25
448.496	3964.2
448.707	4054.48
448.918	3953.74
449.129	4041.12
449.339	3974.47
449.55	4093.81
449.761	4018.45
449.971	4015.54
450.182	4059.33
450.393	4172.67
450.603	4122.1
450.814	4346.27
451.024	4297.06
451.235	4438.88
451.446	4445.85
451.656	4436.17
451.867	4358.67
452.077	4191.08
452.288	4297.64
452.498	4234.67
452.709	4282.91
452.919	4107.18
453.13	4091.49
453.34	4033.17
453.55	3836.32
453.761	4110.67
453.971	4046.35
454.182	4099.43
454.392	4119.58
454.602	4385.99
454.813	4386.76
455.023	4285.62
455.233	4167.44
455.444	4324.57
455.654	4078.7
455.864	4227.69
456.075	4279.04
456.285	4264.7
456.495	4327.86
456.705	4321.47
456.916	4508.24
457.126	4531.3
457.336	4496.03
457.546	4356.73
457.756	4423.38
457.967	4588.84
458.177	4458.83
458.387	4453.99
458.597	4296.86
458.807	4436.36
459.017	4354.21
459.227	4332.7
459.437	4414.47
459.647	4436.55
459.857	4468.52
460.068	4529.55
460.278	4544.47
460.488	4495.45
460.698	4563.26
460.908	4598.72
461.117	4651.23
461.327	4704.31
461.537	4786.07
461.747	4789.75
461.957	4785.3
462.167	4866.48
462.377	4851.56
462.587	4766.7
462.797	4907.36
463.007	4805.25
463.216	4956.57
463.426	5087.74
463.636	4949.6
463.846	4801.96
464.056	4822.5
464.265	4807
464.475	4758.56
464.685	4938.55
464.895	4906.2
465.104	4766.31
465.314	4945.91
465.524	4837.42
465.733	4838.97
465.943	5031.94
466.153	5105.76
466.362	5165.43
466.572	5113.31
466.782	4973.23
466.991	5080.96
467.201	5073.79
467.41	4887.6
467.62	5101.88
467.829	5082.7
468.039	5208.44
468.249	5186.35
468.458	5346.97
468.668	5225.88
468.877	5359.37
469.086	5415.95
469.296	5501
469.505	5524.06
469.715	5520.18
469.924	5408.58
470.134	5540.91
470.343	5394.44
470.552	5376.42
470.762	5390.56
470.971	5495.19
471.18	5501.19
471.39	5548.47
471.599	5451.21
471.808	5579.47
472.018	5780.97
472.227	5844.51
472.436	6086.7
472.645	6108.4
472.855	6100.65
473.064	6221.93
473.273	6251
473.482	6062.48
473.691	6207.21
473.901	6087.09
474.11	6017.34
474.319	6238.6
474.528	6198.88
474.737	6530.19
474.946	6425.56
475.155	6464.51
475.364	6555.57
475.573	6431.57
475.783	6602.45
475.992	6553.82
476.201	6523.6
476.41	6657.87
476.619	6491.24
476.828	6554.02
477.037	6536.97
477.245	6569.13
477.454	6683.44
477.663	6889.59
477.872	7048.07
478.081	7204.81
478.29	7109.68
478.499	7242.59
478.708	7288.12
478.917	7297.23
479.125	7130.03
479.334	7214.11
479.543	7431.5
479.752	7451.65
479.961	7423.36
480.169	7644.62
480.378	7723.47
480.587	7923.23
480.796	7767.07
481.004	7757.19
481.213	7906.95
481.422	7935.24
481.63	8079.19
481.839	8186.14
482.048	8269.84
482.256	8184.21
482.465	8415.15
482.674	8303.36
482.882	8414.38
483.091	8444.99
483.299	8288.05
483.508	8512.41
483.716	8606.77
483.925	8665.86
484.134	8395.2
484.342	8615.49
484.551	8540.7
484.759	8454.29
484.967	8851.67
485.176	8708.49
485.384	8786.76
485.593	8680.2
485.801	8540.7
486.01	8208.62
486.218	7876.15
486.426	7522.56
486.635	7313.31
486.843	7418.52
487.051	7730.45
487.26	7877.5
487.468	8024.95
487.676	8308.98
487.885	8561.04
488.093	8743.75
488.301	9023.33
488.509	9054.52
488.717	9247.68
488.926	9220.56
489.134	9131.24
489.342	9098.89
489.55	8982.25
489.758	9189.37
489.967	9533.46
490.175	9531.72
490.383	9825.63
490.591	9997.68
490.799	9916.69
491.007	9860.31
491.215	9911.46
491.423	9822.14
491.631	9861.48
491.839	9721.4
492.047	9716.36
492.255	9436.2
492.463	9483.47
492.671	9338.16
492.879	9701.83
493.087	9789.79
493.295	9857.99
493.503	9952.73
493.711	10280.94
493.919	10238.7
494.127	10175.54
494.334	10106.18
494.542	10173.8
494.75	10453.37
494.958	10307.29
495.166	10632.4
495.374	10664.75
495.581	10727.53
495.789	10719.39
495.997	10782.36
496.205	10313.88
496.412	10521.38
496.62	10712.22
496.828	10559.35
497.035	10727.33
497.243	10725.01
497.451	10837.57
497.658	10812
497.866	10745.35
498.074	10835.64
498.281	10656.23
498.489	10760.46
498.696	10515.76
498.904	10386.34
499.112	10380.33
499.319	10738.96
499.527	10759.49
499.734	10920.5
499.942	10815.49
500.149	10748.84
500.357	10823.24
500.564	10567.88
500.771	10586.48
500.979	10405.32
501.186	10342.94
501.394	10578.73
501.601	10268.34
501.808	10341
502.016	10330.93
502.223	10377.23
502.43	10523.7
502.638	10381.3
502.845	10602.17
503.052	10756.39
503.26	10706.6
503.467	10856.56
503.674	10873.03
503.881	10856.37
504.089	10791.27
504.296	10695.56
504.503	10531.45
504.71	10483.4
504.917	10678.12
505.125	10684.32
505.332	10959.44
505.539	10906.55
505.746	11177.02
505.953	11284.94
506.16	11377.35
506.367	11374.84
506.574	11538.55
506.781	11541.85
506.988	11430.44
507.195	11313.22
507.402	11263.82
507.609	11328.14
507.816	11067.36
508.023	11140.21
508.23	10964.87
508.437	10883.3
508.644	11054.57
508.851	11128.39
509.058	11335.5
509.265	11297.92
509.472	11460.86
509.679	11552.11
509.885	11569.94
510.092	11415.33
510.299	11404.48
510.506	11283.39
510.713	11355.46
510.92	11359.14
511.126	11409.52
511.333	11492.05
511.54	11565.68
511.746	11649.76
511.953	11710.99
512.16	11780.15
512.367	11702.85
512.573	11646.86
512.78	11534.29
512.987	11434.51
513.193	11398.47
513.4	11247.74
513.606	11419.78
513.813	11405.45
514.02	11173.34
514.226	11322.52
514.433	11305.47
514.639	11181.67
514.846	11232.62
515.052	11202.21
515.259	11276.61
515.465	11379.87
515.672	11420.37
515.878	11422.69
516.085	11496.12
516.291	11505.03
516.497	11461.25
516.704	11084.8
516.91	10751.36
517.117	10386.92
517.323	10070.72
517.529	10013.37
517.736	10019.77
517.942	10136.21
518.148	10340.22
518.354	10496.39
518.561	10528.16
518.767	10373.16
518.973	10466.16
519.179	10702.73
519.386	10782.74
519.592	10793.4
519.798	10812.19
520.004	11343.84
520.21	11239.21
520.417	11302.76
520.623	11489.15
520.829	11549.4
521.035	11492.44
521.241	11435.09
521.447	11531.77
521.653	11772.21
521.859	11563.54
522.065	11684.25
522.271	11847.77
522.477	11721.26
522.683	11900.47
522.889	11662.74
523.095	11469.58
523.301	11599.58
523.507	11455.05
523.713	11560.25
523.919	11470.55
524.125	11817.55
524.331	11945.03
524.537	12152.92
524.742	12100.03
524.948	12161.06
525.154	12166.49
525.36	12193.42
525.566	12045.39
525.772	12167.07
525.977	12027.96
526.183	11942.13
526.389	11889.23
526.595	11564.13
526.8	11406.22
527.006	11031.52
527.212	10865.67
527.417	10789.14
527.623	10848.81
527.829	11020.08
528.034	11350.81
528.24	11296.17
528.446	11540.68
528.651	11889.23
528.857	11869.67
529.062	12032.8
529.268	12157.57
529.473	12243.02
529.679	12342.41
529.884	12324.58
530.09	12284.48
530.295	12019.82
530.501	12201.75
530.706	12234.1
530.912	12233.52
531.117	12330.78
531.323	12359.07
531.528	12522.79
531.733	12551.46
531.939	12406.54
532.144	12399.95
532.35	12338.34
532.555	12255.8
532.76	11950.07
532.966	11881.87
533.171	11771.44
533.376	11667.39
533.581	11681.73
533.787	11852.42
533.992	12114.37
534.197	11840.6
534.402	12162.22
534.607	12140.91
534.813	12213.57
535.018	12191.29
535.223	12302.5
535.428	12288.35
535.633	12441.61
535.838	12627.8
536.043	12616.17
536.249	12749.08
536.454	12615.79
536.659	12600.48
536.864	12534.61
537.069	12347.45
537.274	12358.3
537.479	12276.15
537.684	12231.2
537.889	12220.15
538.094	12518.14
538.299	12395.5
538.504	12641.75
538.708	12460.59
538.913	12655.31
539.118	12651.05
539.323	12545.65
539.528	12399.37
539.733	12283.9
539.938	12303.66
540.142	12221.12
540.347	12201.94
540.552	12132.39
540.757	11985.72
540.962	12096.35
541.166	11940
541.371	11905.51
541.576	11954.33
541.781	12046.36
541.985	12363.33
542.19	12145.95
542.395	12493.73
542.599	12461.95
542.804	12292.03
543.008	12503.61
543.213	12444.51
543.418	12307.34
543.622	12458.27
543.827	12231.39
544.031	12487.53
544.236	12505.35
544.44	12621.99
544.645	12723.7
544.849	12600.67
545.054	12692.7
545.258	12715.37
545.463	12785.9
545.667	12460.01
545.872	12755.48
546.076	12592.15
546.281	12725.83
546.485	12579.36
546.689	12654.92
546.894	12572.39
547.098	12754.51
547.302	12623.34
547.507	12627.8
547.711	12689.6
547.915	12590.21
548.119	12431.15
548.324	12423.01
548.528	12497.41
548.732	12564.25
548.936	12669.07
549.141	12621.99
549.345	12625.28
549.549	12684.76
549.753	12786.67
549.957	12817.48
550.161	12798.68
550.366	12820
550.57	12726.42
550.774	12675.27
550.978	12775.82
551.182	12689.99
551.386	12581.49
551.59	12651.24
551.794	12590.6
551.998	12756.64
552.202	12749.08
552.406	12733.58
552.61	12908.34
552.814	12827.16
553.018	12739.4
553.222	12566.96
553.426	12640.78
553.63	12707.23
553.833	12739.78
554.037	12519.69
554.241	12620.24
554.445	12800.81
554.649	12751.22
554.853	12712.85
555.056	12789.19
555.26	12866.11
555.464	12735.33
555.668	12758.97
555.871	12785.7
556.075	12874.63
556.279	12746.37
556.483	12666.74
556.686	12504.19
556.89	12565.22
557.094	12582.85
557.297	12355
557.501	12411.77
557.704	12237.79
557.908	12462.92
558.112	12374.18
558.315	12526.47
558.519	12411.19
558.722	12241.08
558.926	12339.5
559.129	11950.07
559.333	12099.84
559.536	12105.65
559.74	11903.18
559.943	11881.68
560.147	12024.28
560.35	11990.76
560.553	12189.93
560.757	12114.76
560.96	12175.01
561.164	12298.23
561.367	12396.85
561.57	12273.24
561.774	12218.41
561.977	12237.79
562.18	12168.23
562.384	12162.42
562.587	12165.71
562.79	12180.44
562.993	12206.59
563.197	12161.26
563.4	12299.98
563.603	12241.66
563.806	12361.59
564.009	12236.43
564.212	12307.53
564.416	12123.09
564.619	12049.46
564.822	11979.71
565.025	12173.27
565.228	12126.77
565.431	12237.2
565.634	11973.71
565.837	11911.13
566.04	11854.75
566.243	11784.42
566.446	11723
566.649	11792.94
566.852	11688.51
567.055	11851.07
567.258	11813.67
567.461	11998.7
567.664	12091.12
567.867	11995.02
568.07	11943.1
568.273	12048.69
568.475	12111.07
568.678	11734.82
568.881	11741.21
569.084	11550.18
569.287	11482.56
569.489	11617.99
569.692	11631.16
569.895	11645.89
570.098	11544.95
570.3	11550.18
570.503	11452.72
570.706	11468.8
570.909	11426.18
571.111	11174.69
571.314	11160.74
571.516	11202.98
571.719	11305.28
571.922	11302.18
572.124	11376.97
572.327	11426.76
572.529	11434.32
572.732	11530.03
572.935	11545.53
573.137	11776.86
573.34	11528.48
573.542	11774.15
573.745	11575.17
573.947	11722.81
574.15	11592.22
574.352	11575.36
574.554	11642.79
574.757	11542.62
574.959	11333.18
575.162	11434.7
575.364	11358.17
575.566	11499.8
575.769	11214.41
575.971	11362.82
576.173	11037.72
576.376	11259.75
576.578	11335.7
576.78	11329.3
576.982	11254.71
577.185	11372.12
577.387	11299.47
577.589	11405.83
577.791	11342.29
577.993	11370.96
578.196	11297.14
578.398	11200.27
578.6	11149.89
578.802	11123.16
579.004	11017.76
579.206	11136.14
579.408	11244.64
579.61	11176.83
579.812	11417.07
580.014	11207.83
580.216	11291.72
580.418	11398.86
580.62	11468.42
580.822	11451.56
581.024	11422.88
581.226	11462.22
581.428	11496.9
581.63	11661.97
581.832	11574.01
582.034	11749.15
582.236	11549.6
582.438	11777.25
582.64	11799.34
582.841	11811.74
583.043	12030.67
583.245	11733.27
583.447	11870.83
583.649	11843.9
583.85	11846.22
584.052	11867.92
584.254	11731.72
584.456	11852.23
584.657	11765.24
584.859	11903.38
585.061	11760.59
585.262	11804.76
585.464	11633.68
585.666	11732.11
585.867	11480.23
586.069	11589.89
586.27	11527.31
586.472	11558.51
586.674	11495.73
586.875	11498.64
587.077	11611.01
587.278	11564.13
587.48	11561.22
587.681	11648.6
587.883	11606.36
588.084	11433.35
588.285	11519.95
588.487	11224.68
588.688	11252.19
588.89	10853.85
589.091	10691.29
589.292	10422.76
589.494	10132.72
589.695	10069.75
589.896	9920.57
590.098	9997.49
590.299	10018.8
590.5	10193.75
590.702	10415.21
590.903	10520.41
591.104	10719.97
591.305	10836.61
591.507	10901.12
591.708	10824.01
591.909	10883.69
592.11	10928.83
592.311	10956.73
592.512	10764.53
592.714	10765.69
592.915	10909.45
593.116	10816.26
593.317	11072.98
593.518	11019.7
593.719	11035.97
593.92	11043.53
594.121	11057.48
594.322	10980.37
594.523	10942.78
594.724	10826.72
594.925	10929.99
595.126	10722.68
595.327	10770.54
595.528	10884.27
595.729	10839.12
595.929	10841.84
596.13	10896.47
596.331	11117.35
596.532	11022.02
596.733	11148.73
596.934	11177.41
597.135	11150.86
597.335	11134.59
597.536	11039.07
597.737	11061.74
597.938	11016.6
598.138	11064.45
598.339	11051.28
598.54	11099.52
598.74	10954.6
598.941	10960.6
599.142	11099.13
599.342	11093.51
599.543	10991.22
599.744	11080.73
599.944	11087.7
600.145	11168.11
600.345	11057.09
600.546	11182.44
600.746	11115.99
600.947	11228.36
601.147	10983.47
601.348	11172.95
