Data from gum_young_FLMT105791__68__17-39-26-043.txt Node

Date: Mon Mar 20 17:39:26 GMT 2023
User: antho
Spectrometer: FLMT10579
Trigger mode: 0
Integration Time (sec): 1.000000E-1
Scans to average: 10
Electric dark correction enabled: true
Nonlinearity correction enabled: false
Boxcar width: 0
XAxis mode: Wavelengths
Number of Pixels in Spectrum: 3648
>>>>>Begin Spectral Data<<<<<
345.248	-151.53
345.464	-151.53
345.681	-151.53
345.898	-143.78
346.114	-155.4
346.331	-36.83
346.548	37.76
346.764	-11.06
346.981	-8.15
347.197	-38.77
347.414	35.83
347.631	-6.6
347.847	69.73
348.064	0.76
348.28	44.35
348.497	-48.65
348.713	-38.38
348.93	24.4
349.146	5.02
349.363	-2.53
349.579	21.68
349.796	-8.54
350.012	-16.1
350.229	24.4
350.445	-2.92
350.661	-8.35
350.878	33.89
351.094	10.64
351.311	32.92
351.527	58.11
351.743	-28.88
351.96	16.65
352.176	5.22
352.392	14.13
352.609	40.86
352.825	-0.79
353.041	8.12
353.257	13.93
353.474	12.96
353.69	24.01
353.906	2.7
354.122	-34.12
354.339	39.7
354.555	28.08
354.771	14.51
354.987	37.76
355.203	79.81
355.42	-3.7
355.636	6.18
355.852	-30.05
356.068	7.35
356.284	-14.35
356.5	78.84
356.716	26.53
356.932	21.3
357.148	32.73
357.364	-22.49
357.58	33.31
357.796	63.53
358.012	48.42
358.228	5.8
358.444	-53.3
358.66	42.41
358.876	46.87
359.092	-17.84
359.308	22.07
359.524	27.88
359.74	-4.86
359.956	-8.54
360.172	17.23
360.388	48.03
360.604	-7.38
360.819	64.7
361.035	21.1
361.251	34.28
361.467	-25.2
361.683	27.3
361.898	25.75
362.114	19.36
362.33	23.04
362.546	41.83
362.762	10.64
362.977	41.25
363.193	9.28
363.409	61.98
363.624	-12.22
363.84	10.06
364.056	1.53
364.271	43.96
364.487	29.82
364.703	12.96
364.918	-5.83
365.134	1.15
365.35	21.88
365.565	108.09
365.781	4.25
365.996	43
366.212	75.35
366.427	14.51
366.643	-21.52
366.858	3.28
367.074	-38.18
367.289	51.52
367.505	96.47
367.72	1.73
367.936	-26.95
368.151	25.95
368.367	47.45
368.582	33.89
368.798	14.9
369.013	58.69
369.228	33.11
369.444	37.96
369.659	65.08
369.874	46.29
370.09	54.43
370.305	-31.98
370.52	8.31
370.736	67.02
370.951	9.28
371.166	82.52
371.381	80.58
371.597	43.58
371.812	-14.55
372.027	1.53
372.242	13.93
372.458	61.79
372.673	18.58
372.888	-0.21
373.103	27.69
373.318	95.5
373.533	47.26
373.749	20.33
373.964	-2.53
374.179	52.68
374.394	-10.87
374.609	64.5
374.824	-13.97
375.039	40.67
375.254	4.83
375.469	75.16
375.684	23.62
375.899	75.16
376.114	27.69
376.329	55.4
376.544	58.5
376.759	71.09
376.974	-0.4
377.189	13.35
377.404	9.48
377.619	61.98
377.834	-6.02
378.049	-11.64
378.264	-18.23
378.478	36.21
378.693	-0.98
378.908	48.23
379.123	17.81
379.338	44.35
379.553	19.55
379.767	45.9
379.982	24.98
380.197	48.61
380.412	9.86
380.626	39.12
380.841	83.3
381.056	39.7
381.271	88.14
381.485	2.89
381.7	-0.21
381.915	30.98
382.129	31.95
382.344	45.51
382.559	40.86
382.773	59.27
382.988	-8.73
383.202	25.36
383.417	-1.57
383.632	116.62
383.846	30.98
384.061	47.84
384.275	31.18
384.49	40.28
384.704	46.29
384.919	32.73
385.133	44.35
385.348	64.31
385.562	3.47
385.777	59.85
385.991	32.15
386.206	6.18
386.42	7.15
386.634	93.37
386.849	29.24
387.063	35.44
387.277	9.67
387.492	38.35
387.706	11.8
387.92	-13.38
388.135	60.24
388.349	65.86
388.563	21.68
388.778	33.7
388.992	53.07
389.206	73.03
389.42	75.74
389.635	29.24
389.849	69.35
390.063	89.11
390.277	62.37
390.491	83.49
390.706	50.16
390.92	63.73
391.134	43.96
391.348	69.93
391.562	8.12
391.776	35.05
391.99	14.51
392.205	65.47
392.419	23.81
392.633	24.78
392.847	70.9
393.061	14.32
393.275	86.78
393.489	12.77
393.703	34.28
393.917	79.81
394.131	7.73
394.345	77.87
394.559	79.03
394.773	35.63
394.986	80.58
395.2	49.2
395.414	56.56
395.628	27.88
395.842	48.61
396.056	57.14
396.27	-5.83
396.484	40.86
396.697	41.64
396.911	93.56
397.125	74.96
397.339	69.73
397.553	62.95
397.766	102.67
397.98	84.65
398.194	64.5
398.408	40.28
398.621	64.5
398.835	66.05
399.049	68.57
399.262	88.91
399.476	76.51
399.69	76.13
399.903	105.96
400.117	37.38
400.331	74.58
400.544	49.97
400.758	170.09
400.971	86.98
401.185	101.31
401.398	40.09
401.612	111.97
401.826	111.78
402.039	74.38
402.253	47.06
402.466	94.15
402.68	77.87
402.893	67.6
403.106	69.93
403.32	74.58
403.533	109.06
403.747	93.56
403.96	93.56
404.174	103.25
404.387	58.88
404.6	71.86
404.814	92.4
405.027	78.45
405.24	82.91
405.454	72.83
405.667	120.3
405.88	22.07
406.094	107.71
406.307	113.13
406.52	114.1
406.733	52.68
406.947	51.91
407.16	129.79
407.373	114.88
407.586	31.18
407.799	51.91
408.012	125.14
408.226	69.15
408.439	143.94
408.652	25.75
408.865	78.45
409.078	134.83
409.291	88.91
409.504	40.86
409.717	104.99
409.93	126.69
410.143	90.27
410.357	48.23
410.57	71.48
410.783	60.63
410.996	124.76
411.209	110.42
411.421	109.45
411.634	114.49
411.847	71.28
412.06	107.71
412.273	113.52
412.486	92.4
412.699	191.41
412.912	89.3
413.125	122.04
413.338	105.77
413.55	123.4
413.763	86.4
413.976	131.15
414.189	76.51
414.402	90.08
414.615	118.94
414.827	79.03
415.04	120.11
415.253	142.58
415.466	128.63
415.678	189.47
415.891	95.31
416.104	116.43
416.316	108.48
416.529	93.56
416.742	127.86
416.954	123.98
417.167	134.06
417.38	95.5
417.592	149.17
417.805	82.91
418.017	74.19
418.23	135.03
418.442	109.84
418.655	127.47
418.868	140.45
419.08	163.89
419.293	142.58
419.505	181.72
419.718	140.26
419.93	163.31
420.142	101.7
420.355	171.06
420.567	152.85
420.78	148.39
420.992	101.7
421.205	163.12
421.417	69.73
421.629	116.81
421.842	94.15
422.054	91.82
422.266	150.14
422.479	152.46
422.691	109.06
422.903	144.13
423.115	111.97
423.328	121.27
423.54	128.83
423.752	127.86
423.964	93.56
424.177	109.64
424.389	109.45
424.601	201.09
424.813	156.92
425.025	146.07
425.238	144.71
425.45	134.83
425.662	122.24
425.874	374.3
426.086	120.3
426.298	142
426.51	139.68
426.722	145.88
426.934	115.26
427.146	158.08
427.358	95.31
427.57	157.31
427.782	123.59
427.994	121.27
428.206	117.39
428.418	78.84
428.63	146.84
428.842	143.36
429.054	144.13
429.266	146.84
429.478	92.01
429.69	157.69
429.902	97.24
430.114	177.65
430.325	128.24
430.537	108.09
430.749	113.91
430.961	73.03
431.173	89.5
431.384	153.24
431.596	79.23
431.808	133.28
432.02	149.17
432.231	163.12
432.443	188.5
432.655	165.64
432.867	143.94
433.078	167.77
433.29	199.74
433.502	164.86
433.713	175.52
433.925	167.96
434.136	218.14
434.348	120.3
434.56	99.38
434.771	261.35
434.983	102.48
435.194	135.8
435.406	153.43
435.617	186.76
435.829	207.1
436.04	186.37
436.252	167.19
436.463	207.49
436.675	197.61
436.886	171.26
437.098	222.79
437.309	230.16
437.521	192.57
437.732	195.28
437.943	176.1
438.155	188.89
438.366	132.31
438.578	210.59
438.789	185.59
439	197.99
439.211	166.41
439.423	195.28
439.634	182.69
439.845	211.75
440.057	199.16
440.268	201.87
440.479	186.17
440.69	191.6
440.902	174.74
441.113	170.29
441.324	214.46
441.535	231.32
441.746	259.99
441.957	160.21
442.168	159.44
442.38	219.89
442.591	238.29
442.802	182.49
443.013	180.94
443.224	249.72
443.435	202.64
443.646	195.67
443.857	202.06
444.068	182.3
444.279	168.16
444.49	251.66
444.701	204.39
444.912	302.62
445.123	236.94
445.334	232.48
445.545	235.77
445.756	212.91
445.967	226.09
446.178	214.46
446.388	239.46
446.599	250.5
446.81	260.77
447.021	211.56
447.232	258.44
447.443	254.57
447.653	197.61
447.864	274.33
448.075	214.46
448.286	284.6
448.496	254.76
448.707	270.07
448.918	238.1
449.129	306.3
449.339	200.51
449.55	250.5
449.761	246.62
449.971	308.43
450.182	241.78
450.393	272.2
450.603	221.63
450.814	291.19
451.024	275.1
451.235	283.05
451.446	311.53
451.656	339.62
451.867	263.48
452.077	290.02
452.288	326.84
452.498	305.91
452.709	310.37
452.919	256.89
453.13	243.33
453.34	294.48
453.55	247.01
453.761	287.31
453.971	294.09
454.182	269.87
454.392	279.56
454.602	328.97
454.813	308.43
455.023	302.04
455.233	228.8
455.444	299.9
455.654	227.44
455.864	258.83
456.075	285.18
456.285	287.5
456.495	294.09
456.705	301.84
456.916	315.21
457.126	354.15
457.336	322.38
457.546	215.82
457.756	266.97
457.967	338.46
458.177	284.79
458.387	287.89
458.597	246.62
458.807	257.86
459.017	290.8
459.227	267.16
459.437	301.45
459.647	342.34
459.857	315.4
460.068	295.06
460.278	325.48
460.488	298.35
460.698	353.57
460.908	281.5
461.117	272.59
461.327	259.8
461.537	320.83
461.747	319.09
461.957	312.89
462.167	407.63
462.377	352.8
462.587	320.44
462.797	352.41
463.007	324.51
463.216	326.06
463.426	357.25
463.636	357.64
463.846	282.27
464.056	284.02
464.265	340.79
464.475	315.02
464.685	296.8
464.895	336.33
465.104	318.31
465.314	329.55
465.524	321.6
465.733	316.18
465.943	416.73
466.153	384.77
466.362	367.91
466.572	324.12
466.782	343.5
466.991	335.36
467.201	368.49
467.41	298.35
467.62	325.29
467.829	339.43
468.039	327.8
468.249	308.43
468.458	346.21
468.668	374.5
468.877	382.83
469.086	387.87
469.296	404.33
469.505	323.54
469.715	430.88
469.924	367.72
470.134	382.63
470.343	420.8
470.552	328.77
470.762	361.71
470.971	329.35
471.18	369.85
471.39	375.47
471.599	334.97
471.808	394.07
472.018	355.32
472.227	411.31
472.436	431.46
472.645	373.33
472.855	340.98
473.064	424.68
473.273	398.72
473.482	399.68
473.691	445.21
473.901	404.33
474.11	418.67
474.319	483.77
474.528	394.84
474.737	455.29
474.946	437.27
475.155	421.58
475.364	465.56
475.573	419.83
475.783	454.71
475.992	459.94
476.201	476.99
476.41	438.63
476.619	423.71
476.828	442.7
477.037	410.34
477.245	408.79
477.454	475.83
477.663	441.73
477.872	438.24
478.081	527.36
478.29	415.96
478.499	544.41
478.708	521.75
478.917	515.74
479.125	504.5
479.334	462.65
479.543	466.72
479.752	477.57
479.961	507.6
480.169	530.66
480.378	499.08
480.587	618.81
480.796	530.85
481.004	518.45
481.213	562.63
481.422	523.88
481.63	502.37
481.839	574.25
482.048	587.43
482.256	555.84
482.465	579.87
482.674	530.27
482.882	564.95
483.091	620.17
483.299	554.1
483.508	566.11
483.716	572.89
483.925	587.81
484.134	533.56
484.342	551
484.551	588.39
484.759	582.19
484.967	596.73
485.176	617.46
485.384	625.4
485.593	609.71
485.801	626.37
486.01	551.58
486.218	580.84
486.426	494.62
486.635	526.01
486.843	518.65
487.051	539.76
487.26	542.48
487.468	581.23
487.676	589.56
487.885	580.84
488.093	613.58
488.301	629.47
488.509	627.14
488.717	649.62
488.926	606.03
489.134	607.58
489.342	620.36
489.55	590.33
489.758	622.88
489.967	622.3
490.175	702.12
490.383	637.61
490.591	722.27
490.799	653.69
491.007	718.59
491.215	693.41
491.423	657.56
491.631	648.26
491.839	669.96
492.047	713.75
492.255	654.85
492.463	640.32
492.671	645.55
492.879	737.19
493.087	659.89
493.295	716.27
493.503	733.9
493.711	710.26
493.919	755.99
494.127	746.69
494.334	760.25
494.542	696.89
494.75	739.32
494.958	718.2
495.166	784.85
495.374	746.49
495.581	757.34
495.789	739.32
495.997	794.15
496.205	752.11
496.412	733.12
496.62	744.94
496.828	782.14
497.035	732.74
497.243	792.99
497.451	769.94
497.658	770.71
497.866	796.28
498.074	837.75
498.281	739.52
498.489	855.18
498.696	775.94
498.904	752.3
499.112	774.2
499.319	859.64
499.527	835.81
499.734	820.12
499.942	751.72
500.149	775.94
500.357	812.95
500.564	775.17
500.771	806.75
500.979	813.92
501.186	761.6
501.394	809.46
501.601	812.75
501.808	819.73
502.016	828.83
502.223	812.37
502.43	811.78
502.638	842.59
502.845	816.05
503.052	919.31
503.26	849.37
503.467	931.71
503.674	860.03
503.881	876.3
504.089	929.58
504.296	901.68
504.503	807.91
504.71	891.22
504.917	861.38
505.125	899.75
505.332	910.21
505.539	918.35
505.746	978.21
505.953	1005.34
506.16	983.64
506.367	1008.83
506.574	985.96
506.781	1010.38
506.988	962.52
507.195	997.39
507.402	972.59
507.609	1024.52
507.816	979.96
508.023	971.43
508.23	970.46
508.437	953.22
508.644	997.01
508.851	1063.66
509.058	1068.69
509.265	1038.28
509.472	1093.3
509.679	1122.75
509.885	1090.59
510.092	1065.01
510.299	1078.38
510.506	1059.78
510.713	1102.02
510.92	1097.95
511.126	1116.94
511.333	1133.6
511.54	1169.83
511.746	1173.32
511.953	1186.88
512.16	1199.47
512.367	1180.49
512.573	1116.55
512.78	1163.24
512.987	1170.41
513.193	1175.84
513.4	1103.18
513.606	1156.07
513.813	1232.22
514.02	1181.07
514.226	1272.9
514.433	1280.46
514.639	1173.51
514.846	1238.03
515.052	1211.68
515.259	1220.98
515.465	1289.95
515.672	1260.5
515.878	1348.85
516.085	1282.98
516.291	1323.66
516.497	1294.99
516.704	1284.53
516.91	1234.93
517.117	1171.77
517.323	1150.84
517.529	1213.42
517.736	1198.31
517.942	1259.53
518.148	1263.02
518.354	1265.15
518.561	1311.07
518.767	1277.17
518.973	1373.65
519.179	1356.99
519.386	1350.98
519.592	1353.5
519.798	1342.26
520.004	1487.38
520.21	1436.62
520.417	1487.77
520.623	1517.22
520.829	1562.94
521.035	1549.38
521.241	1561.01
521.447	1554.42
521.653	1662.92
521.859	1586.19
522.065	1573.21
522.271	1687.52
522.477	1668.92
522.683	1727.24
522.889	1651.1
523.095	1650.13
523.301	1644.51
523.507	1607.5
523.713	1690.23
523.919	1655.75
524.125	1741.97
524.331	1709.42
524.537	1843.49
524.742	1801.45
524.948	1798.73
525.154	1812.1
525.36	1878.75
525.566	1803.19
525.772	1886.5
525.977	1836.13
526.183	1862.86
526.389	1851.63
526.595	1775.48
526.8	1824.7
527.006	1718.91
527.212	1693.72
527.417	1705.54
527.623	1692.95
527.829	1799.12
528.034	1801.83
528.24	1812.68
528.446	1851.63
528.651	1938.42
528.857	1962.26
529.062	1994.03
529.268	1975.04
529.473	1978.14
529.679	1993.45
529.884	2100.2
530.09	2057.97
530.295	2067.07
530.501	2045.76
530.706	2054.29
530.912	2046.15
531.117	2052.54
531.323	2054.87
531.528	2111.83
531.733	2160.46
531.939	2128.49
532.144	2146.12
532.35	2091.87
532.555	2148.25
532.76	2118.61
532.966	2117.25
533.171	2107.95
533.376	2046.15
533.581	2039.75
533.787	2068.82
533.992	2143.8
534.197	2146.32
534.402	2110.47
534.607	2167.82
534.813	2241.83
535.018	2155.23
535.223	2139.73
535.428	2197.27
535.633	2205.21
535.838	2249.78
536.043	2247.45
536.249	2321.85
536.454	2254.62
536.659	2266.83
536.864	2263.53
537.069	2244.16
537.274	2255.78
537.479	2250.55
537.684	2257.33
537.889	2237.18
538.094	2355.37
538.299	2243.77
538.504	2326.31
538.708	2311.19
538.913	2359.83
539.118	2315.07
539.323	2357.5
539.528	2272.25
539.733	2267.6
539.938	2285.23
540.142	2309.26
540.347	2261.21
540.552	2225.75
540.757	2257.33
540.962	2261.01
541.166	2215.87
541.371	2234.28
541.576	2270.12
541.781	2177.32
541.985	2288.14
542.19	2251.91
542.395	2366.22
542.599	2419.11
542.804	2304.61
543.008	2378.23
543.213	2308.09
543.418	2294.34
543.622	2398.38
543.827	2255.59
544.031	2372.81
544.236	2407.87
544.44	2394.31
544.645	2438.49
544.849	2377.26
545.054	2441.97
545.258	2449.53
545.463	2458.25
545.667	2397.8
545.872	2424.54
546.076	2447.4
546.281	2447.01
546.485	2397.99
546.689	2447.98
546.894	2457.47
547.098	2426.67
547.302	2414.66
547.507	2441.78
547.711	2461.74
547.915	2500.1
548.119	2409.23
548.324	2449.34
548.528	2460.96
548.732	2426.86
548.936	2447.98
549.141	2500.49
549.345	2439.46
549.549	2513.47
549.753	2478.01
549.957	2558.42
550.161	2546.79
550.366	2497.77
550.57	2502.23
550.774	2485.95
550.978	2449.34
551.182	2503.59
551.386	2468.9
551.59	2515.79
551.794	2469.29
551.998	2529.55
552.202	2484.6
552.406	2435.77
552.61	2543.69
552.814	2502.62
553.018	2618.09
553.222	2496.61
553.426	2491.19
553.63	2588.25
553.833	2505.52
554.037	2466.97
554.241	2511.92
554.445	2516.57
554.649	2496.42
554.853	2492.54
555.056	2544.47
555.26	2596.39
555.464	2493.32
555.668	2523.74
555.871	2555.32
556.075	2545.82
556.279	2484.6
556.483	2449.72
556.686	2483.05
556.89	2479.56
557.094	2499.32
557.297	2439.65
557.501	2491.57
557.704	2429.19
557.908	2471.42
558.112	2408.84
558.315	2513.85
558.519	2441.97
558.722	2400.71
558.926	2391.99
559.129	2349.17
559.333	2323.21
559.536	2379.39
559.74	2306.93
559.943	2280.19
560.147	2300.54
560.35	2336.77
560.553	2357.11
560.757	2291.82
560.96	2402.84
561.164	2350.33
561.367	2437.91
561.57	2363.89
561.774	2347.62
561.977	2317.78
562.18	2350.72
562.384	2411.56
562.587	2349.75
562.79	2342
562.993	2301.51
563.197	2337.93
563.4	2391.21
563.603	2340.45
563.806	2362.34
564.009	2309.45
564.212	2329.02
564.416	2223.23
564.619	2272.64
564.822	2249.97
565.025	2288.14
565.228	2238.54
565.431	2274.19
565.634	2157.17
565.837	2203.86
566.04	2156.39
566.243	2174.8
566.446	2085.67
566.649	2199.98
566.852	2093.81
567.055	2129.65
567.258	2136.63
567.461	2225.17
567.664	2197.85
567.867	2086.84
568.07	2159.88
568.273	2134.88
568.475	2172.47
568.678	2084.7
568.881	2057.77
569.084	2067.46
569.287	1953.54
569.489	2017.28
569.692	2042.27
569.895	2083.54
570.098	1989.19
570.3	1984.34
570.503	1948.5
570.706	1947.92
570.909	1930.67
571.111	1918.08
571.314	1884.56
571.516	1899.09
571.719	1925.83
571.922	1919.44
572.124	1891.54
572.327	1918.08
572.529	1873.13
572.732	1860.73
572.935	1927.58
573.137	1948.11
573.34	1893.86
573.542	1939.97
573.745	1915.37
573.947	1908.39
574.15	1867.51
574.352	1864.99
574.554	1935.13
574.757	1833.61
574.959	1827.02
575.162	1847.94
575.364	1813.46
575.566	1882.04
575.769	1790.21
575.971	1800.28
576.173	1685.78
576.376	1778.78
576.578	1820.43
576.78	1848.91
576.982	1697.98
577.185	1739.83
577.387	1724.72
577.589	1712.71
577.791	1766.96
577.993	1777.23
578.196	1754.95
578.398	1759.6
578.6	1777.61
578.802	1706.32
579.004	1691.2
579.206	1714.65
579.408	1689.27
579.61	1714.84
579.812	1739.25
580.014	1727.24
580.216	1705.54
580.418	1692.75
580.62	1694.5
580.822	1664.66
581.024	1713.68
581.226	1787.69
581.428	1702.63
581.63	1804.74
581.832	1685.97
582.034	1736.93
582.236	1732.67
582.438	1751.46
582.64	1798.15
582.841	1788.46
583.043	1829.54
583.245	1780.13
583.447	1759.21
583.649	1720.07
583.85	1733.05
584.052	1786.91
584.254	1740.22
584.456	1774.9
584.657	1703.6
584.859	1731.5
585.061	1740.61
585.262	1731.7
585.464	1661.75
585.666	1725.5
585.867	1670.67
586.069	1754.75
586.27	1684.03
586.472	1649.16
586.674	1633.85
586.875	1683.84
587.077	1643.93
587.278	1659.04
587.48	1640.25
587.681	1705.35
587.883	1684.03
588.084	1592.2
588.285	1590.65
588.487	1615.84
588.688	1624.55
588.89	1526.91
589.091	1475.76
589.292	1513.92
589.494	1441.85
589.695	1432.94
589.896	1364.93
590.098	1414.53
590.299	1420.15
590.5	1405.23
590.702	1422.28
590.903	1464.33
591.104	1511.02
591.305	1537.56
591.507	1554.22
591.708	1525.36
591.909	1490.29
592.11	1541.05
592.311	1536.4
592.512	1469.94
592.714	1439.33
592.915	1471.49
593.116	1493.39
593.317	1492.61
593.518	1498.04
593.719	1494.16
593.92	1518.19
594.121	1518.19
594.322	1508.89
594.523	1489.13
594.724	1457.93
594.925	1462.97
595.126	1481.96
595.327	1509.08
595.528	1502.49
595.729	1475.95
595.929	1479.24
596.13	1496.29
596.331	1493.19
596.532	1510.24
596.733	1536.01
596.934	1549.96
597.135	1537.56
597.335	1515.47
597.536	1431.78
597.737	1484.48
597.938	1468.2
598.138	1461.81
598.339	1457.16
598.54	1497.46
598.74	1482.34
598.941	1465.68
599.142	1510.44
599.342	1464.71
599.543	1488.74
599.744	1474.59
599.944	1462.97
600.145	1450.76
600.345	1473.43
600.546	1555.19
600.746	1527.87
600.947	1552.48
601.147	1455.41
601.348	1559.65
601.548	1433.33
601.749	1500.56
601.949	1422.28
602.15	1450.96
602.35	1467.62
602.551	1482.54
602.751	1412.4
602.951	1434.49
603.152	1400.2
603.352	1485.83
603.552	1422.09
603.753	1467.04
603.953	1455.03
604.153	1446.11
604.354	1492.23
604.554	1471.11
604.754	1431.58
604.954	1426.93
605.155	1459.09
605.355	1433.52
605.555	1489.13
605.755	1500.17
605.955	1472.85
606.155	1468.98
606.356	1444.18
606.556	1487.19
606.756	1455.99
606.956	1417.44
607.156	1504.24
607.356	1422.48
607.556	1446.5
607.756	1431.39
607.956	1478.86
608.156	1461.61
608.356	1389.54
608.556	1464.91
608.756	1415.31
608.956	1368.23
609.156	1429.06
609.356	1351.56
609.556	1347.11
609.755	1406.78
609.955	1361.64
610.155	1404.46
610.355	1413.18
610.555	1356.8
610.755	1332.96
610.954	1328.51
611.154	1377.14
611.354	1371.91
611.554	1358.73
611.753	1342.65
611.953	1312.23
612.153	1386.63
612.352	1379.46
612.552	1280.07
612.752	1250.23
612.951	1327.73
613.151	1330.25
613.351	1265.35
613.55	1294.99
613.75	1315.14
613.949	1267.87
614.149	1286.08
614.348	1280.07
614.548	1269.61
614.747	1205.87
614.947	1270.97
615.146	1228.34
615.346	1288.4
615.545	1260.12
615.745	1290.73
615.944	1275.03
616.144	1278.52
616.343	1309.52
616.542	1258.37
616.742	1245.2
616.941	1267.67
617.14	1182.04
617.34	1227.18
617.539	1218.27
617.738	1199.09
617.938	1274.84
