Data from gum_young_FLMT105791__12__17-38-11-045.txt Node

Date: Mon Mar 20 17:38:11 GMT 2023
User: antho
Spectrometer: FLMT10579
Trigger mode: 0
Integration Time (sec): 1.000000E-1
Scans to average: 10
Electric dark correction enabled: true
Nonlinearity correction enabled: false
Boxcar width: 0
XAxis mode: Wavelengths
Number of Pixels in Spectrum: 3648
>>>>>Begin Spectral Data<<<<<
345.248	-136.38
345.464	-136.38
345.681	-136.38
345.898	-159.63
346.114	-143.94
346.331	-44.35
346.548	25.01
346.764	-4.05
346.981	18.42
347.197	-38.73
347.414	29.47
347.631	-53.65
347.847	61.24
348.064	9.32
348.28	46.13
348.497	-31.76
348.713	-17.03
348.93	25.98
349.146	16.87
349.363	-5.02
349.579	-0.57
349.796	-18.2
350.012	-18.58
350.229	32.18
350.445	25.01
350.661	-26.91
350.878	0.79
351.094	34.31
351.311	7.96
351.527	27.53
351.743	-28.27
351.96	50.58
352.176	30.82
352.392	21.72
352.609	51.17
352.825	26.37
353.041	10.28
353.257	0.4
353.474	10.09
353.69	-4.25
353.906	19.97
354.122	-18.97
354.339	57.95
354.555	-7.54
354.771	1.95
354.987	48.65
355.203	51.75
355.42	-3.28
355.636	6.99
355.852	-13.16
356.068	-5.8
356.284	-33.7
356.5	76.93
356.716	15.13
356.932	-5.22
357.148	28.3
357.364	21.13
357.58	46.71
357.796	68.02
358.012	65.89
358.228	27.14
358.444	-48.61
358.66	40.12
358.876	19
359.092	-7.15
359.308	28.3
359.524	31.4
359.74	19.78
359.956	1.95
360.172	23.85
360.388	38.57
360.604	6.02
360.819	81.58
361.035	39.54
361.251	34.7
361.467	4.67
361.683	38.57
361.898	31.98
362.114	33.15
362.33	28.69
362.546	40.12
362.762	33.15
362.977	12.61
363.193	-23.62
363.409	51.36
363.624	12.42
363.84	0.79
364.056	-16.84
364.271	30.63
364.487	13.77
364.703	12.03
364.918	-36.6
365.134	-9.86
365.35	10.67
365.565	109.68
365.781	4.47
365.996	39.15
366.212	56.01
366.427	10.67
366.643	9.7
366.858	8.35
367.074	14.93
367.289	88.36
367.505	62.02
367.72	-2.89
367.936	12.22
368.151	24.82
368.367	37.41
368.582	23.27
368.798	8.15
369.013	86.04
369.228	24.23
369.444	-1.73
369.659	56.4
369.874	3.12
370.09	67.25
370.305	-36.99
370.52	-6.18
370.736	52.52
370.951	21.91
371.166	34.5
371.381	79.07
371.597	36.83
371.812	0.4
372.027	-35.25
372.242	17.65
372.458	103.48
372.673	-5.22
372.888	14.74
373.103	37.6
373.318	74.61
373.533	44.19
373.749	40.12
373.964	-21.88
374.179	63.37
374.394	6.8
374.609	85.07
374.824	-0.76
375.039	37.6
375.254	2.73
375.469	44.19
375.684	37.6
375.899	70.54
376.114	18.81
376.329	25.01
376.544	50.39
376.759	48.84
376.974	1.76
377.189	26.37
377.404	16.48
377.619	64.92
377.834	-13.93
378.049	8.15
378.264	8.54
378.478	29.66
378.693	-5.8
378.908	31.6
379.123	15.52
379.338	65.12
379.553	29.27
379.767	25.4
379.982	30.05
380.197	75.97
380.412	21.72
380.626	27.53
380.841	79.65
381.056	42.45
381.271	84.49
381.485	9.9
381.7	5.83
381.915	44.58
382.129	-3.28
382.344	46.9
382.559	21.72
382.773	47.48
382.988	-44.35
383.202	33.53
383.417	-4.63
383.632	99.8
383.846	25.01
384.061	51.55
384.275	6.99
384.49	52.52
384.704	44.38
384.919	27.72
385.133	40.51
385.348	53.68
385.562	-20.71
385.777	47.48
385.991	53.1
386.206	32.95
386.42	4.47
386.634	74.8
386.849	63.95
387.063	24.82
387.277	4.67
387.492	15.9
387.706	-9.09
387.92	2.92
388.135	38.57
388.349	53.1
388.563	31.4
388.778	31.02
388.992	80.03
389.206	53.49
389.42	112.58
389.635	23.85
389.849	56.98
390.063	67.05
390.277	46.52
390.491	103.09
390.706	48.65
390.92	93.98
391.134	30.63
391.348	79.84
391.562	-10.83
391.776	40.51
391.99	7.38
392.205	60.85
392.419	11.06
392.633	35.08
392.847	87.4
393.061	19.2
393.275	111.03
393.489	9.51
393.703	23.46
393.917	61.63
394.131	8.35
394.345	64.34
394.559	76.74
394.773	28.11
394.986	51.36
395.2	62.79
395.414	73.45
395.628	23.46
395.842	37.6
396.056	28.5
396.27	-9.09
396.484	47.87
396.697	40.7
396.911	77.52
397.125	67.44
397.339	61.43
397.553	50.58
397.766	108.51
397.98	86.43
398.194	76.74
398.408	48.45
398.621	69.96
398.835	71.7
399.049	64.15
399.262	94.18
399.476	87.2
399.69	68.8
399.903	130.99
400.117	80.61
400.331	95.34
400.544	55.04
400.758	171.68
400.971	64.34
401.185	68.02
401.398	59.11
401.612	123.05
401.826	92.82
402.039	78.1
402.253	57.56
402.466	98.05
402.68	66.86
402.893	88.56
403.106	94.18
403.32	60.66
403.533	91.85
403.747	78.48
403.96	87.78
404.174	91.85
404.387	51.55
404.6	101.93
404.814	126.73
405.027	87.01
405.24	66.67
405.454	54.27
405.667	131.38
405.88	27.33
406.094	68.41
406.307	118.01
406.52	98.83
406.733	51.55
406.947	42.64
407.16	137.77
407.373	138.74
407.586	73.25
407.799	40.32
408.012	122.85
408.226	99.02
408.439	138.55
408.652	55.82
408.865	106.58
409.078	112.58
409.291	103.28
409.504	58.14
409.717	90.5
409.93	98.83
410.143	114.71
410.357	66.47
410.57	45.16
410.783	107.93
410.996	109.48
411.209	93.6
411.421	130.8
411.634	94.37
411.847	75.38
412.06	120.91
412.273	100.38
412.486	121.88
412.699	186.4
412.912	90.88
413.125	111.81
413.338	105.8
413.55	135.06
413.763	123.24
413.976	123.43
414.189	70.54
414.402	103.48
414.615	167.99
414.827	68.22
415.04	154.24
415.253	131.18
415.466	181.17
415.678	167.41
415.891	117.81
416.104	113.55
416.316	94.18
416.529	99.21
416.742	142.42
416.954	156.76
417.167	113.16
417.38	122.85
417.592	157.92
417.805	128.66
418.017	76.35
418.23	137.58
418.442	112.97
418.655	104.06
418.868	144.75
419.08	164.7
419.293	162.38
419.505	117.43
419.718	129.83
419.93	181.36
420.142	107.16
420.355	171.29
420.567	149.4
420.78	136.22
420.992	105.8
421.205	185.24
421.417	80.81
421.629	124.6
421.842	115.1
422.054	83.13
422.266	129.05
422.479	150.75
422.691	145.33
422.903	135.83
423.115	102.51
423.328	137
423.54	140.48
423.752	149.4
423.964	119.17
424.177	140.1
424.389	115.1
424.601	221.66
424.813	145.13
425.025	152.69
425.238	161.41
425.45	134.86
425.662	137.96
425.874	395.45
426.086	109.29
426.298	154.05
426.51	150.36
426.722	159.66
426.934	119.95
427.146	164.31
427.358	115.3
427.57	163.73
427.782	149.01
427.994	162.18
428.206	101.93
428.418	128.66
428.63	160.83
428.842	158.11
429.054	159.47
429.266	204.42
429.478	130.6
429.69	146.49
429.902	99.41
430.114	157.92
430.325	146.1
430.537	115.1
430.749	132.54
430.961	93.98
431.173	118.4
431.384	147.26
431.596	58.53
431.808	99.6
432.02	168.77
432.231	194.93
432.443	179.23
432.655	159.66
432.867	130.41
433.078	181.17
433.29	206.74
433.502	164.31
433.713	197.06
433.925	167.99
434.136	177.88
434.348	123.82
434.56	114.71
434.771	223.41
434.983	119.75
435.194	151.33
435.406	157.92
435.617	196.67
435.829	239.29
436.04	204.23
436.252	200.93
436.463	231.16
436.675	195.12
436.886	183.3
437.098	194.73
437.309	237.36
437.521	193.18
437.732	186.01
437.943	215.27
438.155	203.26
438.366	143.78
438.578	260.02
438.789	194.93
439	196.09
439.211	167.99
439.423	205.97
439.634	225.73
439.845	188.92
440.057	201.51
440.268	198.22
440.479	158.89
440.69	220.69
440.902	184.46
441.113	204.61
441.324	209.84
441.535	216.43
441.746	265.45
441.957	182.91
442.168	199.77
442.38	240.46
442.591	252.28
442.802	186.01
443.013	188.73
443.224	239.68
443.435	212.94
443.646	228.64
443.857	213.33
444.068	178.84
444.279	193.57
444.49	277.46
444.701	221.47
444.912	301.87
445.123	269.13
445.334	240.07
445.545	228.83
445.756	245.3
445.967	207.71
446.178	256.34
446.388	246.08
446.599	267.58
446.81	272.81
447.021	207.13
447.232	280.95
447.443	283.08
447.653	211.39
447.864	272.23
448.075	246.27
448.286	260.02
448.496	275.14
448.707	307.3
448.918	249.76
449.129	328.03
449.339	235.61
449.55	279.59
449.761	274.17
449.971	315.82
450.182	247.43
450.393	295.87
450.603	277.66
450.814	301.49
451.024	287.92
451.235	309.43
451.446	348.95
451.656	333.84
451.867	259.44
452.077	271.84
452.288	325.51
452.498	332.68
452.709	279.79
452.919	304.01
453.13	280.37
453.34	340.04
453.55	230.38
453.761	284.24
453.971	292.19
454.182	295.67
454.392	304.59
454.602	357.67
454.813	337.91
455.023	311.95
455.233	266.03
455.444	326.48
455.654	243.94
455.864	316.99
456.075	298.58
456.285	298.19
456.495	322.02
456.705	310.79
456.916	333.46
457.126	350.31
457.336	307.88
457.546	270.68
457.756	269.32
457.967	356.7
458.177	329.77
458.387	323.96
458.597	285.79
458.807	316.41
459.017	316.02
459.227	313.5
459.437	320.86
459.647	353.41
459.857	334.62
460.068	309.04
460.278	356.7
460.488	333.07
460.698	394.1
460.908	324.35
461.117	314.27
461.327	317.96
461.537	340.62
461.747	341.79
461.957	348.18
462.167	413.86
462.377	366.2
462.587	377.82
462.797	384.6
463.007	355.35
463.216	353.02
463.426	386.93
463.636	391.97
463.846	294.71
464.056	329.58
464.265	381.5
464.475	323.77
464.685	344.3
464.895	360.58
465.104	358.84
465.314	346.24
465.524	352.44
465.733	321.83
465.943	410.18
466.153	408.05
466.362	372.79
466.572	376.66
466.782	329
466.991	365.81
467.201	404.37
467.41	313.31
467.62	369.3
467.829	337.52
468.039	372.01
468.249	368.72
468.458	375.69
468.668	406.11
468.877	378.6
469.086	417.35
469.296	427.42
469.505	346.82
469.715	419.87
469.924	399.14
470.134	414.25
470.343	471.4
470.552	374.72
470.762	367.55
470.971	375.69
471.18	419.09
471.39	406.89
471.599	387.12
471.808	434.2
472.018	370.65
472.227	434.78
472.436	445.83
472.645	415.22
472.855	417.54
473.064	457.84
473.273	425.1
473.482	460.94
473.691	442.34
473.901	461.91
474.11	427.81
474.319	496.59
474.528	414.25
474.737	528.95
474.946	477.02
475.155	448.73
475.364	507.83
475.573	473.53
475.783	495.43
475.992	453.19
476.201	499.69
476.41	454.55
476.619	433.82
476.828	473.92
477.037	452.22
477.245	457.26
477.454	521
477.663	470.05
477.872	480.7
478.081	574.28
478.29	480.51
478.499	567.7
478.708	516.74
478.917	559.17
479.125	528.95
479.334	554.91
479.543	532.63
479.752	529.72
479.961	520.23
480.169	576.22
480.378	504.34
480.587	633.96
480.796	578.74
481.004	548.13
481.213	602.18
481.422	609.74
481.63	573.12
481.839	576.8
482.048	651.2
482.256	599.47
482.465	595.4
482.674	642.29
482.882	649.46
483.091	657.01
483.299	616.33
483.508	644.03
483.716	598.7
483.925	625.24
484.134	607.8
484.342	638.99
484.551	658.18
484.759	640.35
484.967	672.51
485.176	651.98
485.384	634.15
485.593	669.61
485.801	643.64
486.01	607.22
486.218	593.46
486.426	545.8
486.635	601.02
486.843	602.96
487.051	602.18
487.26	585.52
487.468	628.92
487.676	630.08
487.885	633.96
488.093	632.41
488.301	655.85
488.509	661.08
488.717	688.79
488.926	684.72
489.134	658.37
489.342	667.67
489.55	663.99
489.758	691.69
489.967	677.36
490.175	801.94
490.383	715.14
490.591	786.82
490.799	705.45
491.007	762.41
491.215	751.37
491.423	738.77
491.631	746.14
491.839	766.48
492.047	763.77
492.255	696.34
492.463	664.18
492.671	707.58
492.879	787.6
493.087	755.24
493.295	786.82
493.503	779.46
493.711	803.29
493.919	804.65
494.127	825.57
494.334	848.63
494.542	715.33
494.75	807.94
494.958	809.3
495.166	841.85
495.374	824.6
495.581	854.83
495.789	834.1
495.997	844.37
496.205	810.65
496.412	832.74
496.62	821.31
496.828	860.84
497.035	869.55
497.243	871.88
497.451	851.15
497.658	850.95
497.866	861.22
498.074	908.69
498.281	847.08
498.489	916.83
498.696	867.62
498.904	875.37
499.112	865.87
499.319	951.51
499.527	893.38
499.734	929.03
499.942	852.89
500.149	874.01
500.357	914.89
500.564	867.62
500.771	913.34
500.979	857.74
501.186	868.2
501.394	928.65
501.601	884.67
501.808	913.92
502.016	913.73
502.223	905.98
502.43	906.56
502.638	923.61
502.845	927.68
503.052	988.71
503.26	940.08
503.467	1045.09
503.674	965.85
503.881	975.15
504.089	1023.58
504.296	1011.38
504.503	957.71
504.71	969.91
504.917	965.46
505.125	990.45
505.332	995.3
505.539	1027.07
505.746	1097.98
505.953	1064.66
506.16	1065.43
506.367	1107.48
506.574	1138.67
506.781	1095.85
506.988	1050.9
507.195	1107.28
507.402	1113.68
507.609	1158.24
507.816	1091.01
508.023	1074.15
508.23	1103.99
508.437	1081.32
508.644	1126.66
508.851	1146.42
509.058	1199.31
509.265	1183.62
509.472	1215.01
509.679	1265.77
509.885	1176.26
510.092	1193.89
510.299	1204.54
510.506	1193.5
510.713	1215.59
510.92	1212.29
511.126	1245.81
511.333	1298.32
511.54	1258.6
511.746	1325.25
511.953	1338.42
512.16	1319.82
512.367	1276.81
512.573	1280.3
512.78	1310.91
512.987	1322.15
513.193	1308.78
513.4	1242.13
513.606	1348.3
513.813	1330.67
514.02	1305.87
514.226	1396.74
514.433	1381.82
514.639	1340.55
514.846	1378.33
515.052	1336.68
515.259	1355.86
515.465	1417.08
515.672	1385.31
515.878	1488.19
516.085	1467.65
516.291	1486.83
516.497	1417.28
516.704	1406.62
516.91	1327.57
517.117	1298.51
517.323	1253.95
517.529	1331.06
517.736	1305.29
517.942	1384.73
518.148	1379.69
518.354	1385.5
518.561	1430.84
518.767	1427.93
518.973	1456.61
519.179	1490.9
519.386	1463.78
519.592	1473.46
519.798	1467.26
520.004	1613.16
520.21	1541.66
520.417	1614.51
520.623	1656.75
520.829	1648.81
521.035	1663.53
521.241	1641.25
521.447	1682.9
521.653	1786.56
521.859	1693.75
522.065	1741.03
522.271	1803.22
522.477	1781.13
522.683	1810.58
522.889	1763.89
523.095	1763.89
523.301	1762.53
523.507	1725.34
523.713	1772.42
523.919	1731.92
524.125	1849.72
524.331	1870.06
524.537	1921.41
524.742	1876.65
524.948	1935.94
525.154	1901.65
525.36	1992.32
525.566	1929.93
525.772	1999.88
525.977	1932.45
526.183	1955.51
526.389	1974.49
526.595	1893.31
526.8	1882.46
527.006	1781.52
527.212	1798.57
527.417	1770.67
527.623	1836.16
527.829	1843.33
528.034	1881.88
528.24	1912.69
528.446	1909.98
528.651	1992.9
528.857	2020.41
529.062	2074.27
529.268	2044.63
529.473	2083.96
529.679	2095.2
529.884	2166.3
530.09	2133.75
530.295	2138.79
530.501	2125.23
530.706	2153.32
530.912	2135.69
531.117	2154.49
531.323	2160.88
531.528	2221.13
531.733	2242.64
531.939	2148.48
532.144	2223.46
532.35	2193.04
532.555	2223.07
532.76	2177.93
532.966	2179.67
533.171	2147.7
533.376	2134.34
533.581	2114.19
533.787	2169.02
533.992	2190.13
534.197	2217.65
534.402	2181.61
534.607	2224.43
534.813	2317.43
535.018	2238.18
535.223	2251.55
535.428	2270.73
535.633	2294.56
535.838	2351.91
536.043	2315.49
536.249	2410.04
536.454	2318.78
536.659	2362.18
536.864	2313.75
537.069	2305.03
537.274	2327.5
537.479	2343.78
537.684	2307.35
537.889	2303.86
538.094	2372.64
538.299	2337.77
538.504	2406.74
538.708	2367.61
538.913	2380.59
539.118	2383.69
539.323	2368.19
539.528	2321.88
539.733	2307.93
539.938	2388.73
540.142	2336.03
540.347	2327.31
540.552	2318.98
540.757	2265.7
540.962	2298.83
541.166	2279.06
541.371	2255.43
541.576	2290.3
541.781	2248.45
541.985	2382.91
542.19	2377.68
542.395	2414.11
542.599	2426.7
542.804	2417.4
543.008	2404.23
543.213	2360.24
543.418	2357.34
543.622	2418.18
543.827	2341.45
544.031	2453.44
544.236	2463.9
544.44	2454.79
544.645	2534.42
544.849	2444.33
545.054	2459.83
545.258	2547.6
545.463	2483.66
545.667	2415.27
545.872	2479.4
546.076	2454.79
546.281	2477.27
546.485	2466.81
546.689	2481.34
546.894	2480.17
547.098	2473.78
547.302	2465.06
547.507	2465.06
547.711	2499.55
547.915	2536.55
548.119	2397.44
548.324	2434.45
548.528	2535.39
548.732	2471.46
548.936	2573.56
549.141	2512.14
549.345	2482.11
549.549	2497.81
549.753	2529.97
549.957	2563.87
550.161	2584.99
550.366	2552.83
550.57	2518.92
550.774	2528.03
550.978	2533.26
551.182	2559.22
551.386	2491.8
551.59	2507.49
551.794	2488.89
551.998	2530.74
552.202	2510.4
552.406	2465.06
552.61	2560.77
552.814	2567.94
553.018	2578.4
553.222	2518.73
553.426	2545.08
553.63	2600.49
553.833	2511.95
554.037	2434.84
554.241	2514.47
554.445	2568.72
554.649	2521.44
554.853	2491.61
555.056	2562.13
555.26	2602.43
555.464	2561.16
555.668	2587.7
555.871	2586.74
556.075	2559.61
556.279	2530.16
556.483	2509.24
556.686	2476.69
556.89	2462.74
557.094	2493.74
557.297	2450.72
557.501	2511.95
557.704	2394.93
557.908	2514.47
558.112	2452.86
558.315	2488.7
558.519	2463.9
558.722	2403.26
558.926	2422.44
559.129	2349.98
559.333	2345.91
559.536	2375.36
559.74	2328.47
559.943	2349.2
560.147	2346.68
560.35	2351.91
560.553	2391.24
560.757	2303.86
560.96	2426.12
561.164	2398.99
561.367	2413.33
561.57	2400.93
561.774	2379.23
561.977	2354.82
562.18	2352.88
562.384	2453.44
562.587	2349.59
562.79	2352.11
562.993	2321.3
563.197	2373.42
563.4	2387.76
563.603	2375.74
563.806	2418.76
564.009	2318.98
564.212	2335.64
564.416	2289.91
564.619	2334.67
564.822	2264.34
565.025	2346.49
565.228	2307.74
565.431	2314.71
565.634	2189.36
565.837	2229.08
566.04	2200.98
566.243	2187.42
566.446	2137.44
566.649	2252.52
566.852	2168.63
567.055	2185.29
567.258	2199.43
567.461	2254.85
567.664	2283.71
567.867	2173.09
568.07	2189.17
568.273	2185.1
568.475	2206.99
568.678	2138.79
568.881	2135.3
569.084	2127.94
569.287	2045.6
569.489	2108.76
569.692	2120.97
569.895	2119.61
570.098	2054.32
570.3	2062.26
570.503	1998.13
570.706	2040.95
570.909	2005.11
571.111	1989.8
571.314	1934.58
571.516	1974.11
571.719	1966.94
571.922	1953.57
572.124	1952.99
572.327	1952.21
572.529	1935.36
572.732	1960.16
572.935	1966.36
573.137	2049.47
573.34	1969.84
573.542	1999.88
573.745	1938.46
573.947	1974.11
574.15	1941.75
574.352	1923.93
574.554	1996.97
574.757	1890.02
574.959	1876.46
575.162	1876.46
575.364	1887.7
575.566	1963.64
575.769	1836.55
575.971	1880.91
576.173	1777.07
576.376	1866.19
576.578	1874.91
576.78	1925.09
576.982	1815.04
577.185	1847.78
577.387	1797.8
577.589	1833.06
577.791	1835.58
577.993	1828.41
578.196	1809.81
578.398	1825.89
578.6	1853.79
578.802	1799.73
579.004	1766.22
579.206	1777.26
579.408	1807.87
579.61	1798.38
579.812	1856.5
580.014	1801.48
580.216	1812.33
580.418	1777.26
580.62	1786.17
580.822	1768.35
581.024	1784.62
581.226	1856.11
581.428	1792.57
581.63	1906.49
581.832	1802.83
582.034	1852.82
582.236	1802.83
582.438	1874.33
582.64	1908.04
582.841	1893.31
583.043	1933.03
583.245	1858.05
583.447	1896.41
583.649	1848.95
583.85	1852.63
584.052	1869.68
584.254	1797.41
584.456	1883.43
584.657	1785.59
584.859	1811.75
585.061	1790.43
585.262	1800.51
585.464	1774.35
585.666	1805.55
585.867	1752.85
586.069	1824.53
586.27	1768.73
586.472	1762.92
586.674	1757.88
586.875	1778.03
587.077	1738.12
587.278	1765.25
587.48	1732.31
587.681	1881.3
587.883	1764.28
588.084	1687.17
588.285	1719.33
588.487	1717.39
588.688	1710.03
588.89	1597.46
589.091	1554.26
589.292	1567.82
589.494	1547.67
589.695	1548.64
589.896	1483.15
590.098	1475.6
590.299	1506.98
590.5	1505.63
590.702	1537.98
590.903	1543.41
591.104	1611.61
591.305	1591.84
591.507	1637.57
591.708	1645.32
591.909	1601.92
592.11	1630.01
592.311	1628.85
592.512	1587
592.714	1540.31
592.915	1558.52
593.116	1593.39
593.317	1583.12
593.518	1606.18
593.719	1619.36
593.92	1633.5
594.121	1671.09
594.322	1621.1
594.523	1600.37
594.724	1544.38
594.925	1580.22
595.126	1577.51
595.327	1575.57
595.528	1614.9
595.729	1622.07
595.929	1580.22
596.13	1591.46
596.331	1612.77
596.532	1597.46
596.733	1662.17
596.934	1646.67
597.135	1655.97
597.335	1621.1
597.536	1580.02
597.737	1619.16
597.938	1576.73
598.138	1581.77
598.339	1600.76
598.54	1610.25
598.74	1600.17
598.941	1595.91
599.142	1661.59
599.342	1585.84
599.543	1542.24
599.744	1572.27
599.944	1584.29
600.145	1595.33
600.345	1612.77
600.546	1662.95
600.746	1639.12
600.947	1658.3
601.147	1590.49
601.348	1670.31
601.548	1551.93
601.749	1565.88
601.949	1551.16
602.15	1544.18
602.35	1559.1
602.551	1622.26
602.751	1505.24
602.951	1540.89
603.152	1526.16
603.352	1580.41
603.552	1586.61
603.753	1603.47
603.953	1610.25
604.153	1596.3
604.354	1587.58
604.554	1577.51
604.754	1563.75
604.954	1545.34
605.155	1585.64
605.355	1590.49
605.555	1595.33
605.755	1629.62
605.955	1556
606.155	1616.84
606.356	1580.41
606.556	1587.97
606.756	1590.49
606.956	1537.01
607.156	1611.41
607.356	1580.99
607.556	1598.43
607.756	1615.48
607.956	1583.71
608.156	1560.65
608.356	1516.28
608.556	1556.58
608.756	1525.58
608.956	1504.08
609.156	1530.62
609.356	1463.58
609.556	1469.4
609.755	1515.89
609.955	1505.82
610.155	1504.08
610.355	1529.84
610.555	1473.08
610.755	1507.37
610.954	1433.16
611.154	1506.59
611.354	1517.44
611.554	1476.18
611.753	1492.06
611.953	1430.84
612.153	1508.73
612.352	1471.72
612.552	1426.58
612.752	1362.45
612.951	1472.88
613.151	1438.59
613.351	1453.31
613.55	1465.13
613.75	1457
613.949	1418.05
614.149	1457
614.348	1446.53
614.548	1388.99
614.747	1410.88
614.947	1416.89
615.146	1348.69
615.346	1428.51
615.545	1417.66
615.745	1423.67
615.944	1450.02
616.144	1416.5
616.343	1404.1
616.542	1369.42
616.742	1366.52
616.941	1374.85
617.14	1282.82
617.34	1357.8
617.539	1401.58
617.738	1365.35
617.938	1424.83
