Data from gum_young_FLMT105791__107__17-40-35-041.txt Node

Date: Mon Mar 20 17:40:35 GMT 2023
User: antho
Spectrometer: FLMT10579
Trigger mode: 0
Integration Time (sec): 1.000000E-1
Scans to average: 10
Electric dark correction enabled: true
Nonlinearity correction enabled: false
Boxcar width: 0
XAxis mode: Wavelengths
Number of Pixels in Spectrum: 3648
>>>>>Begin Spectral Data<<<<<
345.248	-144.89
345.464	-144.89
345.681	-144.89
345.898	-157.1
346.114	-146.25
346.331	-39.49
346.548	19.6
346.764	-10.24
346.981	-13.14
347.197	-0.36
347.414	17.47
347.631	-28.64
347.847	63
348.064	18.63
348.28	29.29
348.497	-29.03
348.713	-27.09
348.93	14.56
349.146	23.28
349.363	-14.31
349.579	10.69
349.796	-15.27
350.012	-13.72
350.229	35.68
350.445	18.44
350.661	-21.47
350.878	0.81
351.094	6.04
351.311	11.08
351.527	23.86
351.743	-22.64
351.96	12.04
352.176	41.11
352.392	47.5
352.609	27.93
352.825	-6.75
353.041	27.54
353.257	-12.37
353.474	15.34
353.69	14.95
353.906	35.49
354.122	-15.66
354.339	37.43
354.555	3.52
354.771	-29.42
354.987	65.52
355.203	49.44
355.42	5.65
355.636	9.53
355.852	-4.81
356.068	2.94
356.284	-8.49
356.5	73.46
356.716	8.17
356.932	-14.69
357.148	22.31
357.364	-12.17
357.58	26.38
357.796	55.06
358.012	58.35
358.228	43.63
358.444	-53.44
358.66	43.04
358.876	39.75
359.092	-16.82
359.308	10.49
359.524	12.04
359.74	-9.27
359.956	-18.57
360.172	19.02
360.388	42.66
360.604	-9.85
360.819	60.68
361.035	1.58
361.251	33.55
361.467	-7.72
361.683	51.38
361.898	19.21
362.114	25.22
362.33	18.05
362.546	32.58
362.762	19.6
362.977	16.31
363.193	-10.24
363.409	31.81
363.624	18.83
363.84	-3.07
364.056	-4.04
364.271	11.27
364.487	16.69
364.703	-17.99
364.918	16.5
365.134	4.1
365.35	-3.84
365.565	81.79
365.781	14.18
365.996	54.86
366.212	62.03
366.427	40.33
366.643	26.58
366.858	31.61
367.074	-31.16
367.289	59.32
367.505	111.24
367.72	-14.31
367.936	-10.82
368.151	34.91
368.367	32.58
368.582	4.68
368.798	37.62
369.013	67.46
369.228	17.28
369.444	37.81
369.659	60.48
369.874	29.48
370.09	52.34
370.305	-48.02
370.52	0.61
370.736	41.49
370.951	9.53
371.166	63.97
371.381	80.05
371.597	31.81
371.812	6.23
372.027	-30.19
372.242	27.54
372.458	81.79
372.673	28.9
372.888	18.05
373.103	45.95
373.318	97.1
373.533	39.36
373.749	44.01
373.964	-48.4
374.179	53.89
374.394	-11.01
374.609	69.39
374.824	16.69
375.039	69.2
375.254	-6.56
375.469	69.2
375.684	13.59
375.899	64.36
376.114	37.62
376.329	29.87
376.544	60.68
376.759	64.74
376.974	22.31
377.189	3.33
377.404	-6.17
377.619	57.77
377.834	-3.84
378.049	-6.36
378.264	5.26
378.478	54.86
378.693	24.06
378.908	65.13
379.123	32
379.338	63.39
379.553	21.93
379.767	27.35
379.982	41.3
380.197	13.98
380.412	23.28
380.626	39.36
380.841	82.96
381.056	50.21
381.271	82.96
381.485	-9.07
381.7	4.68
381.915	26.96
382.129	17.66
382.344	17.08
382.559	44.98
382.773	55.06
382.988	-1.52
383.202	39.94
383.417	2.74
383.632	122.09
383.846	54.86
384.061	42.27
384.275	23.67
384.49	37.04
384.704	64.55
384.919	47.31
385.133	28.71
385.348	40.53
385.562	-2.1
385.777	75.59
385.991	32.58
386.206	23.67
386.42	16.69
386.634	50.41
386.849	30.84
387.063	43.24
387.277	7.39
387.492	20.18
387.706	24.25
387.92	14.56
388.135	51.38
388.349	36.65
388.563	-7.33
388.778	51.38
388.992	50.21
389.206	75.4
389.42	84.51
389.635	35.88
389.849	77.92
390.063	102.52
390.277	34.52
390.491	90.9
390.706	63.19
390.92	40.72
391.134	55.64
391.348	75.79
391.562	10.88
391.776	41.11
391.99	-0.94
392.205	73.27
392.419	11.85
392.633	42.66
392.847	86.83
393.061	34.71
393.275	67.84
393.489	50.6
393.703	32
393.917	76.37
394.131	29.48
394.345	68.43
394.559	75.21
394.773	42.27
394.986	60.48
395.2	62.42
395.414	76.76
395.628	43.24
395.842	45.56
396.056	27.54
396.27	0.61
396.484	86.44
396.697	76.17
396.911	94.77
397.125	43.04
397.339	99.62
397.553	76.17
397.766	91.67
397.98	79.66
398.194	105.82
398.408	66.49
398.621	87.8
398.835	106.59
399.049	55.25
399.262	121.51
399.476	104.46
399.69	98.46
399.903	147.09
400.117	56.8
400.331	113.57
400.544	53.51
400.758	173.82
400.971	96.32
401.185	115.12
401.398	59.32
401.612	130.81
401.826	104.85
402.039	114.34
402.253	53.31
402.466	92.64
402.68	70.17
402.893	98.46
403.106	95.16
403.32	79.66
403.533	95.94
403.747	89.35
403.96	118.41
404.174	126.74
404.387	65.52
404.6	87.02
404.814	103.3
405.027	99.04
405.24	91.87
405.454	84.7
405.667	123.26
405.88	47.5
406.094	99.62
406.307	150.57
406.52	85.67
406.733	75.01
406.947	59.9
407.16	143.41
407.373	124.22
407.586	77.92
407.799	64.36
408.012	132.17
408.226	139.92
408.439	142.05
408.652	80.44
408.865	140.31
409.078	135.27
409.291	140.5
409.504	109.31
409.717	136.43
409.93	148.06
410.143	119.96
410.357	41.49
410.57	74.82
410.783	101.94
410.996	102.72
411.209	125.97
411.421	138.37
411.634	139.34
411.847	110.27
412.06	119.57
412.273	131.78
412.486	119.96
412.699	208.89
412.912	109.89
413.125	132.94
413.338	129.07
413.55	157.16
413.763	114.73
413.976	145.15
414.189	107.95
414.402	128.87
414.615	156.58
414.827	91.09
415.04	146.7
415.253	120.35
415.466	155.42
415.678	194.75
415.891	117.64
416.104	140.11
416.316	128.68
416.529	102.33
416.742	183.7
416.954	168.59
417.167	121.51
417.38	136.43
417.592	173.63
417.805	122.87
418.017	116.09
418.23	175.37
418.442	128.1
418.655	100.78
418.868	145.15
419.08	189.52
419.293	163.17
419.505	180.22
419.718	160.65
419.93	182.54
420.142	150.96
420.355	193.2
420.567	176.54
420.78	162.78
420.992	151.16
421.205	229.82
421.417	100.78
421.629	140.5
421.842	132.17
422.054	126.55
422.266	187.39
422.479	193
422.691	143.41
422.903	171.3
423.115	149.61
423.328	135.66
423.54	158.32
423.752	135.66
423.964	159.1
424.177	168.59
424.389	125.97
424.601	255.97
424.813	178.67
425.025	200.17
425.238	199.59
425.45	164.72
425.662	143.79
425.874	409.23
426.086	147.47
426.298	223.23
426.51	169.56
426.722	157.36
426.934	150.96
427.146	185.45
427.358	161.62
427.57	207.73
427.782	152.51
427.994	158.71
428.206	160.84
428.418	141.66
428.63	175.95
428.842	222.45
429.054	181.96
429.266	190.87
429.478	158.71
429.69	136.43
429.902	140.69
430.114	205.6
430.325	148.83
430.537	147.47
430.749	144.18
430.961	106.01
431.173	134.49
431.384	160.45
431.596	58.93
431.808	134.3
432.02	206.37
432.231	207.73
432.443	229.62
432.655	213.54
432.867	170.34
433.078	204.05
433.29	268.18
433.502	227.3
433.713	228.85
433.925	237.57
434.136	240.28
434.348	180.6
434.56	155.42
434.771	262.56
434.983	171.5
435.194	194.94
435.406	196.1
435.617	273.99
435.829	256.94
436.04	220.71
436.252	243.77
436.463	261.59
436.675	254.62
436.886	238.15
437.098	257.13
437.309	265.85
437.521	227.49
437.732	232.72
437.943	222.65
438.155	240.47
438.366	190.1
438.578	266.82
438.789	229.82
439	255.39
439.211	203.66
439.423	243.77
439.634	242.6
439.845	277.28
440.057	248.03
440.268	295.3
440.479	219.55
440.69	279.8
440.902	223.42
441.113	251.71
441.324	227.49
441.535	284.84
441.746	298.4
441.957	231.17
442.168	249.58
442.38	288.13
442.591	285.23
442.802	217.42
443.013	255.97
443.224	292.78
443.435	249.19
443.646	270.5
443.857	283.87
444.068	267.98
444.279	244.35
444.49	335.8
444.701	270.31
444.912	363.31
445.123	305.57
445.334	291.23
445.545	288.33
445.756	305.18
445.967	265.66
446.178	295.3
446.388	310.42
446.599	308.09
446.81	300.53
447.021	271.67
447.232	318.17
447.443	366.8
447.653	255.97
447.864	323.98
448.075	309.06
448.286	333.28
448.496	346.65
448.707	354.2
448.918	301.12
449.129	374.93
449.339	272.25
449.55	327.66
449.761	312.93
449.971	361.76
450.182	315.45
450.393	374.55
450.603	297.82
450.814	356.72
451.024	344.13
451.235	379.39
451.446	385.2
451.656	371.06
451.867	317.58
452.077	366.02
452.288	392.18
452.498	408.26
452.709	336.96
452.919	362.73
453.13	336.38
453.34	368.54
453.55	288.13
453.761	354.01
453.971	362.73
454.182	370.48
454.392	351.3
454.602	414.07
454.813	385.59
455.023	395.86
455.233	337.35
455.444	387.53
455.654	299.18
455.864	348.39
456.075	359.63
456.285	363.11
456.495	352.26
456.705	351.1
456.916	411.94
457.126	401.28
457.336	365.63
457.546	303.25
457.756	353.04
457.967	436.74
458.177	341.41
458.387	366.6
458.597	358.27
458.807	372.41
459.017	388.88
459.227	380.94
459.437	369.51
459.647	402.06
459.857	392.76
460.068	367.57
460.278	422.01
460.488	397.6
460.698	451.66
460.908	401.67
461.117	359.82
461.327	354.4
461.537	410.58
461.747	400.31
461.957	393.34
462.167	494.09
462.377	428.6
462.587	394.89
462.797	427.05
463.007	417.17
463.216	451.46
463.426	453.98
463.636	458.44
463.846	371.64
464.056	383.26
464.265	459.79
464.475	382.49
464.685	443.52
464.895	465.41
465.104	412.33
465.314	452.82
465.524	412.33
465.733	394.11
465.943	501.64
466.153	476.46
466.362	464.25
466.572	451.46
466.782	421.63
466.991	424.14
467.201	439.64
467.41	374.16
467.62	447.98
467.829	428.41
468.039	441.39
468.249	422.79
468.458	445.07
468.668	451.46
468.877	490.99
469.086	499.71
469.296	508.43
469.505	428.99
469.715	512.49
469.924	510.94
470.134	516.37
470.343	519.08
470.552	479.17
470.762	487.11
470.971	431.12
471.18	486.73
471.39	472
471.599	461.93
471.808	503.39
472.018	466.19
472.227	552.99
472.436	543.49
472.645	503.78
472.855	491.18
473.064	573.33
473.273	501.26
473.482	555.12
473.691	572.17
473.901	576.82
474.11	517.92
474.319	601.62
474.528	521.21
474.737	571.2
474.946	598.9
475.155	559.38
475.364	611.89
475.573	565.58
475.783	592.12
475.992	608.2
476.201	588.64
476.41	540.39
476.619	555.12
476.828	575.66
477.037	548.72
477.245	551.24
477.454	641.34
477.663	590.38
477.872	599.1
478.081	645.79
478.29	588.83
478.499	656.64
478.708	636.1
478.917	678.73
479.125	612.66
479.334	620.8
479.543	643.08
479.752	676.21
479.961	639.98
480.169	660.9
480.378	662.65
480.587	759.13
480.796	670.4
481.004	682.8
481.213	725.23
481.422	699.46
481.63	692.87
481.839	724.45
482.048	783.93
482.256	726.97
482.465	764.56
482.674	751.38
482.882	758.94
483.091	815.32
483.299	727.55
483.508	779.86
483.716	754.48
483.925	756.03
484.134	741.12
484.342	749.25
484.551	774.63
484.759	772.5
484.967	798.85
485.176	750.61
485.384	781.22
485.593	808.15
485.801	807.18
486.01	753.9
486.218	698.88
486.426	649.28
486.635	691.52
486.843	683.77
487.051	714.57
487.26	702.75
487.468	746.73
487.676	752.35
487.885	714.18
488.093	755.84
488.301	790.71
488.509	818.03
488.717	843.41
488.926	826.56
489.134	808.54
489.342	814.35
489.55	808.15
489.758	834.11
489.967	825.78
490.175	939.51
490.383	851.16
490.591	934.28
490.799	871.31
491.007	894.37
491.215	897.66
491.423	884.1
491.631	876.16
491.839	889.91
492.047	896.69
492.255	844.77
492.463	843.22
492.671	861.82
492.879	933.7
493.087	898.83
493.295	933.31
493.503	916.46
493.711	951.72
493.919	987.95
494.127	983.11
494.334	984.46
494.542	923.82
494.75	982.52
494.958	951.14
495.166	990.66
495.374	990.66
495.581	1009.46
495.789	994.73
495.997	1063.51
496.205	985.62
496.412	1009.65
496.62	1014.88
496.828	1020.5
497.035	976.13
497.243	1063.12
497.451	1015.66
497.658	1065.64
497.866	1026.51
498.074	1093.15
498.281	1026.89
498.489	1091.02
498.696	1026.7
498.904	1042.39
499.112	1020.31
499.319	1109.04
499.527	1044.14
499.734	1120.67
499.942	1043.36
500.149	1059.44
500.357	1108.27
500.564	1036.39
500.771	1071.07
500.979	1049.75
501.186	1047.43
501.394	1063.12
501.601	1055.95
501.808	1072.23
502.016	1056.73
502.223	1057.7
502.43	1088.12
502.638	1076.69
502.845	1098.77
503.052	1124.54
503.26	1102.45
503.467	1171.62
503.674	1127.25
503.881	1160.97
504.089	1199.33
504.296	1183.63
504.503	1089.67
504.71	1126.48
504.917	1116.6
505.125	1168.13
505.332	1174.33
505.539	1194.48
505.746	1259.78
505.953	1207.47
506.16	1234.4
506.367	1295.62
506.574	1301.63
506.781	1293.49
506.988	1232.85
507.195	1259
507.402	1234.78
507.609	1336.69
507.816	1284.96
508.023	1242.53
508.23	1253
508.437	1239.43
508.644	1287.29
508.851	1330.69
509.058	1333.98
509.265	1345.99
509.472	1354.91
509.679	1436.09
509.885	1366.73
510.092	1368.08
510.299	1377.96
510.506	1384.55
510.713	1395.21
510.92	1370.99
511.126	1436.28
511.333	1477.55
511.54	1456.04
511.746	1508.74
511.953	1520.95
512.16	1527.73
512.367	1490.92
512.573	1496.34
512.78	1535.48
512.987	1488.01
513.193	1511.26
513.4	1458.95
513.606	1548.65
513.813	1577.13
514.02	1535.67
514.226	1568.22
514.433	1605.42
514.639	1528.89
514.846	1583.53
515.052	1552.14
515.259	1582.37
515.465	1636.23
515.672	1607.75
515.878	1710.05
516.085	1631.77
516.291	1730.39
516.497	1633.9
516.704	1614.14
516.91	1581.98
517.117	1552.34
517.323	1480.84
517.529	1556.21
517.736	1528.31
517.942	1546.14
518.148	1570.55
518.354	1648.24
518.561	1633.52
518.767	1627.51
518.973	1666.06
519.179	1728.26
519.386	1683.7
519.592	1722.45
519.798	1724.58
520.004	1864.46
520.21	1849.93
520.417	1904.96
520.623	1925.88
520.829	1951.45
521.035	1943.7
521.241	1962.3
521.447	1981.1
521.653	2068.09
521.859	1998.15
522.065	2021.59
522.271	2103.93
522.477	2095.6
522.683	2113.23
522.889	2078.55
523.095	2105.29
523.301	2115.95
523.507	2082.23
523.713	2118.08
523.919	2075.26
524.125	2225.8
524.331	2182.01
524.537	2260.67
524.742	2264.74
524.948	2280.05
525.154	2298.65
525.36	2398.04
525.566	2278.69
525.772	2341.08
525.977	2297.87
526.183	2315.12
526.389	2386.61
526.595	2276.56
526.8	2281.99
527.006	2227.35
527.212	2123.89
527.417	2142.1
527.623	2141.52
527.829	2257.38
528.034	2245.56
528.24	2325.58
528.446	2311.63
528.651	2430.01
528.857	2401.92
529.062	2489.3
529.268	2478.45
529.473	2539.48
529.679	2530.95
529.884	2583.26
530.09	2561.37
530.295	2554.4
530.501	2533.86
530.706	2618.53
530.912	2552.07
531.117	2599.54
531.323	2613.68
531.528	2644.88
531.733	2696.8
531.939	2641.78
532.144	2666.38
532.35	2612.52
532.555	2701.45
532.76	2637.51
532.966	2641
533.171	2620.46
533.376	2555.36
533.581	2541.61
533.787	2602.64
533.992	2658.05
534.197	2685.37
534.402	2647.39
534.607	2698.93
534.813	2793.09
535.018	2700.87
535.223	2728.38
535.428	2783.21
535.633	2778.37
535.838	2827.19
536.043	2830.29
536.249	2913.02
536.454	2823.7
536.659	2832.62
536.864	2794.64
537.069	2814.6
537.274	2795.8
537.479	2791.15
537.684	2779.34
537.889	2759.96
538.094	2906.63
538.299	2811.89
538.504	2893.26
538.708	2860.71
538.913	2926.78
539.118	2922.52
539.323	2915.35
539.528	2814.6
539.733	2847.92
539.938	2886.09
540.142	2867.69
540.347	2835.91
540.552	2830.68
540.757	2772.94
540.962	2809.56
541.166	2761.51
541.371	2750.86
541.576	2809.75
541.781	2746.4
541.985	2878.53
542.19	2852.19
542.395	2920.58
542.599	2960.3
542.804	2885.9
543.008	2930.07
543.213	2913.99
543.418	2867.49
543.622	2936.08
543.827	2866.91
544.031	2984.13
544.236	2969.79
544.44	2975.6
544.645	3025.78
544.849	2956.03
545.054	2995.56
545.258	3036.44
545.463	2997.88
545.667	2937.63
545.872	3042.45
546.076	3017.45
546.281	3007.18
546.485	2994.59
546.689	2993.81
546.894	3021.33
547.098	3003.7
547.302	2997.11
547.507	3025.98
547.711	3012.8
547.915	3036.44
548.119	2969.79
548.324	2989.55
548.528	3025.78
548.732	2998.66
548.936	3031.79
549.141	3058.14
549.345	3026.75
549.549	3061.24
549.753	3085.65
549.957	3144.74
550.161	3124.4
550.366	3125.56
550.57	3043.8
550.774	3073.25
550.978	3092.63
551.182	3114.91
551.386	3046.13
551.59	2991.49
551.794	3060.46
551.998	3105.61
552.202	3092.63
552.406	3034.11
552.61	3110.26
552.814	3079.26
553.018	3127.11
553.222	3044.96
553.426	3036.63
553.63	3119.75
553.833	3055.04
554.037	3011.06
554.241	3128.08
554.445	3074.8
554.649	3057.94
554.853	3056.39
555.056	3114.33
555.26	3083.13
555.464	3068.02
555.668	3095.73
555.871	3092.04
556.075	3115.29
556.279	3047.29
556.483	3014.74
556.686	3056.01
556.89	3052.91
557.094	3052.91
557.297	2932.59
557.501	3036.25
557.704	2910.12
557.908	2998.27
558.112	2943.25
558.315	3015.71
558.519	2966.5
558.722	2924.45
558.926	2916.9
559.129	2836.3
559.333	2821.96
559.536	2858.39
559.74	2843.27
559.943	2827.39
560.147	2830.87
560.35	2806.07
560.553	2887.06
560.757	2792.12
560.96	2871.37
561.164	2897.52
561.367	2930.65
561.57	2889.97
561.774	2887.64
561.977	2859.16
562.18	2818.67
562.384	2959.33
562.587	2828.55
562.79	2843.85
562.993	2794.06
563.197	2803.55
563.4	2858
563.603	2870.78
563.806	2866.33
564.009	2786.7
564.212	2806.46
564.416	2713.46
564.619	2780.5
564.822	2701.45
565.025	2803.36
565.228	2720.82
565.431	2801.62
565.634	2672
565.837	2688.86
566.04	2647.98
566.243	2634.22
566.446	2526.11
566.649	2646.81
566.852	2584.81
567.055	2643.71
567.258	2692.54
567.461	2668.71
567.664	2702.81
567.867	2588.5
568.07	2604.19
568.273	2662.31
568.475	2630.15
568.678	2569.31
568.881	2557.5
569.084	2494.14
569.287	2437.18
569.489	2479.42
569.692	2518.17
569.895	2523.4
570.098	2431.75
570.3	2458.68
570.503	2373.05
570.706	2383.9
570.909	2408.5
571.111	2320.93
571.314	2314.92
571.516	2325
571.719	2347.28
571.922	2326.16
572.124	2295.16
572.327	2325.77
572.529	2283.54
572.732	2307.56
572.935	2340.5
573.137	2386.42
573.34	2265.32
573.542	2363.94
573.745	2336.43
573.947	2361.04
574.15	2296.52
574.352	2263.39
574.554	2310.86
574.757	2228.51
574.959	2200.42
575.162	2230.84
575.364	2210.69
575.566	2289.35
575.769	2177.56
575.971	2181.24
576.173	2050.85
576.376	2184.14
576.578	2229.87
576.78	2252.54
576.982	2098.12
577.185	2167.1
577.387	2115.56
577.589	2121.18
577.791	2150.82
577.993	2178.14
578.196	2091.15
578.398	2120.6
578.6	2159.35
578.802	2054.53
579.004	2040.19
579.206	2082.43
579.408	2065.77
579.61	2054.92
579.812	2114.01
580.014	2038.64
580.216	2045.62
580.418	2120.6
580.62	2086.69
580.822	2031.08
581.024	2089.01
581.226	2132.03
581.428	2071.77
581.63	2185.69
581.832	2068.87
582.034	2144.81
582.236	2126.8
582.438	2142.49
582.64	2126.21
582.841	2184.14
583.043	2207.2
583.245	2119.24
583.447	2168.45
583.649	2122.34
583.85	2124.08
584.052	2176.39
584.254	2054.53
584.456	2180.27
584.657	2074.87
584.859	2097.35
585.061	2083.4
585.262	2079.72
585.464	2043.68
585.666	2104.71
585.867	2019.07
586.069	2113.81
586.27	2038.45
586.472	2054.92
586.674	2013.65
586.875	2018.68
587.077	2010.16
587.278	2077.2
587.48	2013.65
587.681	2127.18
587.883	2012.29
588.084	1967.92
588.285	1991.75
588.487	1956.88
588.688	1985.75
588.89	1840.82
589.091	1797.04
589.292	1788.32
589.494	1768.75
589.695	1727.48
589.896	1649.21
590.098	1672.26
590.299	1727.48
590.5	1704.04
590.702	1741.24
590.903	1769.33
591.104	1820.48
591.305	1822.22
591.507	1838.69
591.708	1837.72
591.909	1821.84
592.11	1862.14
592.311	1832.88
592.512	1776.5
592.714	1741.04
592.915	1775.73
593.116	1810.6
593.317	1851.87
593.518	1811.57
593.719	1834.43
593.92	1896.24
594.121	1867.76
594.322	1825.71
594.523	1815.64
594.724	1777.66
594.925	1761.19
595.126	1782.7
595.327	1799.75
595.528	1792.19
595.729	1778.05
595.929	1771.08
596.13	1801.11
596.331	1828.04
596.532	1841.41
596.733	1865.04
596.934	1865.62
597.135	1843.34
597.335	1849.54
597.536	1780.76
597.737	1831.52
597.938	1802.27
598.138	1848.38
598.339	1782.51
598.54	1849.74
598.74	1795.29
598.941	1834.24
599.142	1863.49
599.342	1832.88
599.543	1798.2
599.744	1786.58
599.944	1805.56
600.145	1809.44
600.345	1847.41
600.546	1856.32
600.746	1882.67
600.947	1886.74
601.147	1825.71
601.348	1854
601.548	1816.03
601.749	1825.71
601.949	1773.4
602.15	1798.78
602.35	1769.91
602.551	1806.14
602.751	1746.86
602.951	1804.98
603.152	1750.93
603.352	1819.32
603.552	1827.46
603.753	1832.69
603.953	1841.99
604.153	1836.37
604.354	1835.59
604.554	1805.18
604.754	1818.74
604.954	1759.45
605.155	1816.03
605.355	1778.63
605.555	1823
605.755	1831.91
605.955	1792.19
606.155	1791.61
606.356	1776.5
606.556	1773.59
606.756	1770.3
606.956	1737.94
607.156	1799.36
607.356	1754.99
607.556	1754.22
607.756	1749.76
607.956	1797.43
608.156	1770.69
608.356	1716.25
608.556	1777.28
608.756	1690.67
608.956	1703.26
609.156	1723.22
609.356	1672.07
609.556	1699.78
609.755	1713.15
609.955	1697.06
610.155	1705.59
610.355	1700.55
610.555	1672.65
610.755	1673.43
610.954	1602.52
611.154	1699.78
611.354	1709.27
611.554	1687.18
611.753	1678.66
611.953	1627.32
612.153	1685.05
612.352	1687.57
612.552	1634.87
612.752	1599.22
612.951	1628.09
613.151	1645.33
613.351	1572.87
613.55	1651.92
613.75	1636.62
613.949	1590.89
614.149	1623.83
614.348	1573.26
614.548	1564.54
614.747	1538.77
614.947	1573.84
615.146	1546.33
615.346	1615.69
615.545	1551.37
615.745	1586.82
615.944	1568.22
616.144	1587.98
616.343	1560.47
616.542	1532.57
616.742	1532.38
616.941	1522.11
