Data from gum_young_FLMT105791__134__17-41-02-040.txt Node

Date: Mon Mar 20 17:41:02 GMT 2023
User: antho
Spectrometer: FLMT10579
Trigger mode: 0
Integration Time (sec): 1.000000E-1
Scans to average: 10
Electric dark correction enabled: true
Nonlinearity correction enabled: false
Boxcar width: 0
XAxis mode: Wavelengths
Number of Pixels in Spectrum: 3648
>>>>>Begin Spectral Data<<<<<
345.248	-150.59
345.464	-150.59
345.681	-150.59
345.898	-183.14
346.114	-156.79
346.331	-30.47
346.548	13.13
346.764	5.38
346.981	-8.38
347.197	-11.29
347.414	20.3
347.631	-3.92
347.847	40.44
348.064	11.38
348.28	6.54
348.497	-21.36
348.713	-21.75
348.93	21.07
349.146	23.98
349.363	-4.5
349.579	-4.7
349.796	-7.99
350.012	-21.75
350.229	36.96
350.445	8.48
350.661	-45.58
350.878	3.25
351.094	9.83
351.311	15.45
351.527	3.83
351.743	-4.12
351.96	11.77
352.176	30.56
352.392	28.24
352.609	36.76
352.825	-13.03
353.041	-4.5
353.257	10.8
353.474	20.1
353.69	-0.05
353.906	8.28
354.122	-10.51
354.339	57.3
354.555	7.7
354.771	-9.35
354.987	49.16
355.203	48
355.42	-2.76
355.636	-2.95
355.852	-11.29
356.068	12.35
356.284	-29.11
356.5	54.01
356.716	37.15
356.932	0.15
357.148	19.71
357.364	5.76
357.58	32.5
357.796	40.64
358.012	58.27
358.228	21.26
358.444	-74.06
358.66	41.03
358.876	1.31
359.092	12.16
359.308	22.81
359.524	25.72
359.74	-5.67
359.956	21.07
360.172	-1.4
360.388	50.71
360.604	-15.74
360.819	57.11
361.035	-1.21
361.251	41.8
361.467	-0.63
361.683	34.05
361.898	15.06
362.114	44.71
362.33	-0.05
362.546	40.06
362.762	12.74
362.977	-0.63
363.193	-9.54
363.409	50.33
363.624	-26.79
363.84	5.76
364.056	-1.79
364.271	35.41
364.487	16.81
364.703	9.64
364.918	-23.1
365.134	14.29
365.35	23.78
365.565	93.53
365.781	15.26
365.996	54.2
366.212	34.63
366.427	21.84
366.643	-9.54
366.858	29.59
367.074	-26.2
367.289	22.81
367.505	114.26
367.72	-5.47
367.936	2.08
368.151	57.11
368.367	26.69
368.582	48.78
368.798	0.73
369.013	46.84
369.228	4.99
369.444	0.34
369.659	68.34
369.874	44.9
370.09	33.66
370.305	-17.29
370.52	-9.35
370.736	50.33
370.951	6.73
371.166	47.03
371.381	71.25
371.597	63.31
371.812	-15.74
372.027	7.31
372.242	6.93
372.458	86.36
372.673	19.33
372.888	-1.21
373.103	57.88
373.318	90.24
373.533	42.96
373.749	40.44
373.964	-0.24
374.179	51.29
374.394	-1.21
374.609	61.76
374.824	-9.93
375.039	57.49
375.254	-8.38
375.469	74.16
375.684	32.31
375.899	57.3
376.114	28.04
376.329	39.67
376.544	57.11
376.759	83.07
376.974	-1.99
377.189	35.99
377.404	18.36
377.619	51.29
377.834	-27.95
378.049	-12.25
378.264	-42.48
378.478	38.51
378.693	-1.21
378.908	58.08
379.123	24.75
379.338	50.52
379.553	29.21
379.767	33.66
379.982	68.73
380.197	48.58
380.412	36.57
380.626	49.55
380.841	92.37
381.056	57.88
381.271	92.56
381.485	12.93
381.7	9.64
381.915	45.68
382.129	30.76
382.344	54.59
382.559	17.58
382.773	28.43
382.988	15.65
383.202	42.96
383.417	17.39
383.632	129.37
383.846	18.94
384.061	16.23
384.275	-4.31
384.49	38.12
384.704	46.64
384.919	33.47
385.133	17
385.348	62.34
385.562	23.39
385.777	71.44
385.991	31.14
386.206	22.23
386.42	28.24
386.634	67.57
386.849	57.49
387.063	45.09
387.277	1.89
387.492	36.57
387.706	9.64
387.92	29.79
388.135	47.23
388.349	37.54
388.563	41.61
388.778	38.12
388.992	70.67
389.206	42.96
389.42	118.14
389.635	50.71
389.849	78.23
390.063	56.53
390.277	29.21
390.491	106.51
390.706	53.43
390.92	73.38
391.134	54.59
391.348	96.24
391.562	-1.02
391.776	47.23
391.99	47.23
392.205	66.41
392.419	4.21
392.633	40.06
392.847	98.38
393.061	21.07
393.275	116.97
393.489	47.23
393.703	34.44
393.917	94.89
394.131	27.85
394.345	68.54
394.559	66.02
394.773	20.68
394.986	37.54
395.2	43.93
395.414	81.13
395.628	38.12
395.842	63.31
396.056	50.71
396.27	11.38
396.484	63.69
396.697	54.98
396.911	68.34
397.125	80.74
397.339	78.23
397.553	81.33
397.766	101.86
397.98	102.64
398.194	103.99
398.408	53.81
398.621	79.58
398.835	81.52
399.049	69.51
399.262	106.13
399.476	95.28
399.69	136.16
399.903	130.34
400.117	90.43
400.331	120.46
400.544	71.44
400.758	169.29
400.971	91.21
401.185	121.43
401.398	37.73
401.612	152.43
401.826	88.49
402.039	106.71
402.253	75.9
402.466	126.66
402.68	87.72
402.893	95.28
403.106	111.74
403.32	105.74
403.533	109.81
403.747	117.75
403.96	87.14
404.174	108.45
404.387	58.66
404.6	91.79
404.814	137.9
405.027	92.95
405.24	90.43
405.454	106.51
405.667	121.62
405.88	47.81
406.094	102.64
406.307	128.02
406.52	108.64
406.733	83.84
406.947	44.51
407.16	147.59
407.373	131.51
407.586	85.39
407.799	58.85
408.012	113.1
408.226	112.32
408.439	154.95
408.652	69.12
408.865	107.29
409.078	157.27
409.291	124.14
409.504	78.03
409.717	106.9
409.93	128.6
410.143	125.69
410.357	63.31
410.57	79.19
410.783	105.54
410.996	119.69
411.209	111.74
411.421	144.1
411.634	101.48
411.847	107.29
412.06	115.23
412.273	112.71
412.486	120.27
412.699	190.21
412.912	144.87
413.125	146.62
413.338	137.51
413.55	172.58
413.763	124.92
413.976	152.04
414.189	95.28
414.402	134.22
414.615	159.99
414.827	108.26
415.04	168.12
415.253	163.09
415.466	194.67
415.678	163.09
415.891	137.71
416.104	145.26
416.316	105.54
416.529	129.76
416.742	169.67
416.954	153.98
417.167	163.09
417.38	141.39
417.592	167.16
417.805	112.13
418.017	106.32
418.23	170.45
418.442	109.81
418.655	118.52
418.868	167.35
419.08	186.53
419.293	175.1
419.505	140.22
419.718	154.95
419.93	178.01
420.142	129.18
420.355	186.14
420.567	177.04
420.78	182.85
420.992	168.9
421.205	221.6
421.417	119.88
421.629	160.96
421.842	122.21
422.054	110.97
422.266	177.62
422.479	218.5
422.691	123.95
422.903	167.74
423.115	135.38
423.328	164.25
423.54	174.91
423.752	143.13
423.964	160.57
424.177	134.22
424.389	169.29
424.601	284.37
424.813	213.46
425.025	182.85
425.238	202.22
425.45	153.79
425.662	164.64
425.874	419.03
426.086	169.67
426.298	201.45
426.51	190.6
426.722	165.99
426.934	140.81
427.146	194.09
427.358	146.04
427.57	196.8
427.782	178.2
427.994	169.09
428.206	148.36
428.418	127.24
428.63	175.49
428.842	200.48
429.054	173.16
429.266	222.76
429.478	170.45
429.69	190.79
429.902	140.42
430.114	207.45
430.325	165.99
430.537	127.05
430.749	162.51
430.961	112.13
431.173	115.42
431.384	175.1
431.596	81.71
431.808	158.24
432.02	164.25
432.231	216.95
432.443	221.02
432.655	215.01
432.867	189.63
433.078	216.95
433.29	255.31
433.502	234.77
433.713	239.04
433.925	198.15
434.136	252.99
434.348	173.16
434.56	142.55
434.771	287.08
434.983	151.66
435.194	202.22
435.406	204.35
435.617	238.45
435.829	271.39
436.04	228.57
436.252	254.15
436.463	275.46
436.675	276.04
436.886	269.84
437.098	241.55
437.309	298.13
437.521	249.5
437.732	247.95
437.943	239.23
438.155	243.3
438.366	205.52
438.578	280.11
438.789	256.28
439	274.49
439.211	241.36
439.423	257.83
439.634	251.05
439.845	253.57
440.057	242.52
440.268	267.52
440.479	213.46
440.69	269.26
440.902	234
441.113	246.79
441.324	238.65
441.535	270.81
441.746	301.81
441.957	209.78
442.168	270.42
442.38	282.44
442.591	321.77
442.802	260.15
443.013	246.79
443.224	289.41
443.435	252.21
443.646	287.28
443.857	238.84
444.068	291.54
444.279	242.52
444.49	351.02
444.701	296
444.912	362.26
445.123	328.93
445.334	288.44
445.545	332.81
445.756	277.2
445.967	261.7
446.178	307.43
446.388	319.83
446.599	340.95
446.81	308.59
447.021	273.72
447.232	348.12
447.443	345.21
447.653	253.57
447.864	342.11
448.075	334.75
448.286	340.17
448.496	311.11
448.707	339.01
448.918	303.36
449.129	387.83
449.339	309.95
449.55	350.44
449.761	310.14
449.971	368.85
450.182	309.37
450.393	364.58
450.603	336.49
450.814	375.43
451.024	336.1
451.235	373.11
451.446	414.38
451.656	396.16
451.867	343.27
452.077	363.42
452.288	422.13
452.498	410.31
452.709	339.98
452.919	374.66
453.13	328.35
453.34	371.75
453.55	293.87
453.761	401.2
453.971	347.34
454.182	375.05
454.392	373.5
454.602	412.05
454.813	386.86
455.023	410.7
455.233	334.75
455.444	404.5
455.654	326.61
455.864	329.32
456.075	369.23
456.285	339.98
456.495	363.23
456.705	364.58
456.916	424.84
457.126	452.74
457.336	371.95
457.546	344.43
457.756	339.4
457.967	424.84
458.177	387.45
458.387	390.74
458.597	369.04
458.807	375.82
459.017	376.98
459.227	362.84
459.437	385.12
459.647	403.53
459.857	425.81
460.068	351.41
460.278	424.06
460.488	416.31
460.698	433.36
460.908	402.56
461.117	339.4
461.327	374.85
461.537	420.19
461.747	406.24
461.957	411.66
462.167	522.29
462.377	440.53
462.587	411.86
462.797	451.58
463.007	432.4
463.216	448.86
463.426	479.86
463.636	441.31
463.846	378.73
464.056	424.84
464.265	458.36
464.475	403.72
464.685	406.63
464.895	470.56
465.104	411.86
465.314	464.56
465.524	411.86
465.733	389.77
465.943	476.38
466.153	493.23
466.362	469.59
466.572	474.44
466.782	442.47
466.991	453.71
467.201	494.01
467.41	394.03
467.62	457.39
467.829	447.12
468.039	481.8
468.249	432.59
468.458	449.64
468.668	479.09
468.877	480.64
469.086	526.94
469.296	508.54
469.505	439.76
469.715	543.03
469.924	506.41
470.134	511.06
470.343	520.94
470.552	479.67
470.762	486.84
470.971	445.76
471.18	486.84
471.39	501.56
471.599	446.93
471.808	516.48
472.018	481.41
472.227	567.24
472.436	577.12
472.645	493.62
472.855	501.95
473.064	588.17
473.273	524.04
473.482	543.41
473.691	578.09
473.901	555.42
474.11	533.53
474.319	625.37
474.528	561.04
474.737	593.01
474.946	570.54
475.155	562.01
475.364	615.29
475.573	603.09
475.783	599.79
475.992	612
476.201	639.51
476.41	574.61
476.619	563.95
476.828	600.57
477.037	548.64
477.245	590.88
477.454	644.35
477.663	571.51
477.872	625.37
478.081	672.45
478.29	596.5
478.499	691.44
478.708	652.88
478.917	730.18
479.125	654.43
479.334	648.62
479.543	653.27
479.752	664.5
479.961	685.43
480.169	696.47
480.378	686.59
480.587	773
480.796	715.07
481.004	670.9
481.213	698.41
481.422	719.53
481.63	720.88
481.839	731.15
482.048	765.45
482.256	721.66
482.465	762.73
482.674	766.03
482.882	775.33
483.091	809.81
483.299	766.8
483.508	760.8
483.716	759.44
483.925	788.7
484.134	724.95
484.342	742.58
484.551	804.58
484.759	767.58
484.967	809.23
485.176	826.67
485.384	781.72
485.593	815.63
485.801	809.04
486.01	755.18
486.218	738.32
486.426	671.09
486.635	695.12
486.843	681.36
487.051	752.85
487.26	727.28
487.468	763.7
487.676	802.84
487.885	755.76
488.093	810.59
488.301	854.18
488.509	822.99
488.717	864.45
488.926	826.86
489.134	832.1
489.342	836.75
489.55	816.98
489.758	829.77
489.967	881.11
490.175	984.57
490.383	872.2
490.591	977.99
490.799	887.31
491.007	924.32
491.215	911.53
491.423	897.97
491.631	920.06
491.839	893.32
492.047	956.29
492.255	856.51
492.463	869.1
492.671	878.6
492.879	940.4
493.087	930.33
493.295	934.39
493.503	926.84
493.711	987.29
493.919	1008.99
494.127	984.57
494.334	984.38
494.542	933.81
494.75	1004.72
494.958	979.54
495.166	1006.08
495.374	1014.22
495.581	994.26
495.789	1006.27
495.997	1048.9
496.205	975.86
496.412	977.79
496.62	1000.07
496.828	1014.22
497.035	1026.81
497.243	1065.95
497.451	1046.19
497.658	1044.44
497.866	1038.24
498.074	1097.14
498.281	1039.02
498.489	1105.09
498.696	1071.18
498.904	1016.74
499.112	1032.43
499.319	1130.08
499.527	1093.85
499.734	1094.62
499.942	1043.47
500.149	1090.17
500.357	1097.72
500.564	1060.14
500.771	1092.69
500.979	1053.16
501.186	1059.17
501.394	1079.32
501.601	1090.75
501.808	1124.27
502.016	1091.52
502.223	1079.9
502.43	1077.19
502.638	1110.51
502.845	1087.07
503.052	1158.56
503.26	1106.44
503.467	1194.6
503.674	1165.15
503.881	1169.99
504.089	1222.69
504.296	1184.91
504.503	1136.86
504.71	1146.16
504.917	1120.39
505.125	1183.55
505.332	1206.22
505.539	1230.05
505.746	1262.41
505.953	1252.33
506.16	1238.19
506.367	1315.69
506.574	1340.68
506.781	1328.86
506.988	1255.43
507.195	1299.8
507.402	1222.11
507.609	1337
507.816	1271.32
508.023	1279.85
508.23	1259.11
508.437	1269.58
508.644	1331.77
508.851	1368.78
509.058	1400.74
509.265	1348.04
509.472	1350.76
509.679	1453.83
509.885	1412.18
510.092	1391.25
510.299	1410.82
510.506	1404.43
510.713	1424.19
510.92	1399.58
511.126	1486.96
511.333	1481.15
511.54	1469.72
511.746	1524.35
511.953	1545.28
512.16	1598.75
512.367	1507.69
512.573	1521.84
512.78	1563.3
512.987	1566.2
513.193	1547.02
513.4	1449.76
513.606	1531.33
513.813	1583.45
514.02	1545.28
514.226	1588.1
514.433	1609.22
514.639	1554.58
514.846	1610.57
515.052	1543.92
515.259	1617.16
515.465	1634.98
515.672	1652.42
515.878	1739.22
516.085	1659.4
516.291	1729.34
516.497	1684
516.704	1655.52
516.91	1585.39
517.117	1561.94
517.323	1528.62
517.529	1552.06
517.736	1562.14
517.942	1566.01
518.148	1624.52
518.354	1664.43
518.561	1640.6
518.767	1672.77
518.973	1694.46
519.179	1757.43
519.386	1747.75
519.592	1763.83
519.798	1737.86
520.004	1848.88
520.21	1853.14
520.417	1909.33
520.623	1944.59
520.829	1994.77
521.035	1938.97
521.241	1914.76
521.447	2001.36
521.653	2108.5
521.859	1987.02
522.065	2039.53
522.271	2164.11
522.477	2126.91
522.683	2184.45
522.889	2113.54
523.095	2077.7
523.301	2105.98
523.507	2077.7
523.713	2148.22
523.919	2101.33
524.125	2198.01
524.331	2176.51
524.537	2286.75
524.742	2309.03
524.948	2317.56
525.154	2320.07
525.36	2402.42
525.566	2326.86
525.772	2372
525.977	2296.05
526.183	2385.75
526.389	2384.2
526.595	2264.86
526.8	2314.46
527.006	2184.45
527.212	2165.46
527.417	2135.82
527.623	2203.44
527.829	2252.84
528.034	2291.21
528.24	2296.05
528.446	2344.49
528.651	2426.83
528.857	2480.88
529.062	2501.62
529.268	2487.67
529.473	2540.17
529.679	2552.57
529.884	2602.17
530.09	2553.73
530.295	2564.58
530.501	2582.21
530.706	2566.91
530.912	2589.19
531.117	2592.68
531.323	2626.2
531.528	2710.86
531.733	2681.03
531.939	2615.35
532.144	2669.59
532.35	2648.09
532.555	2673.47
532.76	2644.79
532.966	2617.48
533.171	2587.83
533.376	2530.48
533.581	2564.39
533.787	2614.57
533.992	2680.44
534.197	2648.86
534.402	2673.66
534.607	2675.02
534.813	2755.23
535.018	2701.18
535.223	2733.92
535.428	2753.1
535.633	2761.82
535.838	2808.32
536.043	2878.45
536.249	2928.83
536.454	2816.84
536.659	2911.58
536.864	2849
537.069	2852.49
537.274	2806.38
537.479	2806.38
537.684	2785.46
537.889	2827.3
538.094	2915.65
538.299	2861.4
538.504	2916.04
538.708	2902.87
538.913	2944.91
539.118	2914.49
539.323	2910.03
539.528	2868.77
539.733	2873.42
539.938	2871.29
540.142	2881.75
540.347	2824.2
540.552	2799.6
540.757	2795.92
540.962	2801.34
541.166	2770.92
541.371	2793.98
541.576	2825.75
541.781	2767.82
541.985	2883.1
542.19	2877.68
542.395	2976.88
542.599	2956.34
542.804	2902.48
543.008	2964.48
543.213	2887.75
543.418	2857.72
543.622	2936.19
543.827	2865.86
544.031	2946.07
544.236	3013.69
544.44	3017.95
544.645	3027.45
544.849	2938.52
545.054	3055.15
545.258	3074.72
545.463	3041.59
545.667	2937.35
545.872	3027.64
546.076	3022.99
546.281	2999.74
546.485	2983.85
546.689	3002.06
546.894	3023.18
547.098	3040.43
547.302	3039.26
547.507	3010.2
547.711	3041.98
547.915	3096.03
548.119	2965.64
548.324	2989.47
548.528	3059.03
548.732	3046.63
548.936	3075.11
549.141	3081.11
549.345	3031.13
549.549	3090.41
549.753	3138.85
549.957	3155.13
550.161	3153.96
550.366	3112.69
550.57	3080.34
550.774	3059.03
550.978	3136.91
551.182	3110.95
551.386	3063.48
551.59	3036.55
551.794	3070.65
551.998	3119.28
552.202	3111.73
552.406	3070.85
552.61	3127.61
552.814	3102.23
553.018	3136.33
553.222	3103.2
553.426	3069.88
553.63	3204.34
553.833	3083.83
554.037	3041.01
554.241	3108.63
554.445	3102.43
554.649	3115.21
554.853	3078.6
555.056	3146.21
555.26	3162.1
555.464	3116.57
555.668	3135.75
555.871	3161.52
556.075	3135.75
556.279	3097.39
556.483	3069.88
556.686	3066.39
556.89	3061.55
557.094	3028.61
557.297	2996.45
557.501	3061.74
557.704	2986.57
557.908	3020.86
558.112	3022.41
558.315	3063.29
558.519	3020.86
558.722	3010.2
558.926	2966.03
559.129	2887.17
559.333	2880.2
559.536	2910.23
559.74	2870.7
559.943	2831.18
560.147	2827.69
560.35	2863.92
560.553	2877.87
560.757	2824.98
560.96	2922.05
561.164	2871.09
561.367	2950.72
561.57	2899.57
561.774	2889.11
561.977	2887.17
562.18	2866.64
562.384	2940.45
562.587	2858.11
562.79	2829.24
562.993	2814.13
563.197	2891.82
563.4	2883.88
563.603	2902.87
563.806	2932.51
564.009	2819.17
564.212	2860.44
564.416	2774.02
564.619	2845.52
564.822	2751.16
565.025	2858.11
565.228	2804.44
565.431	2797.08
565.634	2697.3
565.837	2725.2
566.04	2674.63
566.243	2655.84
566.446	2600.23
566.649	2684.71
566.852	2626.39
567.055	2664.17
567.258	2664.75
567.461	2728.49
567.664	2718.81
567.867	2640.92
568.07	2649.83
568.273	2650.22
568.475	2668.04
568.678	2571.36
568.881	2568.46
569.084	2572.72
569.287	2474.68
569.489	2469.65
569.692	2552.96
569.895	2570.59
570.098	2467.32
570.3	2467.52
570.503	2422.37
570.706	2431.67
570.909	2430.32
571.111	2328.6
571.314	2352.24
571.516	2358.44
571.719	2390.4
571.922	2351.66
572.124	2337.9
572.327	2352.82
572.529	2337.9
572.732	2307.29
572.935	2365.41
573.137	2403.97
573.34	2308.84
573.542	2403.77
573.745	2321.43
573.947	2355.72
574.15	2302.25
574.352	2283.84
574.554	2339.45
574.757	2245.09
574.959	2246.64
575.162	2244.13
575.364	2221.26
575.566	2303.8
575.769	2161.2
575.971	2234.24
576.173	2122.65
576.376	2194.33
576.578	2248.78
576.78	2268.93
576.982	2131.56
577.185	2187.94
577.387	2119.93
577.589	2152.48
577.791	2160.43
577.993	2199.95
578.196	2142.21
578.398	2177.09
578.6	2131.75
578.802	2107.73
579.004	2079.05
579.206	2071.11
579.408	2111.22
579.61	2082.93
579.812	2149.77
580.014	2088.93
580.216	2115.48
580.418	2127.3
580.62	2107.53
580.822	2087.38
581.024	2102.11
581.226	2157.52
581.428	2127.49
581.63	2199.95
581.832	2109.08
582.034	2163.14
582.236	2094.94
582.438	2150.16
582.64	2180.38
582.841	2215.84
583.043	2280.94
583.245	2159.26
583.447	2174.76
583.649	2169.15
583.85	2180.96
584.052	2201.89
584.254	2078.28
584.456	2168.76
584.657	2116.64
584.859	2148.41
585.061	2090.68
585.262	2117.61
585.464	2032.17
585.666	2130.2
585.867	2052.51
586.069	2129.23
586.27	2060.45
586.472	2083.32
586.674	2069.75
586.875	2022.09
587.077	2080.41
587.278	2063.17
587.48	2029.26
587.681	2142.8
587.883	2052.7
588.084	2019.57
588.285	1989.93
588.487	1959.32
588.688	2007.17
588.89	1904.49
589.091	1812.84
589.292	1820.59
589.494	1797.93
589.695	1795.21
589.896	1703.96
590.098	1680.71
590.299	1752.4
590.5	1729.73
590.702	1769.45
590.903	1820.4
591.104	1868.45
591.305	1860.12
591.507	1896.35
591.708	1874.07
591.909	1838.23
592.11	1869.03
592.311	1889.18
592.512	1803.16
592.714	1787.46
592.915	1820.21
593.116	1793.86
593.317	1876.2
593.518	1839.19
593.719	1833.19
593.92	1895.38
594.121	1867.67
594.322	1829.51
594.523	1869.61
594.724	1771.58
594.925	1820.01
595.126	1783.01
595.327	1832.03
595.528	1854.69
595.729	1803.93
595.929	1876.01
596.13	1802.96
596.331	1871.16
596.532	1847.14
596.733	1902.74
596.934	1918.44
597.135	1894.8
597.335	1893.83
597.536	1833.77
597.737	1865.54
597.938	1803.54
598.138	1867.67
598.339	1862.64
598.54	1875.81
598.74	1832.8
598.941	1844.81
599.142	1882.98
599.342	1895.19
599.543	1837.45
599.744	1869.03
599.944	1846.75
600.145	1814.39
600.345	1880.85
600.546	1921.92
600.746	1918.44
600.947	1926.19
601.147	1832.8
601.348	1893.44
601.548	1815.17
601.749	1812.07
601.949	1846.36
602.15	1816.91
602.35	1781.46
602.551	1868.06
602.751	1774.68
602.951	1828.93
603.152	1751.62
603.352	1854.31
603.552	1842.1
603.753	1846.56
603.953	1876.01
604.153	1849.27
604.354	1859.34
604.554	1825.05
604.754	1824.66
604.954	1831.83
605.155	1829.7
605.355	1819.82
605.555	1862.83
605.755	1878.52
605.955	1840.94
606.155	1859.54
606.356	1820.4
606.556	1819.63
606.756	1841.52
606.956	1783.78
607.156	1874.46
607.356	1784.75
607.556	1813.43
607.756	1793.66
607.956	1812.07
608.156	1803.93
608.356	1778.36
608.556	1798.31
608.756	1745.42
608.956	1750.26
609.156	1733.6
609.356	1731.86
609.556	1703.96
609.755	1751.43
609.955	1693.88
610.155	1732.63
610.355	1737.86
610.555	1720.43
610.755	1726.43
610.954	1664.43
611.154	1732.83
611.354	1735.54
611.554	1695.63
611.753	1656.88
611.953	1682.06
612.153	1721.59
612.352	1706.48
612.552	1643.32
612.752	1592.17
612.951	1666.95
613.151	1647.38
613.351	1619.68
613.55	1636.92
613.75	1670.63
613.949	1632.85
614.149	1632.27
614.348	1609.8
614.548	1601.27
614.747	1566.79
614.947	1599.53
615.146	1559.04
615.346	1662.69
615.545	1613.67
615.745	1620.84
615.944	1610.77
616.144	1605.53
616.343	1603.98
616.542	1535.79
616.742	1548.96
