Data from gum_young_FLMT105791__34__17-38-33-035.txt Node

Date: Mon Mar 20 17:38:33 GMT 2023
User: antho
Spectrometer: FLMT10579
Trigger mode: 0
Integration Time (sec): 1.000000E-1
Scans to average: 10
Electric dark correction enabled: true
Nonlinearity correction enabled: false
Boxcar width: 0
XAxis mode: Wavelengths
Number of Pixels in Spectrum: 3648
>>>>>Begin Spectral Data<<<<<
345.248	-145.94
345.464	-145.94
345.681	-145.94
345.898	-126.18
346.114	-130.83
346.331	-28.14
346.548	34.24
346.764	-15.16
346.981	-12.64
347.197	1.31
347.414	15.26
347.631	-51.97
347.847	58.08
348.064	2.66
348.28	22.62
348.497	-25.24
348.713	-1.02
348.93	17
349.146	18.16
349.363	12.74
349.579	7.7
349.796	3.83
350.012	-1.99
350.229	37.15
350.445	32.89
350.661	-29.89
350.878	-0.63
351.094	19.71
351.311	10.8
351.527	16.81
351.743	-8.57
351.96	45.29
352.176	53.23
352.392	26.49
352.609	23.39
352.825	12.16
353.041	7.12
353.257	-15.16
353.474	8.28
353.69	16.03
353.906	13.51
354.122	-24.65
354.339	66.6
354.555	-27.95
354.771	-5.47
354.987	44.9
355.203	63.11
355.42	6.93
355.636	-0.63
355.852	0.34
356.068	-0.05
356.284	-29.11
356.5	23.59
356.716	57.69
356.932	0.73
357.148	17.58
357.364	17.2
357.58	47.61
357.796	61.18
358.012	51.29
358.228	27.08
358.444	-38.8
358.66	52.26
358.876	22.04
359.092	-15.74
359.308	15.06
359.524	45.48
359.74	-22.91
359.956	11.96
360.172	2.66
360.388	57.11
360.604	-3.92
360.819	72.41
361.035	21.84
361.251	29.01
361.467	10.8
361.683	43.35
361.898	15.65
362.114	16.42
362.33	23.2
362.546	54.01
362.762	4.6
362.977	0.73
363.193	-7.8
363.409	52.84
363.624	-16.71
363.84	8.28
364.056	-5.09
364.271	26.49
364.487	14.48
364.703	-9.74
364.918	-13.42
365.134	11
365.35	-7.41
365.565	79.78
365.781	20.49
365.996	45.29
366.212	70.09
366.427	13.71
366.643	-5.28
366.858	18.75
367.074	-18.26
367.289	58.85
367.505	121.43
367.72	-23.69
367.936	0.92
368.151	48.97
368.367	41.41
368.582	24.94
368.798	-16.9
369.013	58.66
369.228	1.5
369.444	0.73
369.659	41.8
369.874	35.99
370.09	39.09
370.305	-48.68
370.52	-9.93
370.736	87.53
370.951	15.45
371.166	69.89
371.381	63.69
371.597	31.53
371.812	-19.62
372.027	-3.73
372.242	24.36
372.458	87.14
372.673	11.38
372.888	30.56
373.103	16.61
373.318	81.71
373.533	31.73
373.749	34.63
373.964	-39.38
374.179	54.78
374.394	5.96
374.609	76.29
374.824	9.25
375.039	68.34
375.254	0.92
375.469	66.21
375.684	36.18
375.899	64.28
376.114	27.27
376.329	18.36
376.544	65.05
376.759	35.99
376.974	11.38
377.189	50.13
377.404	31.34
377.619	42.58
377.834	-36.86
378.049	-16.13
378.264	-15.94
378.478	19.52
378.693	1.31
378.908	40.06
379.123	-1.99
379.338	51.29
379.553	24.56
379.767	45.29
379.982	26.88
380.197	24.75
380.412	15.45
380.626	23.39
380.841	64.08
381.056	46.06
381.271	95.66
381.485	10.61
381.7	7.31
381.915	18.36
382.129	27.08
382.344	32.31
382.559	16.42
382.773	41.99
382.988	0.34
383.202	40.83
383.417	-14.77
383.632	93.14
383.846	43.16
384.061	34.83
384.275	38.7
384.49	51.49
384.704	34.44
384.919	24.56
385.133	23.98
385.348	54.59
385.562	-2.18
385.777	60.4
385.991	28.04
386.206	1.89
386.42	19.71
386.634	44.32
386.849	50.52
387.063	28.04
387.277	-13.22
387.492	11.38
387.706	3.63
387.92	-4.7
388.135	67.18
388.349	43.93
388.563	29.79
388.778	28.24
388.992	23.01
389.206	31.53
389.42	121.24
389.635	50.52
389.849	54.2
390.063	45.68
390.277	74.35
390.491	92.18
390.706	57.11
390.92	42.38
391.134	44.13
391.348	78.61
391.562	4.02
391.776	11.38
391.99	22.62
392.205	54.59
392.419	2.28
392.633	51.88
392.847	74.35
393.061	11.19
393.275	97.21
393.489	33.86
393.703	34.05
393.917	98.57
394.131	11.96
394.345	60.01
394.559	62.53
394.773	44.13
394.986	47.42
395.2	49.94
395.414	42.77
395.628	11.38
395.842	28.24
396.056	18.36
396.27	-5.09
396.484	63.31
396.697	28.82
396.911	95.86
397.125	76.09
397.339	76.87
397.553	19.71
397.766	118.14
397.98	76.29
398.194	79.58
398.408	53.43
398.621	60.98
398.835	90.82
399.049	66.6
399.262	75.9
399.476	84.81
399.69	71.06
399.903	122.98
400.117	64.86
400.331	91.01
400.544	33.28
400.758	150.69
400.971	55.17
401.185	83.07
401.398	34.05
401.612	101.28
401.826	85.59
402.039	120.46
402.253	42.77
402.466	60.21
402.68	64.08
402.893	67.96
403.106	51.1
403.32	54.01
403.533	58.08
403.747	76.68
403.96	72.99
404.174	113.29
404.387	39.28
404.6	66.02
404.814	106.32
405.027	78.81
405.24	105.93
405.454	56.33
405.667	105.93
405.88	42.77
406.094	59.24
406.307	106.9
406.52	77.26
406.733	19.33
406.947	12.74
407.16	116.78
407.373	99.73
407.586	66.6
407.799	27.66
408.012	119.3
408.226	86.56
408.439	117.36
408.652	42.96
408.865	98.57
409.078	111.74
409.291	68.54
409.504	22.04
409.717	79
409.93	96.44
410.143	70.48
410.357	56.14
410.57	49.94
410.783	71.06
410.996	85.78
411.209	104.58
411.421	123.95
411.634	87.91
411.847	75.9
412.06	98.57
412.273	89.08
412.486	88.69
412.699	125.31
412.912	90.82
413.125	102.44
413.338	80.16
413.55	127.44
413.763	91.21
413.976	99.54
414.189	101.67
414.402	71.44
414.615	152.24
414.827	103.8
415.04	141
415.253	102.25
415.466	108.64
415.678	140.42
415.891	98.38
416.104	98.96
416.316	78.42
416.529	103.03
416.742	108.26
416.954	132.09
417.167	114.26
417.38	85.98
417.592	133.06
417.805	67.96
418.017	83.07
418.23	142.36
418.442	115.04
418.655	79.78
418.868	114.46
419.08	113.49
419.293	130.15
419.505	100.12
419.718	118.33
419.93	144.1
420.142	85.39
420.355	156.69
420.567	157.66
420.78	141
420.992	111.55
421.205	159.21
421.417	74.74
421.629	109.42
421.842	70.09
422.054	76.09
422.266	124.53
422.479	167.16
422.691	102.06
422.903	153.4
423.115	74.16
423.328	131.12
423.54	125.89
423.752	118.52
423.964	106.9
424.177	141.39
424.389	138.09
424.601	207.65
424.813	153.01
425.025	178.2
425.238	149.14
425.45	118.33
425.662	103.61
425.874	390.93
426.086	149.52
426.298	176.46
426.51	133.25
426.722	128.41
426.934	108.06
427.146	174.13
427.358	97.99
427.57	164.06
427.782	134.41
427.994	141.77
428.206	141
428.418	109.81
428.63	142.36
428.842	166.57
429.054	133.44
429.266	177.81
429.478	114.65
429.69	123.37
429.902	105.35
430.114	151.27
430.325	138.09
430.537	109.61
430.749	113.68
430.961	52.65
431.173	92.56
431.384	141.97
431.596	69.51
431.808	105.54
432.02	141.58
432.231	150.88
432.443	173.74
432.655	141
432.867	134.61
433.078	178.01
433.29	195.83
433.502	181.69
433.713	180.91
433.925	160.57
434.136	203
434.348	120.07
434.56	93.73
434.771	253.95
434.983	119.3
435.194	125.11
435.406	142.55
435.617	194.67
435.829	215.01
436.04	150.3
436.252	188.86
436.463	227.99
436.675	211.52
436.886	180.14
437.098	180.52
437.309	228.77
437.521	192.54
437.732	180.91
437.943	168.71
438.155	164.06
438.366	115.62
438.578	222.76
438.789	189.44
439	181.3
439.211	162.89
439.423	198.93
439.634	201.06
439.845	200.67
440.057	198.15
440.268	238.45
440.479	174.32
440.69	181.69
440.902	172.39
441.113	177.23
441.324	184.79
441.535	217.53
441.746	215.2
441.957	168.32
442.168	197.96
442.38	190.6
442.591	246.79
442.802	183.43
443.013	171.03
443.224	221.79
443.435	188.86
443.646	171.42
443.857	178.39
444.068	195.06
444.279	158.05
444.49	265.19
444.701	208.81
444.912	296.19
445.123	249.5
445.334	229.15
445.545	220.24
445.756	200.87
445.967	204.55
446.178	247.37
446.388	255.7
446.599	229.54
446.81	220.24
447.021	200.48
447.232	246.98
447.443	259.77
447.653	204.35
447.864	275.65
448.075	245.24
448.286	275.07
448.496	259.96
448.707	279.34
448.918	230.7
449.129	327
449.339	223.34
449.55	261.7
449.761	236.9
449.971	284.57
450.182	254.54
450.393	292.7
450.603	236.13
450.814	297.93
451.024	282.63
451.235	298.13
451.446	322.73
451.656	323.7
451.867	264.22
452.077	284.37
452.288	315.76
452.498	338.23
452.709	253.18
452.919	287.28
453.13	245.43
453.34	302.97
453.55	231.09
453.761	305.3
453.971	258.22
454.182	284.76
454.392	262.48
454.602	344.43
454.813	293.09
455.023	299.1
455.233	240.59
455.444	265.39
455.654	237.1
455.864	266.94
456.075	275.85
456.285	267.71
456.495	270.23
456.705	280.5
456.916	320.99
457.126	347.92
457.336	283.4
457.546	238.84
457.756	265.19
457.967	348.5
458.177	304.13
458.387	298.13
458.597	284.18
458.807	296.58
459.017	297.74
459.227	276.82
459.437	306.65
459.647	322.93
459.857	315.37
460.068	283.02
460.278	363.03
460.488	303.36
460.698	352.96
460.908	311.5
461.117	288.83
461.327	250.27
461.537	314.02
461.747	317.5
461.957	298.13
462.167	418.45
462.377	367.88
462.587	323.9
462.797	366.72
463.007	303.36
463.216	352.96
463.426	392.68
463.636	366.52
463.846	291.73
464.056	306.85
464.265	373.88
464.475	304.33
464.685	326.22
464.895	369.43
465.104	360.71
465.314	384.54
465.524	315.37
465.733	323.7
465.943	418.83
466.153	350.05
466.362	403.33
466.572	351.22
466.782	338.82
466.991	359.93
467.201	367.88
467.41	310.53
467.62	338.82
467.829	349.86
468.039	374.66
468.249	311.11
468.458	361.87
468.668	374.46
468.877	369.23
469.086	416.7
469.296	411.47
469.505	357.03
469.715	444.99
469.924	365.17
470.134	411.28
470.343	421.74
470.552	364.39
470.762	383.76
470.971	339.2
471.18	396.16
471.39	375.82
471.599	338.62
471.808	413.41
472.018	375.82
472.227	426
472.436	441.11
472.645	431.81
472.855	369.43
473.064	451.77
473.273	424.06
473.482	423.87
473.691	459.71
473.901	435.3
474.11	414.76
474.319	492.07
474.528	407.4
474.737	470.76
474.946	423.1
475.155	459.13
475.364	454.87
475.573	449.06
475.783	433.95
475.992	469.79
476.201	493.81
476.41	471.73
476.619	406.05
476.828	495.36
477.037	424.06
477.245	451.58
477.454	490.52
477.663	453.13
477.872	460.68
478.081	550.39
478.29	442.28
478.499	552.13
478.708	481.41
478.917	548.06
479.125	476.18
479.334	539.54
479.543	466.88
479.752	517.06
479.961	507.18
480.169	570.34
480.378	498.27
480.587	614.71
480.796	548.84
481.004	537.99
481.213	565.11
481.422	540.51
481.63	538.96
481.839	574.02
482.048	627.5
482.256	570.34
482.465	582.16
482.674	597.66
482.882	586.62
483.091	639.7
483.299	585.46
483.508	597.08
483.716	605.22
483.925	618.01
484.134	588.36
484.342	589.91
484.551	627.11
484.759	626.14
484.967	617.42
485.176	630.99
485.384	654.62
485.593	647.65
485.801	646.29
486.01	594.56
486.218	555.81
486.426	529.66
486.635	550.77
486.843	542.44
487.051	575.77
487.26	578.09
487.468	605.61
487.676	637.19
487.885	587.2
488.093	619.17
488.301	651.33
488.509	659.85
488.717	690.27
488.926	663.92
489.134	658.5
489.342	675.94
489.55	627.31
489.758	682.72
489.967	650.75
490.175	733.87
490.383	677.49
490.591	745.88
490.799	669.15
491.007	735.42
491.215	718.37
491.423	696.47
491.631	715.27
491.839	667.02
492.047	748.98
492.255	674.77
492.463	671.29
492.671	698.99
492.879	767
493.087	722.82
493.295	758.08
493.503	759.63
493.711	759.25
493.919	755.95
494.127	781.72
494.334	814.66
494.542	731.15
494.75	804
494.958	751.88
495.166	849.15
495.374	801.29
495.581	791.8
495.789	805.17
495.997	870.07
496.205	806.72
496.412	792.18
496.62	788.7
496.828	825.51
497.035	800.13
497.243	829.96
497.451	837.33
497.658	839.26
497.866	810.4
498.074	912.5
498.281	818.73
498.489	909.98
498.696	864.45
498.904	804
499.112	795.87
499.319	935.94
499.527	838.1
499.734	886.35
499.942	838.49
500.149	876.85
500.357	873.95
500.564	837.13
500.771	897.58
500.979	852.25
501.186	835
501.394	865.42
501.601	863.1
501.808	889.06
502.016	887.9
502.223	893.9
502.43	917.34
502.638	898.94
502.845	881.89
503.052	952.8
503.26	903.59
503.467	992.32
503.674	926.64
503.881	926.64
504.089	991.94
504.296	1000.27
504.503	892.55
504.71	963.65
504.917	909.4
505.125	959.19
505.332	967.72
505.539	967.91
505.746	1039.41
505.953	1039.99
506.16	1033.4
506.367	1068.08
506.574	1078.74
506.781	1094.82
506.988	967.91
507.195	1061.11
507.402	1052.77
507.609	1076.22
507.816	1033.79
508.023	1056.65
508.23	1080.48
508.437	1047.16
508.644	1100.05
508.851	1153.91
509.058	1109.35
509.265	1106.64
509.472	1132.4
509.679	1246.91
509.885	1104.12
510.092	1153.91
510.299	1163.98
510.506	1142.09
510.713	1184.91
510.92	1160.11
511.126	1186.85
511.333	1236.25
511.54	1265.7
511.746	1245.55
511.953	1226.57
512.16	1303.68
512.367	1227.73
512.573	1244.2
512.78	1266.67
512.987	1253.69
513.193	1250.01
513.4	1192.08
513.606	1247.1
513.813	1326.35
514.02	1274.61
514.226	1343.78
514.433	1318.79
514.639	1263.38
514.846	1320.53
515.052	1309.3
515.259	1284.11
515.465	1353.47
515.672	1331.19
515.878	1405.98
516.085	1350.95
516.291	1391.25
516.497	1362.77
516.704	1318.21
516.91	1289.92
517.117	1269.19
517.323	1218.04
517.529	1271.71
517.736	1244.97
517.942	1287.01
518.148	1328.67
518.354	1338.36
518.561	1340.68
518.767	1339.71
518.973	1407.53
519.179	1417.02
519.386	1422.44
519.592	1373.43
519.798	1421.86
520.004	1544.5
520.21	1500.52
520.417	1567.95
520.623	1554
520.829	1585.19
521.035	1579.19
521.241	1579.57
521.447	1609.02
521.653	1704.73
521.859	1631.5
522.065	1642.15
522.271	1726.82
522.477	1698.34
522.683	1710.35
522.889	1693.3
523.095	1707.83
523.301	1709
523.507	1658.23
523.713	1706.86
523.919	1678.38
524.125	1777
524.331	1785.72
524.537	1861.47
524.742	1855.28
524.948	1872.71
525.154	1835.32
525.36	1946.53
525.566	1852.18
525.772	1868.84
525.977	1845.39
526.183	1867.67
526.389	1926.57
526.595	1854.31
526.8	1798.31
527.006	1735.35
527.212	1720.81
527.417	1733.41
527.623	1739.22
527.829	1796.57
528.034	1824.08
528.24	1826.41
528.446	1838.61
528.651	1933.36
528.857	1929.09
529.062	2017.05
529.268	1976.95
529.473	1990.7
529.679	2000.39
529.884	2084.09
530.09	2021.51
530.295	2027.52
530.501	2035.07
530.706	2047.47
530.912	2035.85
531.117	2012.21
531.323	2069.17
531.528	2115.48
531.733	2103.08
531.939	2082.93
532.144	2126.52
532.35	2081.77
532.555	2098.62
532.76	2085.45
532.966	2048.83
533.171	2067.62
533.376	2042.05
533.581	1998.45
533.787	2077.5
533.992	2123.03
534.197	2111.02
534.402	2082.54
534.607	2127.88
534.813	2221.46
535.018	2124
535.223	2145.9
535.428	2126.33
535.633	2209.06
535.838	2231.14
536.043	2251.49
536.249	2321.62
536.454	2244.13
536.659	2273.58
536.864	2228.04
537.069	2186.39
537.274	2204.02
537.479	2170.31
537.684	2180.77
537.889	2175.35
538.094	2284.23
538.299	2242.96
538.504	2277.64
538.708	2226.69
538.913	2313.68
539.118	2229.4
539.323	2276.48
539.528	2238.51
539.733	2265.05
539.938	2314.26
540.142	2268.15
540.347	2260.21
540.552	2181.55
540.757	2202.66
540.962	2213.9
541.166	2152.1
541.371	2157.33
541.576	2229.21
541.781	2180.96
541.985	2288.11
542.19	2228.63
542.395	2334.22
542.599	2344.29
542.804	2297.6
543.008	2345.07
543.213	2284.43
543.418	2249.16
543.622	2284.43
543.827	2232.11
544.031	2338.48
544.236	2331.51
544.44	2374.32
544.645	2403
544.849	2327.05
545.054	2366.19
545.258	2441.55
545.463	2403.77
545.667	2311.36
545.872	2399.7
546.076	2363.47
546.281	2397.96
546.485	2340.61
546.689	2399.12
546.894	2434
547.098	2397.38
547.302	2355.14
547.507	2361.73
547.711	2361.54
547.915	2411.72
548.119	2329.37
548.324	2358.24
548.528	2421.6
548.732	2347.59
548.936	2427.6
549.141	2408.42
549.345	2415.01
549.549	2419.08
549.753	2431.67
549.957	2473.33
550.161	2511.11
550.366	2438.45
550.57	2375.29
550.774	2415.79
550.978	2451.44
551.182	2440.39
551.386	2390.4
551.59	2420.44
551.794	2384.4
551.998	2429.35
552.202	2409.2
552.406	2376.84
552.61	2457.64
552.814	2423.92
553.018	2475.07
553.222	2402.8
553.426	2422.18
553.63	2493.48
553.833	2417.53
554.037	2365.99
554.241	2425.67
554.445	2424.7
554.649	2420.82
554.853	2419.66
555.056	2482.63
555.26	2458.22
555.464	2448.34
555.668	2426.05
555.871	2436.71
556.075	2460.15
556.279	2382.07
556.483	2382.46
556.686	2398.15
556.89	2380.52
557.094	2408.62
557.297	2356.31
557.501	2389.05
557.704	2286.36
557.908	2393.7
558.112	2292.95
558.315	2380.33
558.519	2348.17
558.722	2302.44
558.926	2321.62
559.129	2200.73
559.333	2231.34
559.536	2246.84
559.74	2246.45
559.943	2206.34
560.147	2223.01
560.35	2255.36
560.553	2282.49
560.757	2211.58
560.96	2297.79
561.164	2269.89
561.367	2377.62
561.57	2277.84
561.774	2274.93
561.977	2272.99
562.18	2222.04
562.384	2341.77
562.587	2281.52
562.79	2249.16
562.993	2244.13
563.197	2300.7
563.4	2274.74
563.603	2300.7
563.806	2322.4
564.009	2235.41
564.212	2262.53
564.416	2174.38
564.619	2225.91
564.822	2181.16
565.025	2232.89
565.228	2146.86
565.431	2224.36
565.634	2123.23
565.837	2163.91
566.04	2120.9
566.243	2106.37
566.446	2025.39
566.649	2112.57
566.852	2063.55
567.055	2112.96
567.258	2128.07
567.461	2224.56
567.664	2168.95
567.867	2083.9
568.07	2112.57
568.273	2150.16
568.475	2130.2
568.678	2047.67
568.881	2056.38
569.084	2028.68
569.287	1928.9
569.489	1982.76
569.692	2036.62
569.895	2029.84
570.098	1974.24
570.3	1982.76
570.503	1899.84
570.706	1911.27
570.909	1925.61
571.111	1854.69
571.314	1876.78
571.516	1872.32
571.719	1887.82
571.922	1876.78
572.124	1849.27
572.327	1873.1
572.529	1844.43
572.732	1871.36
572.935	1893.83
573.137	1965.52
573.34	1859.15
573.542	1909.52
573.745	1898.09
573.947	1889.37
574.15	1863.22
574.352	1849.27
574.554	1906.42
574.757	1845.98
574.959	1815.17
575.162	1809.74
575.364	1788.82
575.566	1893.83
575.769	1797.15
575.971	1833.77
576.173	1722.17
576.376	1805.29
576.578	1853.53
576.78	1851.79
576.982	1723.72
577.185	1782.43
577.387	1750.07
577.589	1740
577.791	1751.62
577.993	1769.45
578.196	1752.2
578.398	1784.75
578.6	1729.92
578.802	1709.19
579.004	1672.38
579.206	1715.58
579.408	1737.86
579.61	1711.32
579.812	1758.6
580.014	1713.06
580.216	1728.76
580.418	1716.55
580.62	1694.46
580.822	1689.43
581.024	1751.04
581.226	1769.45
581.428	1698.92
581.63	1800.06
581.832	1753.17
582.034	1797.93
582.236	1748.13
582.438	1794.83
582.64	1824.08
582.841	1826.41
583.043	1822.73
583.245	1778.94
583.447	1795.6
583.649	1748.33
583.85	1770.8
584.052	1801.61
584.254	1708.03
584.456	1784.75
584.657	1718.88
584.859	1725.27
585.061	1760.73
585.262	1747.36
585.464	1680.13
585.666	1753.17
585.867	1712.48
586.069	1749.68
586.27	1710.74
586.472	1727.98
586.674	1675.87
586.875	1679.93
587.077	1693.88
587.278	1719.26
587.48	1677.03
587.681	1775.64
587.883	1688.85
588.084	1616.97
588.285	1636.73
588.487	1606.7
588.688	1624.72
588.89	1553.42
589.091	1529.97
589.292	1538.89
589.494	1482.12
589.695	1470.3
589.896	1413.73
590.098	1409.46
590.299	1483.67
590.5	1436.97
590.702	1466.81
590.903	1506.92
591.104	1555.94
591.305	1558.65
591.507	1561.55
591.708	1588.29
591.909	1536.56
592.11	1594.88
592.311	1565.62
592.512	1516.99
592.714	1493.94
592.915	1528.62
593.116	1523.19
593.317	1549.93
593.518	1553.42
593.719	1590.42
593.92	1565.43
594.121	1587.13
594.322	1533.65
594.523	1559.04
594.724	1502.85
594.925	1539.85
595.126	1490.64
595.327	1497.62
595.528	1514.28
595.729	1546.83
595.929	1501.49
596.13	1535.4
596.331	1568.92
596.532	1520.09
596.733	1594.68
596.934	1569.11
597.135	1581.12
597.335	1543.15
597.536	1513.5
597.737	1543.15
597.938	1491.42
598.138	1550.51
598.339	1520.87
598.54	1549.93
598.74	1535.79
598.941	1547.02
599.142	1569.89
599.342	1556.13
599.543	1505.95
599.744	1582.29
599.944	1495.29
600.145	1583.25
600.345	1529
600.546	1639.25
600.746	1567.37
600.947	1597.98
601.147	1537.92
601.348	1572.21
601.548	1513.31
601.749	1534.82
601.949	1494.32
602.15	1492.97
602.35	1489.67
602.551	1539.66
602.751	1490.84
602.951	1527.84
603.152	1435.62
603.352	1512.54
603.552	1538.11
603.753	1542.76
603.953	1572.4
604.153	1532.88
604.354	1521.64
604.554	1520.67
604.754	1550.51
604.954	1470.69
605.155	1557.29
605.355	1493.74
605.555	1539.27
605.755	1577.25
605.955	1522.22
606.155	1517.38
606.356	1514.28
606.556	1543.54
606.756	1535.01
606.956	1456.93
607.156	1570.27
607.356	1504.01
607.556	1493.94
607.756	1494.52
607.956	1553.22
608.156	1524.16
608.356	1492.39
608.556	1523.77
608.756	1454.8
608.956	1445.89
609.156	1501.69
609.356	1486.57
609.556	1465.65
609.755	1449.37
609.955	1465.07
610.155	1469.52
610.355	1487.35
610.555	1424.57
610.755	1474.56
610.954	1378.27
611.154	1449.37
611.354	1452.28
611.554	1432.13
611.753	1432.52
611.953	1385.05
612.153	1442.01
612.352	1425.16
612.552	1394.16
612.752	1345.14
612.951	1432.91
613.151	1440.66
613.351	1379.43
613.55	1399.19
613.75	1391.06
613.949	1384.47
614.149	1367.03
614.348	1395.9
614.548	1363.16
614.747	1312.78
614.947	1326.54
615.146	1313.56
615.346	1409.46
615.545	1375.56
615.745	1378.08
615.944	1383.69
616.144	1357.15
616.343	1347.46
616.542	1325.38
616.742	1332.93
616.941	1321.5
617.14	1271.32
617.34	1308.52
617.539	1301.93
617.738	1304.06
617.938	1377.88
618.137	1332.54
618.336	1244.2
618.535	1304.26
