Data from gum_young_FLMT105791__138__17-41-06-040.txt Node

Date: Mon Mar 20 17:41:06 GMT 2023
User: antho
Spectrometer: FLMT10579
Trigger mode: 0
Integration Time (sec): 1.000000E-1
Scans to average: 10
Electric dark correction enabled: true
Nonlinearity correction enabled: false
Boxcar width: 0
XAxis mode: Wavelengths
Number of Pixels in Spectrum: 3648
>>>>>Begin Spectral Data<<<<<
345.248	-162.34
345.464	-162.34
345.681	-162.34
345.898	-142
346.114	-151.3
346.331	-31.76
346.548	48.45
346.764	-17.81
346.981	-7.93
347.197	0.79
347.414	17.84
347.631	-22.07
347.847	56.78
348.064	-7.93
348.28	33.34
348.497	-43
348.713	-26.72
348.93	24.23
349.146	14.35
349.363	2.15
349.579	18.62
349.796	3.31
350.012	-6.96
350.229	8.93
350.445	3.31
350.661	-10.25
350.878	6.41
351.094	-7.35
351.311	42.06
351.527	-1.73
351.743	-5.6
351.96	38.38
352.176	38.77
352.392	23.07
352.609	37.8
352.825	12.61
353.041	12.8
353.257	-11.03
353.474	4.08
353.69	9.9
353.906	-11.22
354.122	-21.1
354.339	54.07
354.555	35.08
354.771	13.77
354.987	82.55
355.203	78.29
355.42	-9.48
355.636	-3.67
355.852	1.76
356.068	23.65
356.284	-22.07
356.5	65.31
356.716	21.13
356.932	18.42
357.148	56.59
357.364	18.42
357.58	59.5
357.796	32.76
358.012	36.44
358.228	17.45
358.444	-57.91
358.66	37.8
358.876	22.88
359.092	-5.8
359.308	36.25
359.524	22.49
359.74	19.2
359.956	-17.23
360.172	-10.83
360.388	51.36
360.604	7.57
360.819	86.62
361.035	35.47
361.251	49.23
361.467	-22.26
361.683	45.55
361.898	20.36
362.114	50
362.33	21.33
362.546	46.32
362.762	17.26
362.977	25.01
363.193	-32.92
363.409	29.27
363.624	-4.25
363.84	-23.04
364.056	-6.96
364.271	33.73
364.487	27.72
364.703	7.77
364.918	-28.27
365.134	15.13
365.35	16.29
365.565	92.05
365.781	11.64
365.996	37.8
366.212	60.08
366.427	40.7
366.643	5.25
366.858	-5.22
367.074	-34.66
367.289	65.5
367.505	116.46
367.72	-32.73
367.936	10.67
368.151	66.28
368.367	13.38
368.582	26.56
368.798	11.45
369.013	41.09
369.228	44.58
369.444	1.95
369.659	65.5
369.874	26.56
370.09	70.15
370.305	-21.1
370.52	10.48
370.736	75.38
370.951	8.73
371.166	76.35
371.381	75.19
371.597	42.06
371.812	1.37
372.027	5.25
372.242	35.67
372.458	79.07
372.673	12.61
372.888	10.28
373.103	42.25
373.318	106.19
373.533	8.35
373.749	42.45
373.964	-19.16
374.179	86.62
374.394	-17.42
374.609	77.71
374.824	-22.07
375.039	59.88
375.254	-1.73
375.469	65.7
375.684	38.38
375.899	34.12
376.114	44.38
376.329	44.97
376.544	57.95
376.759	47.1
376.974	17.26
377.189	17.65
377.404	23.65
377.619	62.21
377.834	-22.07
378.049	-14.9
378.264	8.54
378.478	38.18
378.693	0.21
378.908	75.97
379.123	13
379.338	63.18
379.553	60.27
379.767	40.12
379.982	51.55
380.197	47.1
380.412	11.06
380.626	66.86
380.841	87.98
381.056	74.03
381.271	80.42
381.485	16.68
381.7	-12.19
381.915	44.19
382.129	16.1
382.344	46.13
382.559	59.11
382.773	52.13
382.988	-11.03
383.202	45.16
383.417	-3.47
383.632	104.25
383.846	7.38
384.061	44.38
384.275	9.51
384.49	25.59
384.704	51.17
384.919	28.69
385.133	13.19
385.348	65.31
385.562	-7.15
385.777	86.23
385.991	35.67
386.206	24.04
386.42	-5.22
386.634	84.68
386.849	50.58
387.063	37.8
387.277	19.58
387.492	28.3
387.706	28.5
387.92	-12
388.135	60.66
388.349	47.1
388.563	44.38
388.778	46.32
388.992	52.91
389.206	82.16
389.42	117.23
389.635	34.7
389.849	62.02
390.063	57.95
390.277	42.06
390.491	115.68
390.706	67.63
390.92	71.51
391.134	48.45
391.348	70.35
391.562	-0.18
391.776	51.94
391.99	31.4
392.205	71.51
392.419	31.02
392.633	46.71
392.847	73.83
393.061	5.83
393.275	100.57
393.489	59.3
393.703	38.77
393.917	89.72
394.131	36.83
394.345	61.24
394.559	56.59
394.773	31.4
394.986	60.85
395.2	84.3
395.414	77.9
395.628	28.3
395.842	50.58
396.056	38.77
396.27	22.88
396.484	84.1
396.697	71.12
396.911	101.54
397.125	50
397.339	82.75
397.553	65.89
397.766	95.73
397.98	78.29
398.194	96.7
398.408	53.1
398.621	80.23
398.835	73.64
399.049	82.94
399.262	95.15
399.476	108.9
399.69	91.46
399.903	154.82
400.117	68.22
400.331	108.51
400.544	67.44
400.758	170.9
400.971	91.85
401.185	118.4
401.398	81.97
401.612	132.15
401.826	102.31
402.039	123.63
402.253	80.61
402.466	109.29
402.68	99.8
402.893	110.65
403.106	101.15
403.32	80.23
403.533	114.52
403.747	95.34
403.96	104.83
404.174	119.75
404.387	83.33
404.6	100.76
404.814	114.71
405.027	105.41
405.24	95.53
405.454	89.14
405.667	121.69
405.88	39.73
406.094	121.88
406.307	129.44
406.52	108.32
406.733	52.91
406.947	74.8
407.16	172.45
407.373	145.13
407.586	83.52
407.799	75.97
408.012	147.07
408.226	130.99
408.439	162.38
408.652	87.01
408.865	148.62
409.078	160.83
409.291	131.18
409.504	62.79
409.717	140.29
409.93	109.1
410.143	106.19
410.357	86.43
410.57	63.95
410.783	95.53
410.996	108.13
411.209	125.95
411.421	191.05
411.634	138.74
411.847	101.73
412.06	115.49
412.273	93.98
412.486	127.5
412.699	209.65
412.912	143.58
413.125	141.45
413.338	124.01
413.55	158.7
413.763	147.65
413.976	145.71
414.189	105.22
414.402	111.23
414.615	183.69
414.827	108.9
415.04	156.56
415.253	162.96
415.466	157.53
415.678	196.48
415.891	148.04
416.104	135.45
416.316	130.21
416.529	127.7
416.742	155.79
416.954	146.3
417.167	147.46
417.38	140.29
417.592	171.68
417.805	123.24
418.017	110.45
418.23	173.23
418.442	129.44
418.655	142.61
418.868	149.59
419.08	163.54
419.293	179.81
419.505	161.02
419.718	184.08
419.93	191.24
420.142	155.6
420.355	203.84
420.567	189.31
420.78	196.48
420.992	156.18
421.205	208.29
421.417	120.33
421.629	139.71
421.842	149.2
422.054	125.56
422.266	175.36
422.479	173.81
422.691	145.71
422.903	194.93
423.115	144.55
423.328	127.89
423.54	160.83
423.752	146.1
423.964	165.09
424.177	173.03
424.389	161.6
424.601	259.44
424.813	159.28
425.025	194.54
425.238	217.79
425.45	167.99
425.662	170.51
425.874	431.3
426.086	159.08
426.298	210.62
426.51	169.93
426.722	181.56
426.934	133.7
427.146	190.86
427.358	150.75
427.57	199.38
427.782	181.17
427.994	182.53
428.206	162.38
428.418	137.58
428.63	215.85
428.842	216.82
429.054	196.48
429.266	200.54
429.478	159.47
429.69	165.86
429.902	148.23
430.114	241.23
430.325	175.16
430.537	144.55
430.749	166.64
430.961	99.8
431.173	142.03
431.384	184.08
431.596	72.67
431.808	129.05
432.02	192.41
432.231	213.72
432.443	246.46
432.655	192.6
432.867	168.77
433.078	234.64
433.29	271.65
433.502	233.48
433.713	236
433.925	209.46
434.136	242.59
434.348	169.74
434.56	131.76
434.771	297.22
434.983	143.78
435.194	211.78
435.406	198.61
435.617	248.59
435.829	273.78
436.04	254.21
436.252	256.15
436.463	290.83
436.675	247.43
436.886	250.73
437.098	253.05
437.309	286.57
437.521	243.75
437.732	276.88
437.943	243.75
438.155	236
438.366	174.19
438.578	282.69
438.789	264.09
439	272.42
439.211	216.82
439.423	274.36
439.634	245.69
439.845	239.29
440.057	248.21
440.268	307.11
440.479	248.01
440.69	267.97
440.902	248.98
441.113	243.75
441.324	227.67
441.535	281.72
441.746	321.83
441.957	244.91
442.168	260.02
442.38	285.79
442.591	319.89
442.802	234.06
443.013	269.71
443.224	300.52
443.435	248.59
443.646	253.63
443.857	303.04
444.068	285.02
444.279	263.12
444.49	366.2
444.701	277.66
444.912	362.13
445.123	320.67
445.334	311.56
445.545	302.65
445.756	290.64
445.967	269.71
446.178	325.32
446.388	322.61
446.599	309.43
446.81	325.51
447.021	281.34
447.232	299.36
447.443	356.9
447.653	300.13
447.864	356.12
448.075	310.21
448.286	333.84
448.496	332.68
448.707	350.31
448.918	305.17
449.129	396.42
449.339	296.06
449.55	342.37
449.761	297.81
449.971	352.83
450.182	340.82
450.393	374.92
450.603	310.01
450.814	386.54
451.024	350.5
451.235	363.29
451.446	419.09
451.656	394.68
451.867	329.77
452.077	358.84
452.288	417.15
452.498	423.74
452.709	347.79
452.919	358.06
453.13	340.04
453.34	363.29
453.55	303.81
453.761	371.82
453.971	363.1
454.182	384.41
454.392	389.25
454.602	415.22
454.813	394.1
455.023	391.39
455.233	321.06
455.444	376.27
455.654	287.54
455.864	362.52
456.075	362.71
456.285	353.8
456.495	358.64
456.705	376.85
456.916	399.52
457.126	421.03
457.336	375.3
457.546	335.01
457.756	353.8
457.967	418.12
458.177	390.61
458.387	390.61
458.597	350.89
458.807	384.02
459.017	378.6
459.227	383.83
459.437	366.59
459.647	413.28
459.857	419.67
460.068	368.91
460.278	413.47
460.488	403.79
460.698	439.43
460.908	415.02
461.117	360.39
461.327	393.13
461.537	394.49
461.747	464.62
461.957	409.6
462.167	508.6
462.377	437.3
462.587	428.39
462.797	457.45
463.007	420.84
463.216	448.54
463.426	449.9
463.636	449.12
463.846	385.57
464.056	389.45
464.265	482.64
464.475	393.13
464.685	436.33
464.895	447.77
465.104	437.5
465.314	441.76
465.524	430.52
465.733	402.62
465.943	493.49
466.153	490.2
466.362	469.27
466.572	432.65
466.782	443.89
466.991	436.92
467.201	481.87
467.41	383.64
467.62	441.95
467.829	435.95
468.039	495.04
468.249	448.35
468.458	449.7
468.668	469.27
468.877	495.04
469.086	486.52
469.296	518.1
469.505	444.86
469.715	559.75
469.924	469.66
470.134	517.9
470.343	501.43
470.552	479.15
470.762	481.28
470.971	470.05
471.18	478.57
471.39	491.94
471.599	462.49
471.808	523.91
472.018	480.32
472.227	539.41
472.436	545.41
472.645	515.58
472.855	503.95
473.064	561.3
473.273	546.96
473.482	566.34
473.691	573.51
473.901	566.15
474.11	526.04
474.319	613.81
474.528	543.28
474.737	606.25
474.946	591.53
475.155	587.65
475.364	607.8
475.573	557.62
475.783	579.13
475.992	599.66
476.201	630.28
476.41	565.76
476.619	533.21
476.828	592.69
477.037	558.2
477.245	600.25
477.454	620.59
477.663	567.31
477.872	587.07
478.081	675.81
478.29	593.46
478.499	692.66
478.708	652.17
478.917	694.41
479.125	612.26
479.334	661.86
479.543	631.44
479.752	659.73
479.961	663.41
480.169	706.61
480.378	622.33
480.587	766.48
480.796	699.64
481.004	691.5
481.213	700.41
481.422	695.96
481.63	684.14
481.839	727.34
482.048	739.74
482.256	708.94
482.465	743.62
482.674	741.87
482.882	756.99
483.091	812.79
483.299	745.56
483.508	766.67
483.716	736.45
483.925	766.87
484.134	748.07
484.342	747.3
484.551	789.34
484.759	792.83
484.967	803.1
485.176	820.73
485.384	804.45
485.593	839.91
485.801	803.1
486.01	760.86
486.218	713.01
486.426	685.69
486.635	691.69
486.843	704.48
487.051	730.83
487.26	719.79
487.468	758.34
487.676	789.92
487.885	762.02
488.093	802.52
488.301	837.39
488.509	801.74
488.717	862.58
488.926	838.55
489.134	806.78
489.342	826.35
489.55	802.9
489.758	826.93
489.967	823.05
490.175	923.03
490.383	893.38
490.591	948.41
490.799	858.9
491.007	949.38
491.215	927.48
491.423	874.59
491.631	909.27
491.839	869.75
492.047	931.94
492.255	834.49
492.463	867.62
492.671	853.67
492.879	924
493.087	895.32
493.295	933.1
493.503	952.87
493.711	932.33
493.919	954.22
494.127	975.34
494.334	994.33
494.542	909.66
494.75	989.68
494.958	959.65
495.166	1022.81
495.374	1015.83
495.581	1037.92
495.789	1017.58
495.997	1053.81
496.205	984.83
496.412	1005.56
496.62	1004.01
496.828	1041.21
497.035	1030.56
497.243	1082.29
497.451	1040.05
497.658	1056.91
497.866	1030.75
498.074	1096.43
498.281	1023.58
498.489	1094.88
498.696	1054.39
498.904	1042.38
499.112	1058.26
499.319	1121.04
499.527	1055.74
499.734	1117.94
499.942	1005.76
500.149	1040.44
500.357	1084.81
500.564	1057.49
500.771	1085.39
500.979	1033.08
501.186	1049.54
501.394	1101.86
501.601	1085.97
501.808	1097.79
502.016	1069.89
502.223	1067.18
502.43	1091.98
502.638	1112.32
502.845	1084.61
503.052	1178.97
503.26	1118.13
503.467	1191.37
503.674	1190.21
503.881	1161.72
504.089	1184.78
504.296	1167.92
504.503	1108.06
504.71	1152.62
504.917	1112.71
505.125	1183.62
505.332	1141.96
505.539	1206.09
505.746	1285.53
505.953	1283.2
506.16	1276.23
506.367	1325.83
506.574	1336.68
506.781	1323.12
506.988	1290.76
507.195	1294.44
507.402	1245.81
507.609	1355.28
507.816	1277.97
508.023	1274.29
508.23	1252.01
508.437	1243.29
508.644	1317.5
508.851	1344.04
509.058	1373.88
509.265	1361.28
509.472	1387.05
509.679	1483.34
509.885	1409.14
510.092	1412.05
510.299	1417.47
510.506	1364.58
510.713	1408.56
510.92	1419.41
511.126	1431.03
511.333	1458.16
511.54	1505.24
511.746	1520.54
511.953	1524.61
512.16	1541.66
512.367	1510.28
512.573	1496.33
512.78	1545.54
512.987	1504.46
513.193	1529.65
513.4	1423.48
513.606	1538.37
513.813	1568.98
514.02	1562.39
514.226	1591.65
514.433	1640.86
514.639	1542.44
514.846	1584.48
515.052	1567.04
515.259	1596.49
515.465	1622.84
515.672	1628.46
515.878	1713.13
516.085	1671.09
516.291	1735.22
516.497	1685.04
516.704	1647.64
516.91	1582.35
517.117	1551.93
517.323	1501.94
517.529	1532.56
517.736	1559.29
517.942	1547.28
518.148	1592.42
518.354	1664.5
518.561	1659.46
518.767	1654.42
518.973	1705.96
519.179	1736.96
519.386	1729.6
519.592	1728.82
519.798	1766.02
520.004	1848.75
520.21	1861.73
520.417	1921.6
520.623	1880.33
520.829	1948.92
521.035	1933.03
521.241	1953.57
521.447	1999.29
521.653	2110.12
521.859	2001.43
522.065	2072.92
522.271	2133.56
522.477	2065.75
522.683	2119.42
522.889	2078.73
523.095	2058.19
523.301	2082.02
523.507	2076.99
523.713	2116.9
523.919	2108.37
524.125	2191.68
524.331	2202.53
524.537	2305.41
524.742	2267.25
524.948	2270.15
525.154	2328.66
525.36	2418.37
525.566	2301.54
525.772	2350.95
525.977	2309.1
526.183	2348.23
526.389	2379.04
526.595	2300.18
526.8	2282.55
527.006	2166.11
527.212	2163.79
527.417	2138.4
527.623	2151.58
527.829	2236.05
528.034	2277.51
528.24	2318.2
528.446	2300.18
528.651	2400.16
528.857	2423.79
529.062	2463.9
529.268	2438.52
529.473	2521.25
529.679	2520.67
529.884	2583.44
530.09	2576.47
530.295	2561.94
530.501	2559.03
530.706	2564.65
530.912	2547.99
531.117	2606.69
531.323	2608.05
531.528	2668.5
531.733	2677.22
531.939	2643.5
532.144	2644.08
532.35	2624.71
532.555	2716.74
532.76	2605.53
532.966	2613.09
533.171	2567.75
533.376	2545.66
533.581	2535.2
533.787	2598.55
533.992	2626.65
534.197	2654.16
534.402	2666.37
534.607	2657.65
534.813	2753.75
535.018	2669.85
535.223	2709.18
535.428	2715.96
535.633	2800.05
535.838	2775.64
536.043	2808.19
536.249	2927.15
536.454	2829.69
536.659	2902.74
536.864	2782.03
537.069	2810.9
537.274	2816.91
537.479	2786.49
537.684	2807.22
537.889	2738.63
538.094	2931.8
538.299	2814.19
538.504	2862.44
538.708	2829.89
538.913	2874.06
539.118	2877.94
539.323	2863.6
539.528	2822.14
539.733	2798.11
539.938	2815.36
540.142	2836.86
540.347	2816.52
540.552	2788.04
540.757	2783.78
540.962	2790.17
541.166	2750.06
541.371	2710.73
541.576	2772.35
541.781	2687.87
541.985	2878.91
542.19	2826.98
542.395	2886.46
542.599	2967.45
542.804	2887.24
543.008	2956.79
543.213	2882.2
543.418	2831.63
543.622	2913.97
543.827	2814.78
544.031	2903.51
544.236	2927.15
544.44	2928.12
544.645	3006.59
544.849	2939.74
545.054	2989.73
545.258	3071.3
545.463	3007.36
545.667	2943.42
545.872	3008.33
546.076	2997.67
546.281	2981.59
546.485	2981.01
546.689	3046.11
546.894	2997.48
547.098	3028.09
547.302	2979.27
547.507	3020.34
547.711	3019.76
547.915	3047.85
548.119	2950.59
548.324	2968.61
548.528	3019.18
548.732	2995.74
548.936	3063.35
549.141	3029.06
549.345	3003.68
549.549	3047.66
549.753	3069.36
549.957	3109.08
550.161	3153.25
550.366	3083.5
550.57	3039.52
550.774	3080.79
550.978	3064.13
551.182	3095.32
551.386	3023.64
551.59	3074.59
551.794	3063.74
551.998	3055.02
552.202	3070.72
552.406	3032.55
552.61	3108.11
552.814	3129.81
553.018	3119.73
553.222	3082.34
553.426	3021.5
553.63	3142.01
553.833	3059.09
554.037	3020.73
554.241	3049.21
554.445	3080.6
554.649	3115.67
554.853	3044.75
555.056	3125.35
555.26	3162.75
555.464	3103.85
555.668	3074.01
555.871	3123.8
556.075	3092.61
556.279	3016.47
556.483	3011.24
556.686	3040.69
556.89	3077.69
557.094	3022.86
557.297	2953.31
557.501	3016.27
557.704	2942.07
557.908	3012.59
558.112	2971.52
558.315	3010.07
558.519	2960.47
558.722	2896.73
558.926	2907.19
559.129	2840.35
559.333	2861.86
559.536	2849.07
559.74	2822.72
559.943	2814.58
560.147	2843.64
560.35	2847.52
560.553	2843.84
560.757	2783.97
560.96	2925.02
561.164	2847.71
561.367	2934.12
561.57	2886.85
561.774	2859.92
561.977	2844.03
562.18	2820.01
562.384	2912.04
562.587	2833.96
562.79	2872.71
562.993	2825.82
563.197	2817.88
563.4	2875.42
563.603	2886.46
563.806	2881.04
564.009	2802.76
564.212	2777.77
564.416	2732.24
564.619	2763.24
564.822	2705.11
565.025	2783.58
565.228	2765.95
565.431	2738.83
565.634	2652.03
565.837	2673.92
566.04	2637.5
566.243	2646.02
566.446	2541.79
566.649	2646.8
566.852	2599.91
567.055	2614.83
567.258	2630.72
567.461	2693.3
567.664	2690.58
567.867	2571.04
568.07	2630.91
568.273	2625.68
568.475	2673.92
568.678	2581.7
568.881	2546.24
569.084	2487.73
569.287	2425.54
569.489	2471.26
569.692	2504.39
569.895	2498.19
570.098	2448.79
570.3	2455.37
570.503	2347.26
570.706	2400.74
570.909	2371.09
571.111	2357.53
571.314	2318.78
571.516	2343.39
571.719	2317.43
571.922	2343.97
572.124	2333.31
572.327	2322.27
572.529	2292.43
572.732	2342.61
572.935	2333.31
573.137	2425.34
573.34	2333.51
573.542	2391.05
573.745	2361.41
573.947	2379.43
574.15	2304.06
574.352	2279.45
574.554	2337.77
574.757	2240.7
574.959	2237.22
575.162	2228.5
575.364	2198.47
575.566	2308.51
575.769	2175.22
575.971	2208.93
576.173	2104.3
576.376	2185.87
576.578	2192.07
576.78	2241.09
576.982	2116.9
577.185	2145.96
577.387	2091.52
577.589	2150.22
577.791	2170.95
577.993	2149.45
578.196	2101.79
578.398	2136.08
578.6	2154.68
578.802	2088.81
579.004	2044.24
579.206	2097.33
579.408	2107.21
579.61	2062.65
579.812	2139.76
580.014	2066.91
580.216	2095
580.418	2138.6
580.62	2104.11
580.822	2055.48
581.024	2098.1
581.226	2143.64
581.428	2117.67
581.63	2228.11
581.832	2105.66
582.034	2175.41
582.236	2111.67
582.438	2163.98
582.64	2189.36
582.841	2195.95
583.043	2239.15
583.245	2166.69
583.447	2148.67
583.649	2140.92
583.85	2175.6
584.052	2189.17
584.254	2108.57
584.456	2180.45
584.657	2086.48
584.859	2120
585.061	2109.15
585.262	2112.25
585.464	2061.29
585.666	2122.32
585.867	2074.86
586.069	2150.8
586.27	2087.84
586.472	2063.81
586.674	2050.83
586.875	2053.93
587.077	2087.06
587.278	2037.66
587.48	2054.9
587.681	2123.68
587.883	2035.14
588.084	1958.61
588.285	1999.88
588.487	1939.62
588.688	1965.97
588.89	1894.67
589.091	1817.37
589.292	1819.5
589.494	1764.67
589.695	1752.07
589.896	1658.3
590.098	1677.87
590.299	1771.45
590.5	1755.37
590.702	1782.49
590.903	1786.95
591.104	1861.54
591.305	1840.81
591.507	1867.74
591.708	1842.55
591.909	1844.68
592.11	1897.38
592.311	1891.96
592.512	1826.08
592.714	1827.63
592.915	1858.25
593.116	1820.08
593.317	1850.11
593.518	1848.56
593.719	1849.53
593.92	1852.82
594.121	1902.42
594.322	1858.83
594.523	1844.1
594.724	1817.75
594.925	1822.21
595.126	1786.75
595.327	1817.37
595.528	1808.07
595.729	1814.46
595.929	1789.27
596.13	1818.92
596.331	1861.15
596.532	1802.45
596.733	1880.33
596.934	1856.89
597.135	1856.89
597.335	1859.99
597.536	1827.25
597.737	1861.54
597.938	1821.63
598.138	1848.36
598.339	1810.39
598.54	1829.76
598.74	1788.3
598.941	1847.78
599.142	1893.51
599.342	1858.25
599.543	1797.22
599.744	1813.1
599.944	1851.27
600.145	1847.4
600.345	1822.6
600.546	1901.45
600.746	1857.08
600.947	1910.75
601.147	1836.16
601.348	1862.31
601.548	1799.35
601.749	1793.92
601.949	1795.47
602.15	1766.22
602.35	1758.47
602.551	1830.73
602.751	1786.37
602.951	1803.8
603.152	1786.37
603.352	1842.75
603.552	1792.37
603.753	1864.83
603.953	1831.51
604.153	1827.25
604.354	1761.57
604.554	1810.58
604.754	1800.51
604.954	1793.92
605.155	1837.9
605.355	1810.2
605.555	1831.9
605.755	1823.37
605.955	1780.36
606.155	1808.07
606.356	1797.41
606.556	1804.38
606.756	1788.11
606.956	1754.2
607.156	1808.07
607.356	1749.55
607.556	1807.87
607.756	1759.43
607.956	1781.13
608.156	1786.56
608.356	1719.72
608.556	1762.73
608.756	1729.6
608.956	1737.93
609.156	1727.08
609.356	1722.62
609.556	1656.75
609.755	1737.93
609.955	1691.04
610.155	1687.36
610.355	1719.33
610.555	1647.84
610.755	1669.34
610.954	1613.93
611.154	1678.06
611.354	1736.96
611.554	1636.6
611.753	1652.87
611.953	1602.5
612.153	1698.6
612.352	1657.91
612.552	1601.92
612.752	1605.21
612.951	1603.66
613.151	1626.33
613.351	1626.33
613.55	1596.49
613.75	1660.43
613.949	1608.7
614.149	1629.43
614.348	1627.69
614.548	1563.56
614.747	1529.46
614.947	1562.59
615.146	1502.14
615.346	1601.14
615.545	1589.52
615.745	1585.84
615.944	1573.05
616.144	1546.89
616.343	1586.42
616.542	1506.21
616.742	1534.11
616.941	1542.83
