Data from gum_young_FLMT105791__97__17-39-55-042.txt Node

Date: Mon Mar 20 17:39:55 GMT 2023
User: antho
Spectrometer: FLMT10579
Trigger mode: 0
Integration Time (sec): 1.000000E-1
Scans to average: 10
Electric dark correction enabled: true
Nonlinearity correction enabled: false
Boxcar width: 0
XAxis mode: Wavelengths
Number of Pixels in Spectrum: 3648
>>>>>Begin Spectral Data<<<<<
345.248	-145.89
345.464	-145.89
345.681	-145.89
345.898	-144.15
346.114	-136.59
346.331	-56.96
346.548	29.26
346.764	-22.86
346.981	13.37
347.197	-1.94
347.414	17.44
347.631	-11.62
347.847	42.24
348.064	2.13
348.28	17.82
348.497	-37.97
348.713	9.11
348.93	14.92
349.146	23.83
349.363	0.97
349.579	6.78
349.796	-18.99
350.012	5.42
350.229	3.29
350.445	-11.62
350.661	-18.99
350.878	-10.46
351.094	27.32
351.311	35.07
351.527	20.73
351.743	18.41
351.96	36.62
352.176	49.99
352.392	24.99
352.609	16.66
352.825	16.08
353.041	18.6
353.257	-6.59
353.474	3.87
353.69	11.43
353.906	29.26
354.122	-2.71
354.339	48.05
354.555	-0.97
354.771	-14.14
354.987	43.79
355.203	41.85
355.42	-3.49
355.636	15.31
355.852	-2.52
356.068	0.58
356.284	-34.29
356.5	44.17
356.716	39.91
356.932	9.88
357.148	36.42
357.364	5.62
357.58	48.24
357.796	47.08
358.012	49.99
358.228	33.91
358.444	-53.28
358.66	40.88
358.876	10.07
359.092	-21.51
359.308	-6.59
359.524	40.88
359.74	3.49
359.956	-9.11
360.172	28.09
360.388	42.43
360.604	33.13
360.819	64.13
361.035	32.16
361.251	25.77
361.467	-7.94
361.683	28.67
361.898	21.31
362.114	29.64
362.33	15.5
362.546	19.18
362.762	24.61
362.977	1.16
363.193	-3.49
363.409	34.68
363.624	-16.86
363.84	6.59
364.056	-22.28
364.271	23.83
364.487	13.37
364.703	7.94
364.918	-6.2
365.134	-11.04
365.35	15.11
365.565	88.35
365.781	31.97
365.996	43.01
366.212	63.94
366.427	18.6
366.643	7.17
366.858	9.69
367.074	-19.37
367.289	54.44
367.505	101.91
367.72	-15.89
367.936	12.21
368.151	44.56
368.367	28.09
368.582	25.57
368.798	6.2
369.013	78.27
369.228	26.16
369.444	14.72
369.659	58.32
369.874	9.3
370.09	66.84
370.305	-33.32
370.52	0
370.736	28.67
370.951	4.26
371.166	75.37
371.381	55.61
371.597	14.72
371.812	-8.14
372.027	1.94
372.242	27.12
372.458	82.15
372.673	18.6
372.888	18.99
373.103	17.63
373.318	79.24
373.533	20.15
373.749	44.37
373.964	-30.42
374.179	57.35
374.394	-28.09
374.609	75.37
374.824	-4.84
375.039	65.29
375.254	-1.55
375.469	58.32
375.684	22.86
375.899	84.28
376.114	9.11
376.329	46.5
376.544	57.93
376.759	60.64
376.974	-5.42
377.189	14.34
377.404	20.92
377.619	78.27
377.834	-22.67
378.049	-28.09
378.264	-12.79
378.478	9.3
378.693	0.39
378.908	32.16
379.123	-12.01
379.338	62
379.553	43.98
379.767	14.72
379.982	42.04
380.197	50.37
380.412	20.73
380.626	47.86
380.841	108.5
381.056	24.02
381.271	59.29
381.485	-8.91
381.7	5.42
381.915	28.87
382.129	-3.29
382.344	32.94
382.559	5.62
382.773	69.56
382.988	-29.45
383.202	35.07
383.417	-0.58
383.632	115.09
383.846	25.96
384.061	25.57
384.275	20.34
384.49	18.21
384.704	63.36
384.919	24.99
385.133	27.32
385.348	25.57
385.562	-22.86
385.777	61.42
385.991	28.09
386.206	24.8
386.42	16.66
386.634	76.92
386.849	52.51
387.063	52.7
387.277	-10.46
387.492	14.72
387.706	19.76
387.92	-24.8
388.135	42.24
388.349	46.5
388.563	30.81
388.778	49.02
388.992	30.03
389.206	27.12
389.42	99
389.635	24.41
389.849	63.74
390.063	64.13
390.277	34.68
390.491	70.91
390.706	35.07
390.92	53.47
391.134	35.46
391.348	57.74
391.562	-4.46
391.776	8.14
391.99	-17.63
392.205	45.14
392.419	-7.75
392.633	6.59
392.847	79.05
393.061	35.65
393.275	84.28
393.489	21.89
393.703	29.26
393.917	67.23
394.131	27.12
394.345	28.48
394.559	88.93
394.773	33.71
394.986	42.04
395.2	38.56
395.414	80.21
395.628	30.81
395.842	24.99
396.056	18.41
396.27	-19.57
396.484	49.79
396.697	52.12
396.911	60.45
397.125	67.42
397.339	60.64
397.553	44.37
397.766	87.19
397.98	78.08
398.194	64.52
398.408	33.13
398.621	46.11
398.835	77.31
399.049	52.31
399.262	81.37
399.476	63.55
399.69	78.66
399.903	102.69
400.117	55.02
400.331	49.21
400.544	30.61
400.758	130.39
400.971	53.09
401.185	92.61
401.398	14.34
401.612	109.08
401.826	80.02
402.039	94.94
402.253	2.91
402.466	76.34
402.68	68.97
402.893	79.05
403.106	71.88
403.32	39.72
403.533	63.94
403.747	53.28
403.96	62.77
404.174	95.52
404.387	25.57
404.6	44.56
404.814	81.37
405.027	62.77
405.24	50.76
405.454	38.94
405.667	100.75
405.88	4.65
406.094	78.86
406.307	76.14
406.52	65.68
406.733	25.19
406.947	29.45
407.16	116.44
407.373	92.61
407.586	50.57
407.799	32.36
408.012	97.07
408.226	66.65
408.439	111.6
408.652	-5.23
408.865	73.82
409.078	80.79
409.291	62.77
409.504	38.56
409.717	91.45
409.93	78.66
410.143	72.27
410.357	40.69
410.57	25.19
410.783	51.54
410.996	67.62
411.209	70.33
411.421	111.02
411.634	51.34
411.847	52.7
412.06	73.24
412.273	90.87
412.486	94.55
412.699	132.33
412.912	75.37
413.125	93.58
413.338	93.77
413.55	87.38
413.763	64.13
413.976	100.94
414.189	46.89
414.402	59.48
414.615	104.62
414.827	51.54
415.04	93.39
415.253	89.51
415.466	124.19
415.678	150.93
415.891	89.32
416.104	62.58
416.316	78.66
416.529	72.66
416.742	107.14
416.954	90.29
417.167	70.14
417.38	81.96
417.592	123.61
417.805	52.51
418.017	47.47
418.23	89.9
418.442	57.35
418.655	76.92
418.868	121.48
419.08	140.27
419.293	130.39
419.505	107.72
419.718	89.7
419.93	112.76
420.142	84.67
420.355	115.67
420.567	135.43
420.78	80.21
420.992	77.69
421.205	149.57
421.417	55.02
421.629	71.3
421.842	64.52
422.054	61.61
422.266	119.35
422.479	143.95
422.691	71.3
422.903	121.67
423.115	90.48
423.328	81.76
423.54	96.68
423.752	103.85
423.964	53.86
424.177	90.87
424.389	89.32
424.601	190.84
424.813	85.06
425.025	111.21
425.238	126.13
425.45	63.74
425.662	70.52
425.874	374.9
426.086	106.56
426.298	138.92
426.51	99.39
426.722	89.51
426.934	80.21
427.146	126.71
427.358	50.37
427.57	140.66
427.782	98.42
427.994	97.26
428.206	73.82
428.418	68.01
428.63	144.15
428.842	138.72
429.054	110.24
429.266	117.6
429.478	84.47
429.69	109.08
429.902	54.64
430.114	113.54
430.325	106.56
430.537	67.42
430.749	80.41
430.961	28.87
431.173	108.89
431.384	113.15
431.596	38.94
431.808	75.37
432.02	127.1
432.231	129.42
432.443	132.91
432.655	91.45
432.867	59.48
433.078	120.32
433.29	156.16
433.502	143.18
433.713	137.56
433.925	110.63
434.136	141.05
434.348	87.19
434.56	88.15
434.771	181.73
434.983	65.29
435.194	110.82
435.406	100.17
435.617	159.07
435.829	157.71
436.04	149.77
436.252	142.99
436.463	163.33
436.675	132.91
436.886	120.7
437.098	138.92
437.309	193.75
437.521	115.67
437.732	129.23
437.943	136.4
438.155	121.29
438.366	88.15
438.578	183.09
438.789	138.92
439	142.21
439.211	129.81
439.423	117.8
439.634	132.72
439.845	157.9
440.057	144.34
440.268	186.77
440.479	124.39
440.69	157.71
440.902	116.44
441.113	146.67
441.324	148.22
441.535	158.68
441.746	203.43
441.957	110.44
442.168	129.42
442.38	149.96
442.591	180.18
442.802	121.09
443.013	139.89
443.224	148.6
443.435	137.75
443.646	130.39
443.857	123.03
444.068	127.68
444.279	132.33
444.49	219.13
444.701	152.09
444.912	233.47
445.123	191.23
445.334	164.88
445.545	142.02
445.756	179.6
445.967	130.39
446.178	172.82
446.388	216.03
446.599	210.6
446.81	163.72
447.021	162.36
447.232	187.55
447.443	202.47
447.653	140.27
447.864	197.43
448.075	180.18
448.286	195.1
448.496	185.22
448.707	191.42
448.918	169.34
449.129	258.85
449.339	158.1
449.55	210.41
449.761	170.5
449.971	201.5
450.182	206.15
450.393	221.26
450.603	168.56
450.814	223.78
451.024	206.15
451.235	228.62
451.446	214.87
451.656	240.83
451.867	161.39
452.077	228.62
452.288	256.13
452.498	243.15
452.709	193.94
452.919	229.98
453.13	195.1
453.34	249.55
453.55	168.75
453.761	218.16
453.971	206.92
454.182	239.86
454.392	230.56
454.602	283.65
454.813	229.4
455.023	241.02
455.233	163.91
455.444	209.83
455.654	156.16
455.864	214.67
456.075	213.9
456.285	205.57
456.495	214.48
456.705	216.42
456.916	249.35
457.126	281.71
457.336	208.67
457.546	158.68
457.756	166.62
457.967	252.45
458.177	205.76
458.387	222.23
458.597	202.66
458.807	197.04
459.017	208.08
459.227	214.28
459.437	186.77
459.647	232.5
459.857	242.96
460.068	195.88
460.278	258.85
460.488	235.98
460.698	278.8
460.908	235.02
461.117	194.33
461.327	194.33
461.537	230.56
461.747	236.95
461.957	214.28
462.167	292.56
462.377	243.73
462.587	237.53
462.797	242.38
463.007	233.08
463.216	254
463.426	263.69
463.636	274.15
463.846	187.55
464.056	195.88
464.265	280.16
464.475	223.97
464.685	226.1
464.895	235.98
465.104	244.9
465.314	273.96
465.524	235.02
465.733	238.5
465.943	325.88
466.153	301.66
466.362	291.01
466.572	261.37
466.782	243.73
466.991	257.49
467.201	280.16
467.41	194.33
467.62	254
467.829	261.37
468.039	247.61
468.249	243.35
468.458	244.32
468.668	294.5
468.877	282.68
469.086	306.51
469.296	299.53
469.505	246.83
469.715	310
469.924	276.86
470.134	308.25
470.343	297.79
470.552	267.76
470.762	286.75
470.971	241.99
471.18	260.98
471.39	249.74
471.599	250.52
471.808	302.05
472.018	263.69
472.227	302.25
472.436	304.38
472.645	283.84
472.855	254.78
473.064	318.52
473.273	306.51
473.482	304.38
473.691	338.09
473.901	320.46
474.11	295.46
474.319	349.13
474.528	290.04
474.737	366.76
474.946	322.2
475.155	301.66
475.364	365.21
475.573	294.88
475.783	332.28
475.992	343.9
476.201	342.93
476.41	326.66
476.619	300.31
476.828	335.76
477.037	323.95
477.245	310.77
477.454	384.98
477.663	331.5
477.872	328.01
478.081	398.34
478.29	324.53
478.499	407.64
478.708	344.48
478.917	388.85
479.125	385.75
479.334	379.74
479.543	348.55
479.752	361.14
479.961	383.62
480.169	403.19
480.378	340.61
480.587	481.66
480.796	393.31
481.004	388.08
481.213	376.06
481.422	384.59
481.63	397.96
481.839	398.73
482.048	456.47
482.256	418.69
482.465	391.95
482.674	451.24
482.882	423.92
483.091	467.12
483.299	433.99
483.508	444.07
483.716	412.49
483.925	430.51
484.134	379.74
484.342	416.75
484.551	461.51
484.759	452.98
484.967	464.99
485.176	484.37
485.384	471.39
485.593	464.8
485.801	438.06
486.01	443.49
486.218	428.76
486.426	361.34
486.635	406.68
486.843	386.91
487.051	425.28
487.26	406.29
487.468	437.67
487.676	435.93
487.885	433.03
488.093	436.71
488.301	462.28
488.509	462.67
488.717	475.46
488.926	423.92
489.134	455.31
489.342	463.44
489.55	439.61
489.758	472.36
489.967	482.62
490.175	554.31
490.383	447.75
490.591	552.18
490.799	477.39
491.007	539.39
491.215	506.46
491.423	502.97
491.631	506.46
491.839	518.47
492.047	555.67
492.255	474.1
492.463	462.67
492.671	508.2
492.879	521.18
493.087	523.7
493.295	539.78
493.503	537.45
493.711	544.04
493.919	592.48
494.127	583.76
494.334	579.3
494.542	517.11
494.75	513.04
494.958	557.02
495.166	576.01
495.374	579.11
495.581	595.77
495.789	587.05
495.997	626.19
496.205	579.3
496.412	548.3
496.62	561.48
496.828	580.27
497.035	574.65
497.243	614.76
497.451	601.59
497.658	618.25
497.866	564.39
498.074	626.19
498.281	564.77
498.489	672.3
498.696	575.24
498.904	606.43
499.112	576.4
499.319	667.07
499.527	634.13
499.734	629.68
499.942	584.92
500.149	576.2
500.357	605.46
500.564	596.94
500.771	586.09
500.979	581.63
501.186	607.2
501.394	615.15
501.601	633.55
501.808	655.45
502.016	625.8
502.223	615.92
502.43	623.87
502.638	634.91
502.845	617.28
503.052	696.52
503.26	590.74
503.467	720.55
503.674	664.75
503.881	643.24
504.089	769.37
504.296	681.02
504.503	618.05
504.71	678.31
504.917	667.46
505.125	702.91
505.332	685.67
505.539	691.1
505.746	750.77
505.953	735.08
506.16	746.31
506.367	758.91
506.574	813.93
506.781	767.43
506.988	702.33
507.195	758.52
507.402	764.72
507.609	775.18
507.816	753.68
508.023	769.76
508.23	757.55
508.437	726.75
508.644	800.18
508.851	837.76
509.058	833.89
509.265	808.7
509.472	815.29
509.679	917.2
509.885	818.39
510.092	854.43
510.299	818.58
510.506	825.94
510.713	832.92
510.92	841.64
511.126	900.34
511.333	909.64
511.54	910.61
511.746	921.46
511.953	933.86
512.16	953.24
512.367	898.02
512.573	919.14
512.78	900.73
512.987	888.33
513.193	931.73
513.4	855.2
513.606	904.61
513.813	958.27
514.02	936.57
514.226	1005.55
514.433	991.21
514.639	905.19
514.846	983.65
515.052	964.28
515.259	966.6
515.465	993.73
515.672	994.7
515.878	1033.84
516.085	997.8
516.291	1043.72
516.497	972.8
516.704	1022.21
516.91	972.03
517.117	959.05
517.323	935.22
517.529	947.42
517.736	930.57
517.942	972.42
518.148	977.65
518.354	1019.69
518.561	989.66
518.767	1011.55
518.973	1067.16
519.179	1095.06
519.386	1055.73
519.592	1072.39
519.798	1062.7
520.004	1163.26
520.21	1116.57
520.417	1164.61
520.623	1197.55
520.829	1219.25
521.035	1200.26
521.241	1241.92
521.447	1218.28
521.653	1308.38
521.859	1230.1
522.065	1263.81
522.271	1346.35
522.477	1315.54
522.683	1361.66
522.889	1307.79
523.095	1316.9
523.301	1328.52
523.507	1292.1
523.713	1302.37
523.919	1307.02
524.125	1385.49
524.331	1347.51
524.537	1450.2
524.742	1441.87
524.948	1454.65
525.154	1439.74
525.36	1557.34
525.566	1457.37
525.772	1518.78
525.977	1413
526.183	1494.95
526.389	1474.22
526.595	1425.4
526.8	1461.24
527.006	1353.71
527.212	1354.87
527.417	1338.21
527.623	1357.2
527.829	1405.64
528.034	1438.96
528.24	1421.91
528.446	1463.76
528.651	1531.77
528.857	1535.06
529.062	1559.86
529.268	1562.57
529.473	1571.87
529.679	1611.2
529.884	1667.78
530.09	1636.39
530.295	1621.66
530.501	1626.9
530.706	1620.11
530.912	1598.41
531.117	1670.49
531.323	1647.24
531.528	1670.49
531.733	1692.58
531.939	1683.47
532.144	1702.65
532.35	1697.61
532.555	1702.65
532.76	1671.65
532.966	1698.78
533.171	1695.87
533.376	1600.35
533.581	1631.74
533.787	1654.41
533.992	1687.15
534.197	1750.89
534.402	1668.36
534.607	1710.59
534.813	1805.34
535.018	1697.42
535.223	1734.43
535.428	1732.88
535.633	1816.38
535.838	1799.14
536.043	1803.4
536.249	1869.27
536.454	1821.03
536.659	1789.06
536.864	1815.02
537.069	1798.94
537.274	1830.52
537.479	1822.39
537.684	1802.43
537.889	1776.66
538.094	1860.36
538.299	1816.57
538.504	1858.81
538.708	1831.11
538.913	1859.59
539.118	1820.26
539.323	1866.75
539.528	1786.74
539.733	1826.07
539.938	1858.04
540.142	1856.49
540.347	1830.91
540.552	1795.26
540.757	1786.93
540.962	1803.98
541.166	1773.95
541.371	1761.16
541.576	1818.51
541.781	1752.64
541.985	1835.56
542.19	1821.22
542.395	1903.37
542.599	1934.37
542.804	1886.52
543.008	1901.44
543.213	1849.7
543.418	1817.35
543.622	1865.2
543.827	1835.17
544.031	1915.39
544.236	1907.25
544.44	1917.13
544.645	1987.07
544.849	1911.7
545.054	1936.7
545.258	1998.5
545.463	1960.14
545.667	1897.95
545.872	1955.1
546.076	1958.98
546.281	1949.1
546.485	1913.06
546.689	1984.75
546.894	2000.25
547.098	1988.62
547.302	1920.62
547.507	1964.21
547.711	1955.88
547.915	1977.58
548.119	1902.4
548.324	1933.79
548.528	2034.73
548.732	1944.25
548.936	1967.12
549.141	1996.76
549.345	1998.89
549.549	1977.19
549.753	1976.03
549.957	2081.62
550.161	2056.05
550.366	2033.57
550.57	1965.76
550.774	1976.22
550.978	1993.85
551.182	2016.71
551.386	1984.36
551.59	1963.43
551.794	1979.9
551.998	1987.07
552.202	1989.2
552.406	1971.96
552.61	2029.89
552.814	1979.32
553.018	2042.68
553.222	1974.28
553.426	1976.61
553.63	2118.04
553.833	2003.73
554.037	1946.38
554.241	2020.59
554.445	1984.94
554.649	2015.55
554.853	1992.3
555.056	2055.66
555.26	2070.77
555.464	2039.96
555.668	2048.1
555.871	2013.03
556.075	2054.3
556.279	2027.76
556.483	1975.83
556.686	1983.78
556.89	2014.78
557.094	2003.93
557.297	1949.68
557.501	1992.3
557.704	1896.59
557.908	2008.77
558.112	1944.25
558.315	2006.45
558.519	1946
558.722	1925.27
558.926	1939.22
559.129	1864.43
559.333	1821.61
559.536	1866.75
559.74	1859.39
559.943	1835.17
560.147	1874.89
560.35	1804.56
560.553	1880.12
560.757	1829.56
560.96	1939.41
561.164	1862.69
561.367	1952.78
561.57	1876.83
561.774	1848.74
561.977	1874.7
562.18	1826.26
562.384	1946.58
562.587	1868.11
562.79	1853.97
562.993	1854.55
563.197	1852.22
563.4	1928.75
563.603	1889.62
563.806	1927.59
564.009	1853.77
564.212	1870.44
564.416	1745.28
564.619	1804.17
564.822	1793.91
565.025	1828.2
565.228	1784.8
565.431	1828.59
565.634	1718.93
565.837	1775.89
566.04	1751.28
566.243	1727.06
566.446	1650.92
566.649	1752.83
566.852	1694.71
567.055	1705.36
567.258	1726.09
567.461	1790.81
567.664	1774.34
567.867	1663.51
568.07	1730.74
568.273	1711.76
568.475	1772.59
568.678	1664.48
568.881	1676.49
569.084	1646.08
569.287	1564.9
569.489	1632.9
569.692	1645.69
569.895	1660.99
570.098	1579.81
570.3	1588.34
570.503	1508.32
570.706	1553.08
570.909	1564.9
571.111	1468.22
571.314	1502.9
571.516	1511.03
571.719	1537.97
571.922	1510.84
572.124	1512
572.327	1557.53
572.529	1472.09
572.732	1466.47
572.935	1526.92
573.137	1588.73
573.34	1510.45
573.542	1521.5
573.745	1523.24
573.947	1470.35
574.15	1491.47
574.352	1456.2
574.554	1502.32
574.757	1475.58
574.959	1439.15
575.162	1455.04
575.364	1435.86
575.566	1514.13
575.769	1390.14
575.971	1444.97
576.173	1333.76
576.376	1423.07
576.578	1472.29
576.78	1479.65
576.982	1346.54
577.185	1404.86
577.387	1349.64
577.589	1351.97
577.791	1400.99
577.993	1417.45
578.196	1384.91
578.398	1384.32
578.6	1419.59
578.802	1320.97
579.004	1301.01
579.206	1351.97
579.408	1362.43
579.61	1329.11
579.812	1370.37
580.014	1314.96
580.216	1318.84
580.418	1347.9
580.62	1345.96
580.822	1293.84
581.024	1347.51
581.226	1376.96
581.428	1361.07
581.63	1405.05
581.832	1344.41
582.034	1404.28
582.236	1363.98
582.438	1374.83
582.64	1389.17
582.841	1429.08
583.043	1441.67
583.245	1390.72
583.447	1365.53
583.649	1360.3
583.85	1391.49
584.052	1423.46
584.254	1310.31
584.456	1393.62
584.657	1324.26
584.859	1361.66
585.061	1319.81
585.262	1312.64
585.464	1308.57
585.666	1360.49
585.867	1307.99
586.069	1376.96
586.27	1356.62
586.472	1332.01
586.674	1275.63
586.875	1313.02
587.077	1319.03
587.278	1320.19
587.48	1321.55
587.681	1383.74
587.883	1325.62
588.084	1256.26
588.285	1252.38
588.487	1242.5
588.688	1250.44
588.89	1215.38
589.091	1197.36
589.292	1188.25
589.494	1136.33
589.695	1128
589.896	1079.17
590.098	1045.46
590.299	1088.08
590.5	1114.24
590.702	1102.42
590.903	1120.63
591.104	1193.29
591.305	1182.44
591.507	1203.75
591.708	1218.28
591.909	1157.06
592.11	1224.48
592.311	1221.38
592.512	1185.93
592.714	1139.23
592.915	1125.87
593.116	1131.87
593.317	1186.7
593.518	1163.45
593.719	1170.81
593.92	1236.49
594.121	1208.98
594.322	1178.95
594.523	1165
594.724	1109.4
594.925	1129.35
595.126	1143.88
595.327	1170.23
595.528	1155.51
595.729	1139.43
595.929	1149.11
596.13	1139.81
596.331	1171.59
596.532	1146.79
596.733	1207.82
596.934	1183.99
597.135	1214.41
597.335	1188.25
597.536	1153.38
597.737	1155.7
597.938	1123.35
598.138	1189.41
598.339	1167.71
598.54	1168.88
598.74	1151.63
598.941	1151.83
599.142	1207.43
599.342	1195.42
599.543	1151.44
599.744	1150.86
599.944	1160.74
600.145	1123.54
600.345	1208.01
600.546	1213.83
600.746	1169.85
600.947	1231.07
601.147	1169.26
601.348	1179.15
601.548	1146.79
601.749	1174.3
601.949	1128.38
602.15	1124.7
602.35	1138.26
602.551	1174.11
602.751	1119.86
602.951	1104.17
603.152	1059.99
603.352	1162.1
603.552	1140.2
603.753	1183.41
603.953	1161.32
604.153	1143.11
604.354	1136.71
604.554	1144.27
604.754	1149.89
604.954	1108.23
605.155	1162.68
605.355	1141.75
605.555	1181.47
605.755	1206.66
605.955	1129.74
606.155	1152.8
606.356	1141.56
606.556	1143.88
606.756	1153.96
606.956	1117.15
607.156	1186.7
607.356	1087.7
607.556	1165
607.756	1139.62
607.956	1169.07
608.156	1089.05
608.356	1090.02
608.556	1154.15
608.756	1063.87
608.956	1082.66
609.156	1093.32
609.356	1085.57
609.556	1053.79
609.755	1099.32
609.955	1078.78
610.155	1074.33
610.355	1071.03
610.555	1035.39
610.755	1086.92
610.954	1044.88
611.154	1064.45
611.354	1093.9
611.554	1017.37
611.753	1045.46
611.953	1008.07
612.153	1096.8
612.352	1069.48
612.552	1048.95
612.752	976.1
612.951	1032.09
613.151	1054.76
613.351	998.19
613.55	1052.82
613.75	1047.79
613.949	1035.58
614.149	1054.18
614.348	989.08
614.548	977.26
614.747	969.9
614.947	998.19
615.146	925.92
615.346	1006.9
615.545	1026.47
615.745	1043.91
615.944	1004.77
616.144	970.67
616.343	1013.88
616.542	966.02
616.742	973
616.941	949.17
617.14	933.28
617.34	954.21
617.539	947.42
617.738	942.39
617.938	1008.07
618.137	957.11
618.336	909.64
618.535	958.47
618.734	966.99
618.934	967.38
619.133	985.2
619.332	983.65
619.531	922.43
619.73	946.84
