Data from gum_young_FLMT105791__76__17-39-34-043.txt Node

Date: Mon Mar 20 17:39:34 GMT 2023
User: antho
Spectrometer: FLMT10579
Trigger mode: 0
Integration Time (sec): 1.000000E-1
Scans to average: 10
Electric dark correction enabled: true
Nonlinearity correction enabled: false
Boxcar width: 0
XAxis mode: Wavelengths
Number of Pixels in Spectrum: 3648
>>>>>Begin Spectral Data<<<<<
345.248	-153.98
345.464	-153.98
345.681	-153.98
345.898	-158.82
346.114	-176.26
346.331	-33.47
346.548	42.29
346.764	-35.79
346.981	-9.64
347.197	-0.92
347.414	9.15
347.631	-13.71
347.847	57.4
348.064	-2.86
348.28	30.66
348.497	-34.24
348.713	-8.86
348.93	7.8
349.146	33.76
349.363	-4.21
349.579	-10.22
349.796	-28.82
350.012	8.57
350.229	32.02
350.445	19.23
350.661	-15.26
350.878	-24.75
351.094	10.32
351.311	18.45
351.527	29.89
351.743	-7.7
351.96	18.26
352.176	22.72
352.392	12.84
352.609	29.5
352.825	-14.1
353.041	-3.05
353.257	17.49
353.474	27.95
353.69	9.54
353.906	5.47
354.122	-19.52
354.339	55.46
354.555	20.97
354.771	-15.26
354.987	54.1
355.203	61.85
355.42	-18.16
355.636	-27.46
355.852	-35.41
356.068	7.22
356.284	-28.43
356.5	45
356.716	18.65
356.932	-3.44
357.148	29.3
357.364	1.4
357.58	53.33
357.796	67.67
358.012	49.07
358.228	27.95
358.444	-38.31
358.66	61.47
358.876	11.67
359.092	-10.03
359.308	-10.61
359.524	22.33
359.74	-18.94
359.956	-23.59
360.172	15.55
360.388	24.46
360.604	-44.32
360.819	77.16
361.035	31.44
361.251	24.46
361.467	5.47
361.683	57.4
361.898	36.09
362.114	31.82
362.33	23.69
362.546	24.27
362.762	-0.92
362.977	19.81
363.193	20.2
363.409	19.62
363.624	-14.1
363.84	-15.65
364.056	2.57
364.271	40.35
364.487	40.54
364.703	0.05
364.918	-38.31
365.134	13.03
365.35	5.09
365.565	99.83
365.781	11.09
365.996	22.91
366.212	85.88
366.427	13.03
366.643	-5.18
366.858	7.6
367.074	-19.52
367.289	47.71
367.505	105.45
367.72	-39.67
367.936	8.96
368.151	53.72
368.367	36.47
368.582	23.69
368.798	-2.47
369.013	37.64
369.228	32.02
369.444	18.65
369.659	65.34
369.874	18.45
370.09	76.58
370.305	-68.93
370.52	15.74
370.736	62.63
370.951	11.87
371.166	66.5
371.381	76.77
371.597	38.22
371.812	-17.58
372.027	1.99
372.242	-10.8
372.458	69.6
372.673	9.93
372.888	15.55
373.103	31.05
373.318	84.72
373.533	35.89
373.749	33.95
373.964	-15.45
374.179	53.52
374.394	-36.76
374.609	59.53
374.824	-15.06
375.039	50.04
375.254	12.64
375.469	49.84
375.684	53.14
375.899	68.83
376.114	8.19
376.329	28.53
376.544	53.72
376.759	31.63
376.974	8.19
377.189	33.18
377.404	17.1
377.619	39.77
377.834	-19.71
378.049	-14.87
378.264	-29.79
378.478	41.9
378.693	13.22
378.908	51.59
379.123	30.66
379.338	53.52
379.553	32.79
379.767	15.35
379.982	24.65
380.197	35.7
380.412	28.14
380.626	59.14
380.841	86.85
381.056	48.87
381.271	59.14
381.485	18.65
381.7	2.37
381.915	23.49
382.129	11.67
382.344	42.29
382.559	9.35
382.773	53.14
382.988	-8.86
383.202	36.67
383.417	-3.83
383.632	96.34
383.846	21.55
384.061	33.57
384.275	9.35
384.49	37.25
384.704	47.32
384.919	17.49
385.133	30.47
385.348	45.58
385.562	-14.87
385.777	75.22
385.991	25.04
386.206	23.88
386.42	19.23
386.634	56.43
386.849	37.05
387.063	30.47
387.277	-19.71
387.492	-0.92
387.706	-11.38
387.92	-15.45
388.135	39.38
388.349	21.75
388.563	66.89
388.778	48.87
388.992	59.34
389.206	60.5
389.42	99.63
389.635	53.33
389.849	62.05
390.063	72.12
390.277	43.84
390.491	75.61
390.706	38.99
390.92	59.14
391.134	37.64
391.348	52.55
391.562	-14.87
391.776	9.54
391.99	32.6
392.205	53.33
392.419	19.62
392.633	23.49
392.847	61.85
393.061	14.39
393.275	86.46
393.489	47.32
393.703	47.9
393.917	45.77
394.131	23.88
394.345	65.15
394.559	69.6
394.773	50.62
394.986	69.41
395.2	57.98
395.414	69.02
395.628	34.92
395.842	37.05
396.056	45.97
396.27	-5.96
396.484	68.63
396.697	62.44
396.911	50.23
397.125	80.07
397.339	74.83
397.553	75.42
397.766	76
397.98	73.28
398.194	79.1
398.408	24.85
398.621	69.22
398.835	68.25
399.049	53.91
399.262	92.66
399.476	84.33
399.69	75.8
399.903	137.03
400.117	61.66
400.331	97.12
400.544	43.25
400.758	157.76
400.971	80.26
401.185	91.88
401.398	38.8
401.612	123.85
401.826	96.15
402.039	82.78
402.253	54.88
402.466	72.12
402.68	59.53
402.893	73.28
403.106	82
403.32	67.86
403.533	71.93
403.747	71.15
403.96	78.32
404.174	91.88
404.387	44.22
404.6	90.72
404.814	112.81
405.027	75.42
405.24	66.5
405.454	65.34
405.667	100.41
405.88	32.21
406.094	98.28
406.307	107
406.52	108.74
406.733	52.36
406.947	16.13
407.16	122.3
407.373	125.02
407.586	72.51
407.799	75.22
408.012	100.8
408.226	105.83
408.439	128.5
408.652	40.15
408.865	94.21
409.078	122.11
409.291	78.52
409.504	66.89
409.717	98.86
409.93	90.33
410.143	85.3
410.357	34.54
410.57	68.63
410.783	66.5
410.996	94.79
411.209	103.12
411.421	116.3
411.634	96.15
411.847	35.89
412.06	96.15
412.273	79.1
412.486	101.96
412.699	165.9
412.912	119.2
413.125	110.48
413.338	103.12
413.55	114.55
413.763	86.85
413.976	119.59
414.189	86.85
414.402	78.52
414.615	166.28
414.827	56.24
415.04	125.79
415.253	88.2
415.466	121.33
415.678	154.66
415.891	106.8
416.104	120.56
416.316	93.43
416.529	93.05
416.742	132.38
416.954	135.87
417.167	96.53
417.38	99.05
417.592	145.75
417.805	59.14
418.017	61.08
418.23	134.32
418.442	106.8
418.655	94.6
418.868	106.22
419.08	150.01
419.293	160.08
419.505	130.44
419.718	126.18
419.93	155.43
420.142	72.32
420.355	155.43
420.567	144
420.78	150.2
420.992	131.6
421.205	165.12
421.417	93.05
421.629	91.88
421.842	96.73
422.054	73.48
422.266	125.21
422.479	150.01
422.691	117.27
422.903	129.86
423.115	137.03
423.328	129.86
423.54	125.6
423.752	140.71
423.964	92.47
424.177	107.38
424.389	107.38
424.601	220.34
424.813	138.58
425.025	134.51
425.238	165.9
425.45	137.8
425.662	115.91
425.874	390.64
426.086	116.68
426.298	145.75
426.51	161.25
426.722	133.35
426.934	126.57
427.146	163.18
427.358	122.3
427.57	146.33
427.782	130.63
427.994	132.18
428.206	107.19
428.418	81.42
428.63	147.3
428.842	140.13
429.054	153.3
429.266	156.4
429.478	103.9
429.69	143.23
429.902	89.17
430.114	136.25
430.325	134.32
430.537	85.1
430.749	117.07
430.961	91.69
431.173	101.77
431.384	154.46
431.596	57.01
431.808	127.34
432.02	138
432.231	185.46
432.443	163.76
432.655	151.95
432.867	130.44
433.078	157.95
433.29	201.35
433.502	190.89
433.713	166.67
433.925	173.65
434.136	198.83
434.348	108.35
434.56	115.52
434.771	251.92
434.983	99.83
435.194	115.91
435.406	151.95
435.617	201.35
435.829	228.86
436.04	181.01
436.252	158.53
436.463	199.41
436.675	211.23
436.886	177.52
437.098	194.76
437.309	219.95
437.521	195.54
437.732	158.73
437.943	168.61
438.155	181.98
438.366	128.31
438.578	227.12
438.789	183.33
439	227.12
439.211	154.46
439.423	184.69
439.634	195.93
439.845	199.8
440.057	196.7
440.268	203.68
440.479	169.38
440.69	190.89
440.902	186.82
441.113	162.6
441.324	185.85
441.535	194.38
441.746	233.13
441.957	183.33
442.168	198.06
442.38	232.35
442.591	245.33
442.802	167.64
443.013	187.98
443.224	211.81
443.435	200.77
443.646	221.5
443.857	182.95
444.068	199.61
444.279	197.67
444.49	271.49
444.701	229.64
444.912	301.33
445.123	246.49
445.334	228.48
445.545	205.81
445.756	221.31
445.967	153.69
446.178	218.98
446.388	238.55
446.599	258.12
446.81	261.22
447.021	192.44
447.232	235.45
447.443	261.99
447.653	211.23
447.864	286.41
448.075	220.15
448.286	267.03
448.496	212.01
448.707	274.2
448.918	229.06
449.129	330.19
449.339	231
449.55	275.94
449.761	219.76
449.971	294.74
450.182	234.48
450.393	281.95
450.603	236.61
450.814	281.56
451.024	275.56
451.235	305.01
451.446	317.6
451.656	314.11
451.867	239.52
452.077	275.75
452.288	348.41
452.498	322.44
452.709	273.43
452.919	292.41
453.13	254.44
453.34	295.32
453.55	219.56
453.761	280.01
453.971	251.53
454.182	302.1
454.392	263.35
454.602	300.36
454.813	268.78
455.023	320.51
455.233	235.84
455.444	282.14
455.654	212.4
455.864	292.22
456.075	284.66
456.285	272.07
456.495	267.61
456.705	304.81
456.916	321.28
457.126	314.5
457.336	300.16
457.546	251.14
457.756	260.83
457.967	326.71
458.177	255.21
458.387	312.95
458.597	267.61
458.807	299
459.017	259.09
459.227	286.6
459.437	275.36
459.647	327.48
459.857	331.36
460.068	294.16
460.278	339.69
460.488	330.19
460.698	359.64
460.908	284.28
461.117	289.89
461.327	270.33
461.537	319.54
461.747	308.69
461.957	302.1
462.167	420.67
462.377	349.18
462.587	308.49
462.797	334.07
463.007	329.81
463.216	323.61
463.426	363.71
463.636	343.56
463.846	285.83
464.056	309.46
464.265	358.48
464.475	293.77
464.685	335.62
464.895	328.26
465.104	318.38
465.314	355.19
465.524	297.84
465.733	323.41
465.943	385.22
466.153	407.5
466.362	380.18
466.572	349.76
466.782	331.16
466.991	329.81
467.201	379.41
467.41	289.51
467.62	325.74
467.829	344.72
468.039	358.48
468.249	339.49
468.458	339.49
468.668	348.6
468.877	370.11
469.086	389.87
469.296	398.39
469.505	347.44
469.715	434.82
469.924	377.86
470.134	406.53
470.343	420.67
470.552	379.79
470.762	381.92
470.971	315.47
471.18	350.34
471.39	344.72
471.599	338.52
471.808	380.18
472.018	362.74
472.227	419.32
472.436	398.78
472.645	395.49
472.855	363.91
473.064	436.75
473.273	404.98
473.482	410.21
473.691	426.49
473.901	411.96
474.11	405.37
474.319	465.62
474.528	417.57
474.737	450.7
474.946	444.5
475.155	411.76
475.364	470.47
475.573	421.25
475.783	433.85
475.992	457.87
476.201	471.24
476.41	427.26
476.619	408.47
476.828	436.75
477.037	427.26
477.245	463.88
477.454	485
477.663	464.46
477.872	440.63
478.081	515.03
478.29	415.83
478.499	536.53
478.708	465.43
478.917	517.93
479.125	474.34
479.334	500.11
479.543	479.77
479.752	499.34
479.961	495.46
480.169	528.78
480.378	496.62
480.587	597.95
480.796	549.71
481.004	505.92
481.213	567.73
481.422	551.65
481.63	526.07
481.839	543.12
482.048	577.42
482.256	553.97
482.465	560.17
482.674	577.03
482.882	589.81
483.091	609.96
483.299	547.77
483.508	583.23
483.716	571.6
483.925	587.49
484.134	549.52
484.342	591.36
484.551	621.4
484.759	611.9
484.967	596.6
485.176	618.49
485.384	609.38
485.593	618.3
485.801	619.07
486.01	572.96
486.218	534.98
486.426	489.84
486.635	531.3
486.843	508.25
487.051	552.03
487.26	524.13
487.468	581.29
487.676	615.78
487.885	583.23
488.093	617.52
488.301	608.61
488.509	626.24
488.717	686.88
488.926	621.78
489.134	624.3
489.342	656.27
489.55	609.96
489.758	632.44
489.967	651.81
490.175	723.69
490.383	636.31
490.591	731.06
490.799	643.48
491.007	728.93
491.215	663.44
491.423	695.02
491.631	678.55
491.839	686.3
492.047	713.81
492.255	643.68
492.463	630.89
492.671	655.69
492.879	722.34
493.087	691.14
493.295	696.96
493.503	697.73
493.711	736.87
493.919	719.04
494.127	737.84
494.334	765.93
494.542	695.6
494.75	741.33
494.958	717.88
495.166	780.46
495.374	780.66
495.581	761.28
495.789	774.26
495.997	831.81
496.205	736.09
496.412	737.64
496.62	791.31
496.828	784.53
497.035	778.33
497.243	774.46
497.451	804.68
497.658	793.25
497.866	787.82
498.074	838.59
498.281	752.76
498.489	869.39
498.696	802.55
498.904	788.02
499.112	798.67
499.319	876.75
499.527	815.92
499.734	853.12
499.942	795.57
500.149	837.62
500.357	818.24
500.564	764.38
500.771	839.56
500.979	799.84
501.186	792.09
501.394	825.99
501.601	816.31
501.808	838.97
502.016	814.37
502.223	821.92
502.43	861.84
502.638	810.69
502.845	803.32
503.052	931.97
503.26	846.53
503.467	922.09
503.674	889.35
503.881	881.21
504.089	984.87
504.296	907.95
504.503	849.44
504.71	879.08
504.917	862.42
505.125	899.04
505.332	931.78
505.539	956
505.746	984.28
505.953	987.58
506.16	976.53
506.367	1036.01
506.574	1012.38
506.781	1033.5
506.988	958.9
507.195	996.68
507.402	993.78
507.609	1033.69
507.816	997.85
508.023	1009.86
508.23	991.07
508.437	950.57
508.644	1036.79
508.851	1089.88
509.058	1084.45
509.265	1083.29
509.472	1080.77
509.679	1173.58
509.885	1072.05
510.092	1050.16
510.299	1088.71
510.506	1109.64
510.713	1142.58
510.92	1123.78
511.126	1146.06
511.333	1175.51
511.54	1198.38
511.746	1200.51
511.953	1240.03
512.16	1225.5
512.367	1206.12
512.573	1230.73
512.78	1215.04
512.987	1201.86
513.193	1173.38
513.4	1138.31
513.606	1228.79
513.813	1241.39
514.02	1226.86
514.226	1273.16
514.433	1313.07
514.639	1217.75
514.846	1269.67
515.052	1251.85
515.259	1251.66
515.465	1297.77
515.672	1289.05
515.878	1349.5
516.085	1310.55
516.291	1393.09
516.497	1333.8
516.704	1328.96
516.91	1290.02
517.117	1223.56
517.323	1208.84
517.529	1219.3
517.736	1211.16
517.942	1263.47
518.148	1310.17
518.354	1334.19
518.561	1335.74
518.767	1325.67
518.973	1359.57
519.179	1415.18
519.386	1372.75
519.592	1371.2
519.798	1349.69
520.004	1514.38
520.21	1468.85
520.417	1513.6
520.623	1581.99
520.829	1582.96
521.035	1591.88
521.241	1561.65
521.447	1631.59
521.653	1711.61
521.859	1565.33
522.065	1675.57
522.271	1759.85
522.477	1715.68
522.683	1732.15
522.889	1698.05
523.095	1686.42
523.301	1678.87
523.507	1652.71
523.713	1734.67
523.919	1691.07
524.125	1815.27
524.331	1765.28
524.537	1844.52
524.742	1857.12
524.948	1876.88
525.154	1863.9
525.36	1943.33
525.566	1887.73
525.772	1926.67
525.977	1865.83
526.183	1933.45
526.389	1918.53
526.595	1853.82
526.8	1824.76
527.006	1752.1
527.212	1733.5
527.417	1754.24
527.623	1762.37
527.829	1825.92
528.034	1903.61
528.24	1873.2
528.446	1902.65
528.651	1976.66
528.857	2002.81
529.062	2038.46
529.268	2086.12
529.473	2047.76
529.679	2062.88
529.884	2144.44
530.09	2094.65
530.295	2123.71
530.501	2103.56
530.706	2105.89
530.912	2043.5
531.117	2131.85
531.323	2128.17
531.528	2152.19
531.733	2151.42
531.939	2144.64
532.144	2160.72
532.35	2156.07
532.555	2191.33
532.76	2187.65
532.966	2135.72
533.171	2108.02
533.376	2108.79
533.581	2075.47
533.787	2151.42
533.992	2176.8
534.197	2205.86
534.402	2170.79
534.607	2201.21
534.813	2246.16
535.018	2215.74
535.223	2222.52
535.428	2234.15
535.633	2298.47
535.838	2294.02
536.043	2304.48
536.249	2428.48
536.454	2331.99
536.659	2353.5
536.864	2283.36
537.069	2310.29
537.274	2299.44
537.479	2314.55
537.684	2322.11
537.889	2327.73
538.094	2377.71
538.299	2312.03
538.504	2399.41
538.708	2310.29
538.913	2421.31
539.118	2354.66
539.323	2344.97
539.528	2336.06
539.733	2365.12
539.938	2367.45
540.142	2374.61
540.347	2361.05
540.552	2343.61
540.757	2306.42
540.962	2319.4
541.166	2245.97
541.371	2238.99
541.576	2287.23
541.781	2228.14
541.985	2361.83
542.19	2370.74
542.395	2441.46
542.599	2426.34
542.804	2427.89
543.008	2459.67
543.213	2375.58
543.418	2320.95
543.622	2445.91
543.827	2362.6
544.031	2453.47
544.236	2468.97
544.44	2470.91
544.645	2526.12
544.849	2406.39
545.054	2526.51
545.258	2572.82
545.463	2504.04
545.667	2486.02
545.872	2551.12
546.076	2460.44
546.281	2525.54
546.485	2474.78
546.689	2494.74
546.894	2578.82
547.098	2540.85
547.302	2502.1
547.507	2498.81
547.711	2516.24
547.915	2535.62
548.119	2440.49
548.324	2458.31
548.528	2518.96
548.732	2496.68
548.936	2561
549.141	2516.44
549.345	2538.52
549.549	2543.17
549.753	2573.01
549.957	2627.45
550.161	2571.85
550.366	2615.05
550.57	2538.14
550.774	2560.81
550.978	2559.26
551.182	2553.64
551.386	2529.61
551.59	2531.55
551.794	2503.84
551.998	2581.54
552.202	2571.85
552.406	2536.2
552.61	2605.17
552.814	2573.4
553.018	2622.8
553.222	2536.01
553.426	2528.26
553.63	2645.47
553.833	2552.28
554.037	2541.82
554.241	2572.82
554.445	2604.01
554.649	2563.91
554.853	2594.32
555.056	2605.56
555.26	2620.67
555.464	2576.69
555.668	2596.07
555.871	2603.62
556.075	2597.81
556.279	2545.11
556.483	2528.26
556.686	2556.54
556.89	2511.4
557.094	2544.53
557.297	2498.42
557.501	2548.21
557.704	2448.63
557.908	2507.53
558.112	2465.68
558.315	2494.54
558.519	2469.74
558.722	2432.35
558.926	2475.75
559.129	2354.66
559.333	2366.86
559.536	2379.85
559.74	2397.48
559.943	2371.9
560.147	2341.29
560.35	2366.28
560.553	2359.89
560.757	2329.67
560.96	2433.13
561.164	2397.86
561.367	2496.48
561.57	2401.16
561.774	2382.17
561.977	2366.28
562.18	2338.19
562.384	2458.7
562.587	2384.11
562.79	2394.76
562.993	2365.7
563.197	2420.15
563.4	2456.38
563.603	2444.17
563.806	2460.06
564.009	2318.43
564.212	2394.38
564.416	2282.97
564.619	2332.38
564.822	2248.29
565.025	2365.9
565.228	2293.05
565.431	2320.75
565.634	2236.09
565.837	2248.68
566.04	2206.83
566.243	2221.17
566.446	2111.31
566.649	2217.68
566.852	2168.47
567.055	2168.27
567.258	2188.04
567.461	2231.05
567.664	2247.71
567.867	2179.51
568.07	2209.54
568.273	2226.01
568.475	2265.92
568.678	2158.01
568.881	2123.71
569.084	2119.06
569.287	2041.56
569.489	2095.04
569.692	2106.86
569.895	2145.02
570.098	2024.51
570.3	2075.08
570.503	2000.1
570.706	1993.71
570.909	1999.91
571.111	1930.74
571.314	1958.25
571.516	1981.11
571.719	1963.1
571.922	1959.22
572.124	1956.7
572.327	1985.38
572.529	1918.92
572.732	1937.33
572.935	1972.98
573.137	2018.7
573.34	1928.8
573.542	1983.05
573.745	1964.65
573.947	1927.25
574.15	1911.56
574.352	1915.24
574.554	1935.78
574.757	1890.44
574.959	1843.55
575.162	1866.22
575.364	1869.9
575.566	1933.45
575.769	1829.8
575.971	1884.82
576.173	1739.9
576.376	1810.04
576.578	1855.18
576.78	1896.83
576.982	1771.87
577.185	1826.12
577.387	1816.04
577.589	1780.2
577.791	1824.95
577.993	1832.32
578.196	1790.66
578.398	1781.17
578.6	1788.34
578.802	1726.72
579.004	1678.09
579.206	1753.85
579.408	1783.1
579.61	1708.51
579.812	1782.33
580.014	1735.44
580.216	1710.26
580.418	1783.3
580.62	1757.72
580.822	1692.82
581.024	1747.65
581.226	1792.02
581.428	1742.22
581.63	1840.07
581.832	1760.82
582.034	1802.67
582.236	1773.03
582.438	1770.32
582.64	1798.6
582.841	1843.17
583.043	1860.8
583.245	1783.88
583.447	1791.24
583.649	1790.85
583.85	1774.39
584.052	1798.41
584.254	1717.42
584.456	1819.53
584.657	1738.35
584.859	1752.69
585.061	1755.79
585.262	1708.32
585.464	1704.06
585.666	1762.76
585.867	1686.81
586.069	1755.79
586.27	1735.64
586.472	1670.34
586.674	1673.06
586.875	1678.67
587.077	1678.67
587.278	1680.81
587.48	1686.42
587.681	1791.24
587.883	1661.04
588.084	1647.29
588.285	1652.71
588.487	1610.09
588.688	1610.48
588.89	1565.91
589.091	1521.16
589.292	1535.11
589.494	1497.33
589.695	1450.05
589.896	1371.78
590.098	1400.65
590.299	1436.88
590.5	1399.29
590.702	1474.66
590.903	1506.63
591.104	1545.38
591.305	1556.42
591.507	1574.05
591.708	1538.98
591.909	1495.2
592.11	1545.38
592.311	1547.12
592.512	1492.87
592.714	1477.56
592.915	1466.33
593.116	1500.62
593.317	1542.47
593.518	1543.83
593.719	1488.41
593.92	1549.45
594.121	1603.11
594.322	1537.24
594.523	1485.7
594.724	1432.81
594.925	1486.67
595.126	1468.07
595.327	1487.06
595.528	1500.23
595.729	1524.26
595.929	1515.35
596.13	1486.48
596.331	1523.87
596.532	1509.15
596.733	1588.19
596.934	1535.5
597.135	1529.3
597.335	1510.89
597.536	1484.35
597.737	1506.63
597.938	1490.55
598.138	1515.93
598.339	1510.7
598.54	1538.6
598.74	1494.81
598.941	1481.05
599.142	1555.45
599.342	1545.38
599.543	1493.45
599.744	1524.65
599.944	1528.13
600.145	1502.56
600.345	1520.77
600.546	1575.6
600.746	1560.68
600.947	1561.84
601.147	1481.44
601.348	1546.73
601.548	1489.77
601.749	1530.26
601.949	1431.26
602.15	1440.75
602.35	1463.23
602.551	1518.25
602.751	1448.89
602.951	1454.9
603.152	1440.75
603.352	1516.7
603.552	1453.93
603.753	1501.98
603.953	1493.26
604.153	1487.25
604.354	1514.76
604.554	1469.43
604.754	1483.57
604.954	1474.46
605.155	1509.15
605.355	1500.23
605.555	1525.03
605.755	1569.98
605.955	1482.8
606.155	1516.51
606.356	1487.06
606.556	1525.23
606.756	1489.77
606.956	1446.18
607.156	1531.23
607.356	1439.98
607.556	1468.07
607.756	1459.16
607.956	1465.16
608.156	1470.01
608.356	1429.13
608.556	1496.75
608.756	1456.83
608.956	1431.45
609.156	1448.5
609.356	1399.1
609.556	1393.87
609.755	1419.25
609.955	1397.74
610.155	1405.68
610.355	1421.96
610.555	1414.98
610.755	1399.48
610.954	1345.04
611.154	1441.72
611.354	1429.9
611.554	1370.23
611.753	1379.53
611.953	1339.62
612.153	1409.56
612.352	1392.9
612.552	1339.04
612.752	1307.84
612.951	1348.14
613.151	1334.39
613.351	1344.46
613.55	1316.75
613.75	1370.04
613.949	1320.05
614.149	1333.8
614.348	1308.23
614.548	1307.45
614.747	1252.24
614.947	1310.17
615.146	1254.56
615.346	1335.74
615.545	1316.17
615.745	1312.88
615.944	1328.96
616.144	1280.72
616.343	1294.09
616.542	1257.08
616.742	1276.07
616.941	1238.09
617.14	1171.44
617.34	1247.01
617.539	1263.09
617.738	1215.62
617.938	1309.97
618.137	1275.1
