Data from gum_young_FLMT105791__101__17-40-29-041.txt Node

Date: Mon Mar 20 17:40:29 GMT 2023
User: antho
Spectrometer: FLMT10579
Trigger mode: 0
Integration Time (sec): 1.000000E-1
Scans to average: 10
Electric dark correction enabled: true
Nonlinearity correction enabled: false
Boxcar width: 0
XAxis mode: Wavelengths
Number of Pixels in Spectrum: 3648
>>>>>Begin Spectral Data<<<<<
345.248	-133.15
345.464	-133.15
345.681	-133.15
345.898	-172.1
346.114	-133.54
346.331	-34.34
346.548	27.46
346.764	-0.44
346.981	-0.63
347.197	-31.05
347.414	18.36
347.631	-39.57
347.847	57.49
348.064	9.83
348.28	38.7
348.497	-38.8
348.713	-7.02
348.93	30.18
349.146	23.2
349.363	3.63
349.579	0.53
349.796	33.28
350.012	12.93
350.229	27.85
350.445	12.35
350.661	11.77
350.878	-4.7
351.094	2.08
351.311	5.57
351.527	27.85
351.743	-11.48
351.96	22.23
352.176	24.36
352.392	37.93
352.609	53.43
352.825	-1.4
353.041	17.97
353.257	5.38
353.474	7.31
353.69	10.22
353.906	30.37
354.122	-5.86
354.339	54.59
354.555	16.42
354.771	5.18
354.987	48.78
355.203	52.07
355.42	-14.97
355.636	-16.13
355.852	-27.56
356.068	12.16
356.284	-39.38
356.5	71.83
356.716	19.52
356.932	26.49
357.148	34.83
357.364	9.64
357.58	53.81
357.796	48
358.012	43.54
358.228	48.78
358.444	-49.07
358.66	25.53
358.876	30.76
359.092	-8.57
359.308	10.22
359.524	25.53
359.74	3.25
359.956	6.35
360.172	-1.02
360.388	48
360.604	-7.8
360.819	69.51
361.035	29.98
361.251	34.05
361.467	24.56
361.683	52.84
361.898	-5.09
362.114	25.91
362.33	22.43
362.546	52.46
362.762	10.41
362.977	23.78
363.193	-18.65
363.409	48.39
363.624	-13.22
363.84	-10.12
364.056	9.25
364.271	21.26
364.487	20.88
364.703	12.55
364.918	-19.42
365.134	32.5
365.35	17.39
365.565	103.22
365.781	23.2
365.996	36.96
366.212	81.13
366.427	39.28
366.643	13.32
366.858	12.35
367.074	-7.8
367.289	90.63
367.505	110.97
367.72	6.15
367.936	-5.47
368.151	43.54
368.367	45.29
368.582	39.28
368.798	9.06
369.013	60.98
369.228	16.42
369.444	27.08
369.659	56.72
369.874	42.77
370.09	73.96
370.305	-52.36
370.52	11.38
370.736	56.53
370.951	25.33
371.166	63.11
371.381	59.82
371.597	78.23
371.812	5.76
372.027	22.43
372.242	34.83
372.458	76.48
372.673	-2.18
372.888	18.75
373.103	41.99
373.318	85.59
373.533	47.03
373.749	37.15
373.964	-28.92
374.179	50.33
374.394	-9.54
374.609	65.63
374.824	4.41
375.039	91.4
375.254	-5.67
375.469	90.04
375.684	35.6
375.899	57.3
376.114	25.14
376.329	42.96
376.544	89.27
376.759	54.59
376.974	19.52
377.189	32.89
377.404	8.09
377.619	44.13
377.834	-10.32
378.049	13.13
378.264	-15.35
378.478	15.06
378.693	23.98
378.908	55.36
379.123	30.18
379.338	55.94
379.553	35.99
379.767	38.31
379.982	32.31
380.197	41.99
380.412	10.61
380.626	38.31
380.841	111.94
381.056	41.22
381.271	109.23
381.485	19.13
381.7	-14.39
381.915	22.04
382.129	28.43
382.344	52.65
382.559	20.1
382.773	44.32
382.988	-12.45
383.202	56.14
383.417	23.39
383.632	112.32
383.846	34.24
384.061	49.55
384.275	42.38
384.49	42.77
384.704	36.96
384.919	43.35
385.133	20.88
385.348	60.79
385.562	24.36
385.777	72.22
385.991	43.16
386.206	17
386.42	22.43
386.634	77.26
386.849	40.44
387.063	66.02
387.277	10.22
387.492	21.85
387.706	28.82
387.92	-3.34
388.135	69.12
388.349	56.72
388.563	52.26
388.778	33.28
388.992	79.39
389.206	67.96
389.42	83.65
389.635	46.06
389.849	74.74
390.063	91.01
390.277	64.86
390.491	113.87
390.706	49.94
390.92	75.32
391.134	52.65
391.348	82.29
391.562	4.6
391.776	25.91
391.99	32.69
392.205	67.96
392.419	23.39
392.633	62.14
392.847	116.01
393.061	6.35
393.275	96.83
393.489	46.06
393.703	54.2
393.917	80.16
394.131	19.52
394.345	92.37
394.559	52.26
394.773	41.22
394.986	56.53
395.2	33.47
395.414	74.16
395.628	41.22
395.842	67.18
396.056	58.08
396.27	13.9
396.484	80.36
396.697	52.46
396.911	117.36
397.125	82.88
397.339	72.99
397.553	48.97
397.766	128.02
397.98	107.68
398.194	75.51
398.408	82.1
398.621	84.62
398.835	79.78
399.049	64.66
399.262	117.17
399.476	95.08
399.69	95.66
399.903	152.62
400.117	104.77
400.331	116.97
400.544	64.47
400.758	178.59
400.971	106.51
401.185	131.12
401.398	66.99
401.612	134.99
401.826	96.05
402.039	131.51
402.253	75.9
402.466	116.2
402.68	91.01
402.893	101.86
403.106	122.79
403.32	80.94
403.533	124.53
403.747	95.86
403.96	138.87
404.174	141
404.387	97.02
404.6	84.43
404.814	140.81
405.027	97.79
405.24	94.5
405.454	94.11
405.667	145.46
405.88	49.74
406.094	111.74
406.307	139.06
406.52	112.32
406.733	96.05
406.947	39.86
407.16	181.49
407.373	125.89
407.586	99.73
407.799	75.71
408.012	122.98
408.226	110.39
408.439	135.96
408.652	78.23
408.865	136.35
409.078	169.87
409.291	142.94
409.504	91.79
409.717	138.09
409.93	121.43
410.143	121.24
410.357	107.09
410.57	89.85
410.783	101.48
410.996	118.91
411.209	114.65
411.421	150.69
411.634	121.04
411.847	97.99
412.06	109.42
412.273	139.45
412.486	129.96
412.699	207.26
412.912	128.6
413.125	179.75
413.338	124.34
413.55	160.57
413.763	133.64
413.976	150.88
414.189	101.28
414.402	132.67
414.615	188.66
414.827	121.04
415.04	164.83
415.253	165.41
415.466	188.86
415.678	178.97
415.891	141.58
416.104	152.43
416.316	158.44
416.529	139.64
416.742	175.87
416.954	163.47
417.167	131.31
417.38	144.49
417.592	157.08
417.805	130.92
418.017	109.42
418.23	168.9
418.442	154.37
418.655	144.87
418.868	153.98
419.08	176.65
419.293	181.3
419.505	172.19
419.718	175.29
419.93	197.38
420.142	132.28
420.355	209.2
420.567	211.91
420.78	183.43
420.992	189.63
421.205	215.59
421.417	132.09
421.629	155.92
421.842	150.3
422.054	143.52
422.266	210.36
422.479	225.28
422.691	126.27
422.903	184.01
423.115	154.95
423.328	158.82
423.54	173.55
423.752	144.87
423.964	144.68
424.177	188.47
424.389	161.15
424.601	249.89
424.813	191.57
425.025	216.56
425.238	229.35
425.45	145.46
425.662	166.19
425.874	461.84
426.086	165.8
426.298	199.32
426.51	213.85
426.722	190.6
426.934	168.12
427.146	209.2
427.358	158.44
427.57	231.87
427.782	160.76
427.994	197.38
428.206	160.96
428.418	131.51
428.63	192.92
428.842	199.12
429.054	200.09
429.266	207.26
429.478	148.94
429.69	190.79
429.902	148.17
430.114	204.35
430.325	192.73
430.537	153.21
430.749	149.52
430.961	128.99
431.173	155.14
431.384	192.34
431.596	88.3
431.808	151.66
432.02	200.48
432.231	230.12
432.443	245.82
432.655	188.66
432.867	188.47
433.078	203.77
433.29	261.51
433.502	248.72
433.713	230.7
433.925	236.52
434.136	242.91
434.348	192.34
434.56	163.09
434.771	298.9
434.983	172.19
435.194	192.73
435.406	227.02
435.617	261.12
435.829	258.99
436.04	268.87
436.252	239.23
436.463	276.04
436.675	260.15
436.886	234.97
437.098	248.14
437.309	277.4
437.521	253.37
437.732	281.66
437.943	255.5
438.155	258.02
438.366	216.17
438.578	278.17
438.789	218.69
439	269.45
439.211	237.1
439.423	256.86
439.634	262.48
439.845	263.06
440.057	239.81
440.268	274.3
440.479	244.27
440.69	271.78
440.902	255.7
441.113	260.54
441.324	246.79
441.535	267.13
441.746	315.57
441.957	235.55
442.168	256.47
442.38	307.23
442.591	299.1
442.802	290.38
443.013	261.32
443.224	297.93
443.435	275.85
443.646	282.44
443.857	302.78
444.068	278.56
444.279	253.57
444.49	347.73
444.701	293.48
444.912	384.73
445.123	312.27
445.334	309.95
445.545	308.2
445.756	308.2
445.967	276.24
446.178	312.66
446.388	331.84
446.599	308.2
446.81	330.1
447.021	286.31
447.232	345.02
447.443	381.63
447.653	301.42
447.864	350.83
448.075	349.86
448.286	356.06
448.496	333.58
448.707	364.78
448.918	320.41
449.129	418.64
449.339	311.88
449.55	341.72
449.761	326.22
449.971	383.96
450.182	313.82
450.393	344.05
450.603	347.73
450.814	371.56
451.024	347.34
451.235	354.51
451.446	407.01
451.656	414.96
451.867	336.88
452.077	370.59
452.288	421.35
452.498	407.4
452.709	311.3
452.919	356.64
453.13	328.55
453.34	355.67
453.55	293.48
453.761	373.11
453.971	345.98
454.182	398.88
454.392	370.78
454.602	403.14
454.813	374.46
455.023	404.3
455.233	344.05
455.444	386.48
455.654	340.56
455.864	390.55
456.075	358
456.285	359.55
456.495	368.46
456.705	388.8
456.916	415.73
457.126	441.89
457.336	401.2
457.546	341.92
457.756	356.45
457.967	438.98
458.177	389.96
458.387	376.79
458.597	378.34
458.807	391.13
459.017	349.67
459.227	371.56
459.437	370.2
459.647	429.3
459.857	436.27
460.068	405.85
460.278	437.82
460.488	412.05
460.698	471.92
460.908	377.56
461.117	372.14
461.327	347.92
461.537	445.38
461.747	412.25
461.957	420.58
462.167	491.68
462.377	466.11
462.587	428.91
462.797	473.66
463.007	427.36
463.216	484.71
463.426	479.86
463.636	456.23
463.846	364.58
464.056	420.19
464.265	466.88
464.475	416.7
464.685	424.45
464.895	491.49
465.104	436.27
465.314	470.76
465.524	418.83
465.733	396.55
465.943	499.63
466.153	486.06
466.362	486.26
466.572	456.03
466.782	457.2
466.991	453.51
467.201	526.17
467.41	410.7
467.62	468.24
467.829	459.71
468.039	479.48
468.249	462.23
468.458	455.45
468.668	496.53
468.877	514.93
469.086	518.03
469.296	509.7
469.505	462.62
469.715	549.81
469.924	507.96
470.134	516.09
470.343	532.76
470.552	500.21
470.762	499.04
470.971	483.93
471.18	494.39
471.39	468.82
471.599	476.57
471.808	509.31
472.018	492.65
472.227	566.66
472.436	556.39
472.645	537.02
472.855	518.81
473.064	578.67
473.273	535.66
473.482	537.6
473.691	569.57
473.901	557.36
474.11	555.42
474.319	632.54
474.528	547.87
474.737	621.3
474.946	601.54
475.155	589.52
475.364	613.55
475.573	591.07
475.783	599.99
475.992	627.5
476.201	619.36
476.41	592.04
476.619	552.52
476.828	593.21
477.037	589.72
477.245	570.73
477.454	633.89
477.663	602.51
477.872	612.58
478.081	680.78
478.29	593.59
478.499	709.65
478.708	675.16
478.917	692.02
479.125	651.72
479.334	674.39
479.543	643.39
479.752	689.69
479.961	668.57
480.169	665.47
480.378	675.55
480.587	787.92
480.796	710.42
481.004	722.24
481.213	729.99
481.422	703.64
481.63	732.12
481.839	746.85
482.048	785.98
482.256	735.22
482.465	749.95
482.674	785.21
482.882	783.66
483.091	820.28
483.299	760.22
483.508	803.81
483.716	736.19
483.925	782.11
484.134	742
484.342	777.07
484.551	808.46
484.759	788.7
484.967	817.18
485.176	822.41
485.384	837.52
485.593	841.59
485.801	802.07
486.01	765.25
486.218	747.43
486.426	667.99
486.635	715.65
486.843	686.4
487.051	746.85
487.26	742.97
487.468	740.26
487.676	819.89
487.885	780.75
488.093	796.45
488.301	842.95
488.509	870.65
488.717	876.08
488.926	821.44
489.134	844.88
489.342	871.43
489.55	821.44
489.758	848.76
489.967	848.76
490.175	934.78
490.383	902.04
490.591	956.68
490.799	865.42
491.007	939.43
491.215	939.04
491.423	912.5
491.631	922.58
491.839	912.5
492.047	953.77
492.255	885.38
492.463	870.26
492.671	906.88
492.879	941.18
493.087	923.54
493.295	954.74
493.503	969.08
493.711	983.8
493.919	989.03
494.127	985.16
494.334	1015.38
494.542	977.99
494.75	983.8
494.958	974.89
495.166	1035.72
495.374	1000.66
495.581	1024.1
495.789	1021.77
495.997	1066.72
496.205	994.26
496.412	1034.95
496.62	1023.32
496.828	1061.88
497.035	1028.94
497.243	1078.54
497.451	1058.01
497.658	1071.37
497.866	1063.24
498.074	1121.55
498.281	1025.26
498.489	1130.66
498.696	1087.26
498.904	1039.21
499.112	996.2
499.319	1124.46
499.527	1082.61
499.734	1123.1
499.942	1063.24
500.149	1059.17
500.357	1086.29
500.564	1081.45
500.771	1118.45
500.979	1055.29
501.186	1073.89
501.394	1107.41
501.601	1109.74
501.808	1120.2
502.016	1106.44
502.223	1108.57
502.43	1114.77
502.638	1128.14
502.845	1102.18
503.052	1209.9
503.26	1122.52
503.467	1207.58
503.674	1165.34
503.881	1201.38
504.089	1212.23
504.296	1195.76
504.503	1156.43
504.71	1184.13
504.917	1156.43
505.125	1185.1
505.332	1212.23
505.539	1214.55
505.746	1318.6
505.953	1256.98
506.16	1279.85
506.367	1301.55
506.574	1363.54
506.781	1350.18
506.988	1279.26
507.195	1332.74
507.402	1282.95
507.609	1339.13
507.816	1281.4
508.023	1284.3
508.23	1334.68
508.437	1293.41
508.644	1349.79
508.851	1405.01
509.058	1418.38
509.265	1404.62
509.472	1441.82
509.679	1503.62
509.885	1418.57
510.092	1421.86
510.299	1424.38
510.506	1434.07
510.713	1464.29
510.92	1448.21
511.126	1491.61
511.333	1493.36
511.54	1527.07
511.746	1565.43
511.953	1568.53
512.16	1600.3
512.367	1542.95
512.573	1537.92
512.78	1557.68
512.987	1548.19
513.193	1561.36
513.4	1514.28
513.606	1580.93
513.813	1578.99
514.02	1611.73
514.226	1657.85
514.433	1627.23
514.639	1600.69
514.846	1606.5
515.052	1614.45
515.259	1624.33
515.465	1645.64
515.672	1672.77
515.878	1710.93
516.085	1708.03
516.291	1759.18
516.497	1698.53
516.704	1702.02
516.91	1622.2
517.117	1568.72
517.323	1530.75
517.529	1584.8
517.736	1599.92
517.942	1641.96
518.148	1627.82
518.354	1670.83
518.561	1680.13
518.767	1691.75
518.973	1726.24
519.179	1785.14
519.386	1759.95
519.592	1776.81
519.798	1779.13
520.004	1920.18
520.21	1900.22
520.417	1953.31
520.623	1978.69
520.829	2020.15
521.035	2040.69
521.241	1995.94
521.447	2045.92
521.653	2144.93
521.859	2049.22
522.065	2101.72
522.271	2174.57
522.477	2128.65
522.683	2186
522.889	2162.36
523.095	2132.33
523.301	2148.41
523.507	2116.64
523.713	2161.98
523.919	2099.59
524.125	2244.32
524.331	2217.58
524.537	2308.26
524.742	2343.13
524.948	2370.64
525.154	2323.56
525.36	2442.72
525.566	2343.13
525.772	2435.74
525.977	2347.01
526.183	2348.75
526.389	2415.98
526.595	2335.57
526.8	2305.54
527.006	2223.2
527.212	2198.21
527.417	2185.03
527.623	2219.91
527.829	2327.44
528.034	2353.79
528.24	2387.69
528.446	2393.7
528.651	2456.67
528.857	2471
529.062	2562.45
529.268	2559.16
529.473	2598.68
529.679	2581.83
529.884	2682.77
530.09	2611.47
530.295	2605.85
530.501	2654.87
530.706	2625.23
530.912	2625.03
531.117	2698.85
531.323	2615.54
531.528	2717.84
531.733	2798.44
531.939	2719.97
532.144	2754.65
532.35	2750
532.555	2765.5
532.76	2672.69
532.966	2683.93
533.171	2661.65
533.376	2607.98
533.581	2614.76
533.787	2635.3
533.992	2729.46
534.197	2739.34
534.402	2734.31
534.607	2720.36
534.813	2826.53
535.018	2757.94
535.223	2741.09
535.428	2768.99
535.633	2862.37
535.838	2850.94
536.043	2901.12
536.249	2991.6
536.454	2859.27
536.659	2903.25
536.864	2855.59
537.069	2856.17
537.274	2865.09
537.479	2852.3
537.684	2878.45
537.889	2824.59
538.094	2940.65
538.299	2885.43
538.504	2948.01
538.708	2901.9
538.913	2991.02
539.118	2953.05
539.323	2945.88
539.528	2938.13
539.733	2916.23
539.938	2915.85
540.142	2924.37
540.347	2886.01
540.552	2892.4
540.757	2843.77
540.962	2856.95
541.166	2808.12
541.371	2819.55
541.576	2883.49
541.781	2770.15
541.985	2911.2
542.19	2878.65
542.395	2984.43
542.599	2998.19
542.804	2939.68
543.008	3026.67
543.213	2943.55
543.418	2923.98
543.622	2979.98
543.827	2939.48
544.031	3000.32
544.236	3005.16
544.44	3013.11
544.645	3078.6
544.849	3003.61
545.054	3053.8
545.258	3083.83
545.463	3110.95
545.667	3023.57
545.872	3073.56
546.076	3040.23
546.281	3052.05
546.485	3049.15
546.689	3067.36
546.894	3087.31
547.098	3084.41
547.302	3041.01
547.507	3040.43
547.711	3069.1
547.915	3103.39
548.119	2992.96
548.324	3072.4
548.528	3101.26
548.732	3060.19
548.936	3083.83
549.141	3132.26
549.345	3048.56
549.549	3122.96
549.753	3100.29
549.957	3143.5
550.161	3214.41
550.366	3133.23
550.57	3069.68
550.774	3108.82
550.978	3141.18
551.182	3134.59
551.386	3109.79
551.59	3090.03
551.794	3099.71
551.998	3143.5
552.202	3127.42
552.406	3103.2
552.61	3138.27
552.814	3170.82
553.018	3194.84
553.222	3104.17
553.426	3086.34
553.63	3180.7
553.833	3124.51
554.037	3052.05
554.241	3120.06
554.445	3142.34
554.649	3126.06
554.853	3123.74
555.056	3163.84
555.26	3194.07
555.464	3142.14
555.668	3141.37
555.871	3159.97
556.075	3178.76
556.279	3117.15
556.483	3059.03
556.686	3068.13
556.89	3083.44
557.094	3101.07
557.297	3005.55
557.501	3131.29
557.704	2947.04
557.908	3090.8
558.112	3019.31
558.315	3073.17
558.519	3028.22
558.722	2967.77
558.926	2967.97
559.129	2845.13
559.333	2906.55
559.536	2938.71
559.74	2868.57
559.943	2834.86
560.147	2902.87
560.35	2878.45
560.553	2882.91
560.757	2849.59
560.96	2963.51
561.164	2946.46
561.367	2993.93
561.57	2895.7
561.774	2926.7
561.977	2884.46
562.18	2848.81
562.384	2933.09
562.587	2836.6
562.79	2881.36
562.993	2872.06
563.197	2897.05
563.4	2941.81
563.603	2893.76
563.806	2923.4
564.009	2821.69
564.212	2860.82
564.416	2757.56
564.619	2825.56
564.822	2755.42
565.025	2869.54
565.228	2782.94
565.431	2818.97
565.634	2693.23
565.837	2734.11
566.04	2685.87
566.243	2644.02
566.446	2587.64
566.649	2735.47
566.852	2607.01
567.055	2661.26
567.258	2642.86
567.461	2746.12
567.664	2762.59
567.867	2611.47
568.07	2622.71
568.273	2656.81
568.475	2700.59
568.678	2621.16
568.881	2589.77
569.084	2604.5
569.287	2511.5
569.489	2483.6
569.692	2572.72
569.895	2568.07
570.098	2459.57
570.3	2446.01
570.503	2460.15
570.706	2414.62
570.909	2402.22
571.111	2377.42
571.314	2320.27
571.516	2347.59
571.719	2398.35
571.922	2311.94
572.124	2333.06
572.327	2411.91
572.529	2359.79
572.732	2354.17
572.935	2343.71
573.137	2430.9
573.34	2335.57
573.542	2387.89
573.745	2319.3
573.947	2359.99
574.15	2310.39
574.352	2310.77
574.554	2375.87
574.757	2325.5
574.959	2266.41
575.162	2288.69
575.364	2276.29
575.566	2365.22
575.769	2191.62
575.971	2219.33
576.173	2142.99
576.376	2228.82
576.578	2252.07
576.78	2259.63
576.982	2199.37
577.185	2189.3
577.387	2172.83
577.589	2200.92
577.791	2207.7
577.993	2212.35
578.196	2188.71
578.398	2147.64
578.6	2177.48
578.802	2090.29
579.004	2110.83
579.206	2141.05
579.408	2123.03
579.61	2093
579.812	2146.48
580.014	2119.74
580.216	2130.01
580.418	2160.81
580.62	2099.78
580.822	2121.29
581.024	2139.31
581.226	2181.35
581.428	2128.65
581.63	2213.13
581.832	2137.95
582.034	2198.79
582.236	2131.17
582.438	2190.26
582.64	2209.06
582.841	2227.08
583.043	2242.58
583.245	2164.69
583.447	2189.49
583.649	2161.59
583.85	2215.26
584.052	2179.41
584.254	2130.98
584.456	2223.01
584.657	2139.7
584.859	2148.8
585.061	2102.88
585.262	2100.95
585.464	2086.61
585.666	2146.67
585.867	2065.1
586.069	2172.25
586.27	2072.47
586.472	2071.69
586.674	2056.38
586.875	2048.44
587.077	2059.48
587.278	2108.7
587.48	2044.95
587.681	2169.15
587.883	2096.1
588.084	1993.42
588.285	2027.32
588.487	2000.78
588.688	1988.77
588.89	1879.11
589.091	1867.29
589.292	1848.11
589.494	1791.92
589.695	1778.74
589.896	1698.34
590.098	1728.37
590.299	1762.66
590.5	1749.3
590.702	1788.24
590.903	1827.18
591.104	1939.94
591.305	1859.34
591.507	1917.27
591.708	1908.56
591.909	1865.54
592.11	1923.67
592.311	1899.06
592.512	1853.14
592.714	1848.11
592.915	1846.17
593.116	1830.28
593.317	1889.37
593.518	1824.28
593.719	1888.41
593.92	1893.06
594.121	1922.7
594.322	1907.59
594.523	1855.47
594.724	1822.34
594.925	1851.79
595.126	1838.23
595.327	1818.85
595.528	1820.21
595.729	1841.71
595.929	1843.26
596.13	1838.42
596.331	1876.39
596.532	1838.61
596.733	1928.51
596.934	1924.83
597.135	1918.24
597.335	1926.96
597.536	1865.54
597.737	1874.65
597.938	1848.69
598.138	1873.29
598.339	1863.8
598.54	1856.24
598.74	1877.75
598.941	1835.32
599.142	1931.81
599.342	1891.89
599.543	1837.45
599.744	1830.28
599.944	1860.31
600.145	1881.43
600.345	1836.09
600.546	1926.77
600.746	1888.21
600.947	1948.08
601.147	1889.76
601.348	1896.16
601.548	1838.61
601.749	1867.09
601.949	1791.92
602.15	1811.88
602.35	1824.08
602.551	1863.61
602.751	1801.61
602.951	1831.25
603.152	1778.55
603.352	1845.98
603.552	1814.01
603.753	1862.64
603.953	1890.92
604.153	1871.74
604.354	1854.89
604.554	1840.94
604.754	1839.58
604.954	1823.89
605.155	1873.1
605.355	1848.88
605.555	1865.35
605.755	1863.02
605.955	1831.25
606.155	1864.57
606.356	1857.02
606.556	1854.69
606.756	1876.78
606.956	1796.18
607.156	1871.94
607.356	1763.83
607.556	1837.45
607.756	1824.66
607.956	1841.71
608.156	1803.16
608.356	1770.22
608.556	1828.34
608.756	1786.49
608.956	1772.93
609.156	1802.38
609.356	1763.63
609.556	1728.37
609.755	1757.05
609.955	1723.72
610.155	1724.11
610.355	1789.79
610.555	1705.9
610.755	1711.51
610.954	1709.96
611.154	1749.1
611.354	1740
611.554	1702.99
611.753	1723.53
611.953	1716.16
612.153	1711.71
612.352	1727.21
612.552	1673.54
612.752	1615.03
612.951	1668.89
613.151	1709.38
613.351	1648.93
613.55	1662.5
613.75	1664.05
613.949	1679.93
614.149	1656.3
614.348	1629.95
614.548	1628.01
614.747	1577.05
614.947	1610.18
615.146	1573.57
615.346	1658.23
615.545	1639.83
615.745	1638.67
615.944	1660.17
616.144	1610.18
616.343	1626.27
616.542	1602.24
616.742	1553.03
