Data from gum_young_FLMT105791__52__17-39-10-043.txt Node

Date: Mon Mar 20 17:39:10 GMT 2023
User: antho
Spectrometer: FLMT10579
Trigger mode: 0
Integration Time (sec): 1.000000E-1
Scans to average: 10
Electric dark correction enabled: true
Nonlinearity correction enabled: false
Boxcar width: 0
XAxis mode: Wavelengths
Number of Pixels in Spectrum: 3648
>>>>>Begin Spectral Data<<<<<
345.248	-131.93
345.464	-131.93
345.681	-131.93
345.898	-163.89
346.114	-128.05
346.331	-22.46
346.548	24.23
346.764	-10.64
346.981	7.96
347.197	-21.3
347.414	7.57
347.631	-2.31
347.847	56.01
348.064	-18.78
348.28	27.33
348.497	-37.76
348.713	-9.86
348.93	-3.28
349.146	32.37
349.363	1.76
349.579	26.56
349.796	3.12
350.012	5.25
350.229	52.91
350.445	27.53
350.661	-18.2
350.878	31.21
351.094	44.58
351.311	18.62
351.527	13.38
351.743	-6.18
351.96	36.05
352.176	32.37
352.392	14.35
352.609	54.27
352.825	17.65
353.041	4.67
353.257	-1.73
353.474	23.07
353.69	26.17
353.906	4.08
354.122	-3.28
354.339	41.28
354.555	-11.22
354.771	10.67
354.987	52.91
355.203	68.8
355.42	5.05
355.636	21.91
355.852	-0.18
356.068	9.51
356.284	-43.96
356.5	63.37
356.716	20.36
356.932	-7.93
357.148	33.15
357.364	17.65
357.58	68.02
357.796	77.71
358.012	15.52
358.228	28.88
358.444	-20.52
358.66	55.62
358.876	25.4
359.092	-5.22
359.308	32.57
359.524	24.23
359.74	0.6
359.956	18.23
360.172	14.35
360.388	53.3
360.604	14.16
360.819	79.84
361.035	14.16
361.251	35.08
361.467	7.18
361.683	76.16
361.898	38.18
362.114	33.92
362.33	30.05
362.546	19.97
362.762	11.64
362.977	13.77
363.193	-13.93
363.409	65.89
363.624	2.53
363.84	-6.18
364.056	3.89
364.271	20.75
364.487	36.63
364.703	2.15
364.918	-17.03
365.134	13
365.35	-1.92
365.565	107.16
365.781	31.21
365.996	28.88
366.212	72.87
366.427	46.71
366.643	24.23
366.858	4.86
367.074	-25.75
367.289	58.72
367.505	108.51
367.72	5.25
367.936	9.32
368.151	52.52
368.367	41.67
368.582	34.31
368.798	17.26
369.013	38.18
369.228	39.15
369.444	30.24
369.659	55.04
369.874	58.72
370.09	74.8
370.305	-29.43
370.52	22.68
370.736	59.69
370.951	27.92
371.166	61.82
371.381	86.62
371.597	47.29
371.812	21.52
372.027	5.63
372.242	41.09
372.458	96.31
372.673	21.72
372.888	9.32
373.103	53.3
373.318	108.9
373.533	52.91
373.749	36.63
373.964	-41.45
374.179	42.64
374.394	-24.78
374.609	62.4
374.824	-14.9
375.039	75.38
375.254	-26.91
375.469	61.05
375.684	30.43
375.899	64.92
376.114	49.62
376.329	25.4
376.544	49.03
376.759	54.07
376.974	11.06
377.189	29.66
377.404	5.05
377.619	45.16
377.834	-17.61
378.049	-23.04
378.264	-21.3
378.478	35.47
378.693	14.16
378.908	37.99
379.123	29.08
379.338	63.37
379.553	21.72
379.767	25.2
379.982	43.03
380.197	50.97
380.412	41.28
380.626	21.13
380.841	128.28
381.056	26.95
381.271	66.08
381.485	-4.25
381.7	6.8
381.915	57.17
382.129	14.35
382.344	45.93
382.559	6.8
382.773	43.42
382.988	-23.62
383.202	36.25
383.417	-7.93
383.632	91.27
383.846	33.73
384.061	22.3
384.275	24.23
384.49	59.88
384.704	51.94
384.919	44.19
385.133	50.39
385.348	61.63
385.562	1.57
385.777	69.96
385.991	27.33
386.206	29.66
386.42	18.42
386.634	83.52
386.849	30.82
387.063	43.61
387.277	4.47
387.492	13.77
387.706	3.12
387.92	7.96
388.135	49.62
388.349	39.93
388.563	36.83
388.778	43.61
388.992	46.32
389.206	42.25
389.42	94.18
389.635	26.37
389.849	67.05
390.063	78.48
390.277	39.73
390.491	88.75
390.706	47.68
390.92	70.54
391.134	40.9
391.348	63.37
391.562	11.45
391.776	28.11
391.99	2.15
392.205	69.18
392.419	32.18
392.633	43.61
392.847	63.18
393.061	4.86
393.275	87.59
393.489	29.47
393.703	63.18
393.917	54.85
394.131	5.05
394.345	55.04
394.559	78.1
394.773	9.32
394.986	58.92
395.2	43.22
395.414	73.64
395.628	-3.47
395.842	63.18
396.056	46.13
396.27	-1.53
396.484	58.33
396.697	33.15
396.911	86.23
397.125	58.92
397.339	75.38
397.553	98.44
397.766	98.05
397.98	90.3
398.194	102.12
398.408	24.43
398.621	60.47
398.835	73.83
399.049	51.75
399.262	104.06
399.476	83.13
399.69	75.77
399.903	149.01
400.117	65.31
400.331	78.48
400.544	23.27
400.758	152.5
400.971	76.16
401.185	107.35
401.398	27.14
401.612	113.55
401.826	100.76
402.039	92.05
402.253	62.79
402.466	103.67
402.68	82.55
402.893	60.85
403.106	65.7
403.32	58.72
403.533	75.77
403.747	95.73
403.96	86.81
404.174	97.86
404.387	54.85
404.6	84.68
404.814	103.67
405.027	64.15
405.24	56.98
405.454	51.36
405.667	120.33
405.88	25.78
406.094	83.71
406.307	109.68
406.52	106.77
406.733	44.58
406.947	48.65
407.16	147.26
407.373	130.6
407.586	70.73
407.799	37.8
408.012	95.73
408.226	80.23
408.439	135.25
408.652	40.7
408.865	88.56
409.078	114.33
409.291	99.6
409.504	46.71
409.717	100.96
409.93	92.24
410.143	109.87
410.357	45.16
410.57	70.15
410.783	75.19
410.996	90.69
411.209	92.82
411.421	142.03
411.634	79.84
411.847	77.13
412.06	97.08
412.273	121.11
412.486	87.59
412.699	166.06
412.912	82.55
413.125	123.63
413.338	78.87
413.55	108.13
413.763	110.26
413.976	106.38
414.189	94.37
414.402	74.42
414.615	148.23
414.827	77.32
415.04	131.96
415.253	145.91
415.466	129.05
415.678	145.33
415.891	109.29
416.104	100.38
416.316	94.37
416.529	94.56
416.742	99.8
416.954	150.36
417.167	94.76
417.38	98.63
417.592	153.85
417.805	87.4
418.017	66.08
418.23	135.45
418.442	77.9
418.655	99.02
418.868	111.23
419.08	132.54
419.293	143.2
419.505	140.48
419.718	141.84
419.93	153.27
420.142	95.73
420.355	156.56
420.567	162.76
420.78	151.72
420.992	105.03
421.205	146.3
421.417	116.26
421.629	125.56
421.842	78.29
422.054	90.11
422.266	127.7
422.479	162.96
422.691	111.03
422.903	113.55
423.115	99.21
423.328	116.46
423.54	119.36
423.752	132.73
423.964	92.82
424.177	150.36
424.389	121.88
424.601	203.64
424.813	104.64
425.025	121.88
425.238	142.23
425.45	108.9
425.662	110.26
425.874	370.07
426.086	140.68
426.298	147.46
426.51	149.2
426.722	144.55
426.934	91.08
427.146	168.58
427.358	97.47
427.57	146.88
427.782	134.86
427.994	132.35
428.206	108.32
428.418	83.33
428.63	144.36
428.842	157.92
429.054	141.65
429.266	140.87
429.478	91.66
429.69	128.47
429.902	72.48
430.114	149.4
430.325	126.92
430.537	112.58
430.749	131.57
430.961	88.56
431.173	123.43
431.384	159.47
431.596	55.43
431.808	134.67
432.02	131.38
432.231	132.35
432.443	181.17
432.655	130.8
432.867	119.75
433.078	185.04
433.29	225.73
433.502	191.24
433.713	228.64
433.925	153.66
434.136	161.8
434.348	129.25
434.56	87.98
434.771	258.28
434.983	118.4
435.194	136.8
435.406	124.21
435.617	185.82
435.829	219.92
436.04	169.93
436.252	182.14
436.463	202.48
436.675	200.74
436.886	176.33
437.098	212.17
437.309	209.65
437.521	163.93
437.732	160.25
437.943	164.9
438.155	166.25
438.366	141.06
438.578	223.02
438.789	174.19
439	213.53
439.211	161.6
439.423	180.01
439.634	226.89
439.845	231.16
440.057	203.64
440.268	208.29
440.479	157.73
440.69	205.19
440.902	192.6
441.113	168.38
441.324	180.98
441.535	211.39
441.746	233.48
441.957	166.06
442.168	191.63
442.38	197.44
442.591	215.08
442.802	182.72
443.013	185.63
443.224	209.07
443.435	187.18
443.646	205.19
443.857	187.95
444.068	207.91
444.279	200.74
444.49	295.29
444.701	217.59
444.912	298.19
445.123	240.65
445.334	238.13
445.545	208.88
445.756	222.83
445.967	184.08
446.178	209.65
446.388	238.91
446.599	254.6
446.81	239.29
447.021	207.13
447.232	244.91
447.443	248.59
447.653	203.84
447.864	270.49
448.075	215.08
448.286	273.59
448.496	252.28
448.707	279.4
448.918	210.81
449.129	321.83
449.339	234.26
449.55	265.06
449.761	222.24
449.971	271.84
450.182	265.06
450.393	267.19
450.603	263.12
450.814	277.27
451.024	270.87
451.235	283.47
451.446	320.47
451.656	307.88
451.867	242.39
452.077	276.88
452.288	316.99
452.498	332.68
452.709	264.29
452.919	274.56
453.13	239.68
453.34	286.57
453.55	241.23
453.761	306.14
453.971	299.55
454.182	312.53
454.392	267.19
454.602	332.29
454.813	296.26
455.023	296.26
455.233	240.65
455.444	287.54
455.654	218.56
455.864	288.31
456.075	258.09
456.285	283.66
456.495	266.03
456.705	311.95
456.916	339.07
457.126	328.81
457.336	283.27
457.546	248.4
457.756	270.29
457.967	348.37
458.177	268.74
458.387	287.92
458.597	279.01
458.807	285.79
459.017	269.71
459.227	257.31
459.437	304.78
459.647	310.21
459.857	306.14
460.068	259.25
460.278	350.31
460.488	293.16
460.698	360.58
460.908	298.19
461.117	251.5
461.327	279.98
461.537	313.69
461.747	294.71
461.957	316.41
462.167	397.78
462.377	372.98
462.587	324.16
462.797	336.36
463.007	334.81
463.216	344.69
463.426	362.52
463.636	356.7
463.846	273.01
464.056	271.84
464.265	347.6
464.475	288.89
464.685	331.32
464.895	347.6
465.104	330.55
465.314	343.34
465.524	304.2
465.733	285.6
465.943	392.35
466.153	383.05
466.362	375.5
466.572	357.48
466.782	353.6
466.991	309.82
467.201	401.27
467.41	287.54
467.62	340.24
467.829	329.19
468.039	332.1
468.249	360.77
468.458	365.23
468.668	341.21
468.877	359.61
469.086	401.27
469.296	384.41
469.505	351.67
469.715	402.62
469.924	391.97
470.134	417.15
470.343	398.55
470.552	384.41
470.762	368.52
470.971	339.66
471.18	400.88
471.39	379.95
471.599	329
471.808	389.25
472.018	351.09
472.227	428.59
472.436	436.53
472.645	369.88
472.855	372.98
473.064	421.42
473.273	399.14
473.482	419.09
473.691	440.4
473.901	427.04
474.11	387.9
474.319	458.81
474.528	389.84
474.737	448.93
474.946	442.53
475.155	433.23
475.364	487.48
475.573	428.39
475.783	427.42
475.992	447.18
476.201	463.07
476.41	439.63
476.619	400.69
476.828	447.38
477.037	420.25
477.245	438.66
477.454	487.87
477.663	452.8
477.872	444.47
478.081	519.84
478.29	459
478.499	504.34
478.708	482.45
478.917	554.52
479.125	473.73
479.334	483.61
479.543	455.9
479.752	467.53
479.961	495.62
480.169	532.82
480.378	492.33
480.587	624.46
480.796	537.86
481.004	530.5
481.213	529.53
481.422	540.57
481.63	500.85
481.839	545.41
482.048	603.73
482.256	528.75
482.465	580.68
482.674	554.13
482.882	531.85
483.091	623.88
483.299	587.85
483.508	577.77
483.716	576.41
483.925	564.4
484.134	558.4
484.342	568.28
484.551	620.98
484.759	603.73
484.967	596.56
485.176	611.87
485.384	590.75
485.593	609.93
485.801	596.95
486.01	577.96
486.218	527.01
486.426	491.17
486.635	529.14
486.843	519.84
487.051	549.29
487.26	536.5
487.468	578.35
487.676	601.41
487.885	552.78
488.093	621.94
488.301	611.87
488.509	632.79
488.717	649.26
488.926	613.61
489.134	605.09
489.342	648.88
489.55	590.36
489.758	631.24
489.967	595.6
490.175	732.38
490.383	642.48
490.591	726.76
490.799	641.13
491.007	684.91
491.215	664.38
491.423	657.59
491.631	678.33
491.839	681.04
492.047	686.46
492.255	661.47
492.463	620.98
492.671	683.94
492.879	712.81
493.087	669.99
493.295	716.88
493.503	706.81
493.711	734.32
493.919	720.17
494.127	727.54
494.334	745.17
494.542	699.06
494.75	749.43
494.958	714.36
495.166	746.33
495.374	743.62
495.581	773.46
495.789	753.11
495.997	809.1
496.205	745.36
496.412	756.21
496.62	764.93
496.828	790.5
497.035	784.11
497.243	756.41
497.451	773.07
497.658	775.78
497.866	792.64
498.074	849.02
498.281	779.46
498.489	853.28
498.696	810.65
498.904	780.62
499.112	766.09
499.319	857.93
499.527	803.29
499.734	831.77
499.942	800.77
500.149	834.68
500.357	838.55
500.564	798.84
500.771	840.88
500.979	780.24
501.186	784.89
501.394	843.98
501.601	803.49
501.808	846.11
502.016	813.95
502.223	812.2
502.43	828.09
502.638	813.17
502.845	811.43
503.052	926.52
503.26	828.29
503.467	904.23
503.674	850.76
503.881	864.71
504.089	952.09
504.296	900.94
504.503	841.65
504.71	873.23
504.917	871.49
505.125	883.7
505.332	898.81
505.539	938.53
505.746	965.07
505.953	965.07
506.16	965.07
506.367	1022.03
506.574	1010.99
506.781	1016.8
506.988	967.59
507.195	977.86
507.402	987.93
507.609	1002.27
507.816	972.43
508.023	975.34
508.23	958.29
508.437	948.41
508.644	1008.66
508.851	1081.9
509.058	1022.23
509.265	1026.88
509.472	1056.52
509.679	1129.95
509.885	1052.26
510.092	1063.11
510.299	1029.01
510.506	1070.08
510.713	1091.59
510.92	1056.52
511.126	1074.93
511.333	1147.77
511.54	1136.92
511.746	1189.62
511.953	1188.46
512.16	1180.71
512.367	1154.94
512.573	1133.44
512.78	1135.37
512.987	1153.01
513.193	1157.27
513.4	1112.71
513.606	1170.64
513.813	1165.02
514.02	1183.04
514.226	1248.33
514.433	1210.16
514.639	1152.23
514.846	1208.61
515.052	1205.71
515.259	1218.69
515.465	1236.7
515.672	1221.01
515.878	1323.12
516.085	1235.35
516.291	1302.19
516.497	1263.83
516.704	1244.84
516.91	1188.46
517.117	1207.64
517.323	1120.07
517.529	1189.43
517.736	1177.22
517.942	1224.5
518.148	1214.42
518.354	1222.37
518.561	1246.2
518.767	1285.72
518.973	1321.37
519.179	1308.2
519.386	1278.36
519.592	1302
519.798	1325.63
520.004	1424.45
520.21	1387.63
520.417	1425.22
520.623	1448.86
520.829	1484.51
521.035	1487.03
521.241	1456.22
521.447	1496.13
521.653	1609.09
521.859	1504.08
522.065	1536.82
522.271	1611.99
522.477	1618.19
522.683	1631.37
522.889	1574.41
523.095	1582.35
523.301	1593.59
523.507	1542.24
523.713	1622.65
523.919	1602.89
524.125	1673.8
524.331	1674.96
524.537	1721.85
524.742	1734.64
524.948	1697.82
525.154	1711.77
525.36	1826.86
525.566	1750.72
525.772	1766.41
525.977	1693.56
526.183	1761.37
526.389	1806.52
526.595	1718.36
526.8	1711.97
527.006	1640.28
527.212	1590.49
527.417	1604.44
527.623	1636.79
527.829	1707.32
528.034	1722.24
528.24	1746.26
528.446	1747.03
528.651	1845.65
528.857	1845.07
529.062	1871.81
529.268	1871.42
529.473	1907.46
529.679	1864.06
529.884	1917.14
530.09	1951.05
530.295	1951.24
530.501	1962.87
530.706	1941.75
530.912	1904.55
531.117	1982.63
531.323	1956.86
531.528	2000.46
531.733	2018.28
531.939	2002.97
532.144	2049.28
532.35	1987.86
532.555	2018.67
532.76	1997.55
532.966	1983.6
533.171	1967.33
533.376	1964.03
533.581	1911.33
533.787	1984.76
533.992	2004.72
534.197	2045.41
534.402	1996.58
534.607	2023.12
534.813	2095
535.018	2027.58
535.223	2047.73
535.428	2049.09
535.633	2102.37
535.838	2139.57
536.043	2156.04
536.249	2204.28
536.454	2101.2
536.659	2165.92
536.864	2116.51
537.069	2096.36
537.274	2167.66
537.479	2143.83
537.684	2102.17
537.889	2107.21
538.094	2231.21
538.299	2132.98
538.504	2167.47
538.708	2159.33
538.913	2221.91
539.118	2170.76
539.323	2175.22
539.528	2123.68
539.733	2159.52
539.938	2198.66
540.142	2174.44
540.347	2110.89
540.552	2127.94
540.757	2115.54
540.962	2104.3
541.166	2083.57
541.371	2064.59
541.576	2152.55
541.781	2112.25
541.985	2160.69
542.19	2163.59
542.395	2224.82
542.599	2242.06
542.804	2221.52
543.008	2290.5
543.213	2173.09
543.418	2181.61
543.622	2215.32
543.827	2182.58
544.031	2246.71
544.236	2263.57
544.44	2210.67
544.645	2320.91
544.849	2274.22
545.054	2278.48
545.258	2326.34
545.463	2317.43
545.667	2240.9
545.872	2306.38
546.076	2252.52
546.281	2324.79
546.485	2243.42
546.689	2305.61
546.894	2295.53
547.098	2303.48
547.302	2245.93
547.507	2273.45
547.711	2294.95
547.915	2347.26
548.119	2269.38
548.324	2287.4
548.528	2363.93
548.732	2287.78
548.936	2341.26
549.141	2335.83
549.345	2297.47
549.549	2347.26
549.753	2342.23
549.957	2369.93
550.161	2382.91
550.366	2343.97
550.57	2343.2
550.774	2344.36
550.978	2345.91
551.182	2370.9
551.386	2331.96
551.59	2325.95
551.794	2308.9
551.998	2358.11
552.202	2335.25
552.406	2330.8
552.61	2404.03
552.814	2332.35
553.018	2441.04
553.222	2309.1
553.426	2338.35
553.63	2417.98
553.833	2320.14
554.037	2284.3
554.241	2345.13
554.445	2340.29
554.649	2346.49
554.853	2309.48
555.056	2367.41
555.26	2385.04
555.464	2360.44
555.668	2353.66
555.871	2391.44
556.075	2382.72
556.279	2313.16
556.483	2301.35
556.686	2336.41
556.89	2313.75
557.094	2309.87
557.297	2273.45
557.501	2331.96
557.704	2243.42
557.908	2353.27
558.112	2273.06
558.315	2362.96
558.519	2289.33
558.722	2249.62
558.926	2245.74
559.129	2225.01
559.333	2206.6
559.536	2162.04
559.74	2182.77
559.943	2150.61
560.147	2182.38
560.35	2168.05
560.553	2241.67
560.757	2139.37
560.96	2242.83
561.164	2190.91
561.367	2251.75
561.57	2204.28
561.774	2219.97
561.977	2176.38
562.18	2157.2
562.384	2264.34
562.587	2187.62
562.79	2161.07
562.993	2175.6
563.197	2171.92
563.4	2209.12
563.603	2212.8
563.806	2191.49
564.009	2154.29
564.212	2175.6
564.416	2093.26
564.619	2135.89
564.822	2053.54
565.025	2179.87
565.228	2074.08
565.431	2115.54
565.634	2021.38
565.837	2069.43
566.04	2066.52
566.243	2029.52
566.446	1921.6
566.649	2061.49
566.852	1942.91
567.055	2036.11
567.258	2030.29
567.461	2084.16
567.664	2044.82
567.867	2005.49
568.07	2031.46
568.273	2050.25
568.475	2070.01
568.678	1980.69
568.881	1954.54
569.084	1965.78
569.287	1876.85
569.489	1915.01
569.692	1965.78
569.895	1952.02
570.098	1883.43
570.3	1881.88
570.503	1842.94
570.706	1838.48
570.909	1837.13
571.111	1785.01
571.314	1762.73
571.516	1815.82
571.719	1807.29
571.922	1795.67
572.124	1784.43
572.327	1801.67
572.529	1778.81
572.732	1797.41
572.935	1800.7
573.137	1897.38
573.34	1756.33
573.542	1817.56
573.745	1828.02
573.947	1780.75
574.15	1769.12
574.352	1726.5
574.554	1823.18
574.757	1730.57
574.959	1727.85
575.162	1741.61
575.364	1705.77
575.566	1778.23
575.769	1695.3
575.971	1740.06
576.173	1639.51
576.376	1673.02
576.578	1721.46
576.78	1767.77
576.982	1635.24
577.185	1685.62
577.387	1615.09
577.589	1654.81
577.791	1676.9
577.993	1686
578.196	1636.21
578.398	1678.06
578.6	1673.41
578.802	1619.55
579.004	1611.61
579.206	1645.71
579.408	1685.62
579.61	1622.84
579.812	1669.92
580.014	1633.11
580.216	1594.56
580.418	1645.32
580.62	1638.92
580.822	1607.73
581.024	1646.29
581.226	1670.7
581.428	1635.24
581.63	1699.95
581.832	1614.51
582.034	1669.73
582.236	1614.32
582.438	1678.06
582.64	1675.74
582.841	1711
583.043	1750.72
583.245	1659.46
583.447	1703.83
583.649	1662.75
583.85	1628.27
584.052	1676.51
584.254	1639.89
584.456	1715.07
584.657	1616.84
584.859	1637.96
585.061	1681.94
585.262	1634.27
585.464	1586.81
585.666	1663.34
585.867	1590.87
586.069	1657.72
586.27	1612.96
586.472	1576.92
586.674	1576.92
586.875	1595.14
587.077	1568.59
587.278	1606.57
587.48	1547.28
587.681	1702.47
587.883	1605.41
588.084	1545.54
588.285	1568.98
588.487	1498.46
588.688	1548.64
588.89	1460.29
589.091	1435.49
589.292	1404.1
589.494	1362.06
589.695	1354.89
589.896	1304.9
590.098	1292.5
590.299	1364.19
590.5	1343.27
590.702	1365.74
590.903	1428.13
591.104	1435.3
591.305	1423.48
591.507	1486.83
591.708	1465.52
591.909	1437.62
592.11	1481.02
592.311	1472.3
592.512	1448.86
592.714	1407.4
592.915	1432.78
593.116	1412.24
593.317	1475.21
593.518	1428.71
593.719	1416.11
593.92	1494.58
594.121	1526.16
594.322	1457.96
594.523	1420.57
594.724	1406.81
594.925	1405.65
595.126	1407.2
595.327	1423.86
595.528	1418.25
595.729	1407.98
595.929	1405.07
596.13	1445.56
596.331	1420.96
596.532	1423.86
596.733	1503.88
596.934	1488.19
597.135	1472.3
597.335	1433.16
597.536	1397.32
597.737	1457.96
597.938	1400.42
598.138	1424.64
598.339	1415.73
598.54	1430.65
598.74	1423.48
598.941	1423.86
599.142	1481.99
599.342	1449.44
599.543	1432.2
599.744	1414.56
599.944	1429.48
600.145	1413.79
600.345	1428.71
600.546	1508.92
600.746	1480.63
600.947	1479.08
601.147	1444.6
601.348	1501.17
601.548	1413.01
601.749	1436.46
601.949	1387.25
602.15	1388.6
602.35	1371.36
602.551	1456.61
602.751	1363.8
602.951	1392.86
603.152	1351.4
603.352	1433.16
603.552	1437.62
603.753	1428.51
603.953	1453.9
604.153	1436.65
604.354	1413.21
604.554	1419.02
604.754	1406.62
604.954	1371.17
605.155	1424.06
605.355	1398.68
605.555	1447.89
605.755	1456.41
605.955	1385.31
606.155	1437.81
606.356	1411.08
606.556	1431.61
606.756	1460.68
606.956	1373.1
607.156	1444.01
607.356	1375.23
607.556	1386.86
607.756	1412.24
607.956	1433.75
608.156	1418.05
608.356	1401.58
608.556	1382.6
608.756	1391.51
608.956	1332.42
609.156	1372.13
609.356	1344.62
609.556	1372.33
609.755	1342.68
609.955	1348.3
610.155	1376.78
610.355	1372.91
610.555	1297.15
610.755	1332.42
610.954	1280.69
611.154	1313.04
611.354	1349.08
611.554	1275.45
611.753	1339.58
611.953	1295.8
612.153	1339.39
612.352	1330.48
612.552	1269.45
612.752	1250.46
612.951	1287.08
613.151	1307.81
613.351	1262.86
613.55	1290.57
613.75	1295.6
613.949	1259.95
614.149	1265.77
614.348	1257.44
614.548	1230.31
614.747	1221.59
614.947	1224.3
615.146	1190.01
615.346	1289.02
615.545	1264.99
615.745	1278.55
615.944	1254.72
616.144	1236.51
616.343	1265.96
616.542	1202.61
616.742	1212.49
616.941	1191.37
617.14	1121.43
617.34	1219.27
617.539	1199.12
617.738	1184.01
617.938	1254.14
618.137	1218.3
