Data from gum_young_FLMT105791__114__17-40-42-040.txt Node

Date: Mon Mar 20 17:40:42 GMT 2023
User: antho
Spectrometer: FLMT10579
Trigger mode: 0
Integration Time (sec): 1.000000E-1
Scans to average: 10
Electric dark correction enabled: true
Nonlinearity correction enabled: false
Boxcar width: 0
XAxis mode: Wavelengths
Number of Pixels in Spectrum: 3648
>>>>>Begin Spectral Data<<<<<
345.248	-155.79
345.464	-155.79
345.681	-155.79
345.898	-182.72
346.114	-149.59
346.331	-48.84
346.548	33.31
346.764	3.67
346.981	-13.19
347.197	7.54
347.414	10.25
347.631	-14.35
347.847	44.93
348.064	-15.9
348.28	30.01
348.497	-37.02
348.713	-0.4
348.93	-0.98
349.146	6.38
349.363	-0.21
349.579	35.83
349.796	-1.37
350.012	-22.49
350.229	27.88
350.445	-5.25
350.661	-18.62
350.878	-20.94
351.094	12
351.311	41.25
351.527	22.26
351.743	0.37
351.96	25.36
352.176	34.47
352.392	23.62
352.609	12.58
352.825	-12.61
353.041	12.58
353.257	10.25
353.474	0.76
353.69	25.56
353.906	-3.89
354.122	-28.88
354.339	74.77
354.555	15.87
354.771	-8.73
354.987	55.98
355.203	77.48
355.42	-8.15
355.636	3.47
355.852	-14.55
356.068	16.06
356.284	-47.87
356.5	60.05
356.716	10.06
356.932	7.15
357.148	27.88
357.364	13.55
357.58	35.05
357.796	56.75
358.012	69.73
358.228	39.31
358.444	-29.27
358.66	35.05
358.876	9.09
359.092	-12.8
359.308	0.76
359.524	23.62
359.74	8.31
359.956	3.47
360.172	2.12
360.388	26.14
360.604	3.67
360.819	79.23
361.035	16.45
361.251	59.85
361.467	-13
361.683	38.73
361.898	44.55
362.114	38.73
362.33	27.88
362.546	45.51
362.762	2.31
362.977	31.76
363.193	-9.7
363.409	24.59
363.624	-21.33
363.84	-1.76
364.056	13.74
364.271	46.29
364.487	26.91
364.703	8.51
364.918	-16.48
365.134	18.97
365.35	13.35
365.565	78.65
365.781	21.3
365.996	45.32
366.212	60.82
366.427	43.96
366.643	0.18
366.858	7.54
367.074	-20.55
367.289	34.66
367.505	92.21
367.72	-31.4
367.936	27.3
368.151	48.23
368.367	29.05
368.582	20.71
368.798	-1.18
369.013	73.03
369.228	25.56
369.444	9.86
369.659	72.83
369.874	52.88
370.09	42.03
370.305	-48.26
370.52	5.41
370.736	55.98
370.951	18.58
371.166	73.03
371.381	61.79
371.597	33.11
371.812	-5.63
372.027	-6.99
372.242	-6.02
372.458	88.72
372.673	-17.84
372.888	7.93
373.103	32.53
373.318	90.27
373.533	40.48
373.749	33.89
373.964	-11.06
374.179	64.89
374.394	19.55
374.609	67.6
374.824	-0.4
375.039	55.98
375.254	-7.57
375.469	72.45
375.684	10.25
375.899	42.8
376.114	18.58
376.329	44.35
376.544	55.78
376.759	51.33
376.974	-1.57
377.189	15.68
377.404	10.83
377.619	45.71
377.834	-24.43
378.049	-25.59
378.264	-7.38
378.478	40.48
378.693	11.8
378.908	63.15
379.123	29.82
379.338	55.78
379.553	43.96
379.767	32.92
379.982	53.85
380.197	65.08
380.412	17.42
380.626	41.45
380.841	88.72
381.056	50.75
381.271	69.54
381.485	-11.83
381.7	-0.21
381.915	28.85
382.129	27.69
382.344	39.9
382.559	29.24
382.773	70.9
382.988	-27.53
383.202	28.85
383.417	0.18
383.632	115.84
383.846	33.11
384.061	37.38
384.275	21.88
384.49	44.55
384.704	78.65
384.919	39.7
385.133	47.65
385.348	36.02
385.562	3.08
385.777	51.52
385.991	25.75
386.206	30.79
386.42	7.54
386.634	71.28
386.849	64.7
387.063	37.76
387.277	17.81
387.492	19.55
387.706	-11.25
387.92	5.02
388.135	63.73
388.349	38.73
388.563	22.85
388.778	48.81
388.992	54.43
389.206	34.28
389.42	106.74
389.635	44.93
389.849	67.02
390.063	90.66
390.277	61.01
390.491	108.09
390.706	53.65
390.92	67.6
391.134	55.98
391.348	56.36
391.562	23.43
391.776	45.71
391.99	30.21
392.205	76.13
392.419	31.95
392.633	40.28
392.847	63.92
393.061	30.21
393.275	93.37
393.489	59.85
393.703	41.25
393.917	76.9
394.131	37.76
394.345	44.35
394.559	66.05
394.773	38.54
394.986	54.04
395.2	55.4
395.414	87.36
395.628	37.96
395.842	44.35
396.056	37.18
396.27	-2.73
396.484	94.73
396.697	68.76
396.911	92.6
397.125	76.13
397.339	82.13
397.553	74.58
397.766	119.14
397.98	89.11
398.194	80
398.408	79.23
398.621	96.66
398.835	82.91
399.049	68.18
399.262	102.67
399.476	88.72
399.69	89.88
399.903	149.75
400.117	73.61
400.331	69.54
400.544	58.69
400.758	163.31
400.971	90.66
401.185	101.12
401.398	73.8
401.612	115.07
401.826	101.89
402.039	97.05
402.253	81.16
402.466	95.69
402.68	91.82
402.893	107.71
403.106	101.51
403.32	92.01
403.533	117.2
403.747	78.06
403.96	96.28
404.174	128.63
404.387	48.03
404.6	80
404.814	132.51
405.027	128.44
405.24	91.05
405.454	98.21
405.667	142.39
405.88	52.88
406.094	111.97
406.307	141.03
406.52	152.27
406.733	98.02
406.947	66.05
407.16	153.82
407.373	147.81
407.586	76.13
407.799	69.73
408.012	115.26
408.226	112.55
408.439	144.33
408.652	108.87
408.865	114.49
409.078	150.91
409.291	110.81
409.504	88.33
409.717	117.2
409.93	129.21
410.143	119.91
410.357	65.08
410.57	70.7
410.783	108.29
410.996	116.81
411.209	105.19
411.421	146.46
411.634	117.98
411.847	99.57
412.06	147.04
412.273	110.42
412.486	144.91
412.699	212.72
412.912	149.94
413.125	179.2
413.338	145.88
413.55	142.97
413.763	115.07
413.976	146.84
414.189	105.58
414.402	120.88
414.615	180.75
414.827	113.71
415.04	153.24
415.253	131.73
415.466	164.28
415.678	187.72
415.891	113.52
416.104	131.93
416.316	125.53
416.529	117.59
416.742	141.23
416.954	180.75
417.167	150.33
417.38	124.95
417.592	192.18
417.805	106.35
418.017	71.86
418.23	170.87
418.442	118.75
418.655	131.15
418.868	157.5
419.08	183.66
419.293	186.56
419.505	163.51
419.718	157.11
419.93	170.29
420.142	148.59
420.355	168.93
420.567	191.02
420.78	175.33
420.992	142
421.205	198.57
421.417	111.19
421.629	152.46
421.842	134.25
422.054	96.47
422.266	181.14
422.479	215.62
422.691	135.99
422.903	141.03
423.115	134.44
423.328	142.19
423.54	157.11
423.752	151.3
423.964	131.73
424.177	163.31
424.389	142.78
424.601	240.62
424.813	181.91
425.025	192.76
425.238	184.62
425.45	161.96
425.662	154.01
425.874	435.72
426.086	161.76
426.298	192.96
426.51	168.93
426.722	156.14
426.934	147.23
427.146	214.66
427.358	136.77
427.57	215.24
427.782	163.7
427.994	180.17
428.206	154.79
428.418	149.75
428.63	183.66
428.842	236.36
429.054	179.78
429.266	191.02
429.478	146.84
429.69	182.88
429.902	130.38
430.114	200.12
430.325	157.31
430.537	102.28
430.749	142
430.961	82.71
431.173	155.18
431.384	159.05
431.596	106.54
431.808	153.82
432.02	192.18
432.231	185.4
432.443	212.14
432.655	218.92
432.867	162.73
433.078	236.36
433.29	240.62
433.502	204.77
433.713	254.37
433.925	191.79
434.136	208.84
434.348	172.42
434.56	120.3
434.771	279.56
434.983	154.59
435.194	163.7
435.406	211.56
435.617	239.26
435.829	244.69
436.04	232.09
436.252	234.61
436.463	282.66
436.675	242.75
436.886	232.67
437.098	245.46
437.309	276.65
437.521	212.52
437.732	220.27
437.943	235.19
438.155	215.62
438.366	172.61
438.578	284.02
438.789	230.74
439	247.79
439.211	210.2
439.423	255.54
439.634	245.66
439.845	263.87
440.057	276.46
440.268	289.64
440.479	220.86
440.69	228.22
440.902	212.72
441.113	237.52
441.324	238.49
441.535	249.92
441.746	280.53
441.957	239.65
442.168	254.96
442.38	263.87
442.591	286.73
442.802	215.82
443.013	243.72
443.224	254.18
443.435	237.52
443.646	280.53
443.857	281.11
444.068	251.47
444.279	261.35
444.49	328.77
444.701	262.32
444.912	370.62
445.123	304.94
445.334	301.65
445.545	273.75
445.756	269.68
445.967	241.97
446.178	275.88
446.388	285.95
446.599	308.43
446.81	295.25
447.021	253.41
447.232	304.36
447.443	346.02
447.653	263.09
447.864	335.17
448.075	310.37
448.286	337.88
448.496	309.4
448.707	329.35
448.918	250.5
449.129	376.24
449.339	306.1
449.55	364.23
449.761	321.41
449.971	352.8
450.182	309.59
450.393	337.49
450.603	332.84
450.814	356.67
451.024	351.44
451.235	362.1
451.446	382.05
451.656	371.59
451.867	316.76
452.077	356.87
452.288	406.47
452.498	376.43
452.709	358.42
452.919	357.64
453.13	319.09
453.34	368.88
453.55	282.66
453.761	383.41
453.971	355.7
454.182	342.72
454.392	369.85
454.602	408.6
454.813	361.52
455.023	380.31
455.233	322.57
455.444	357.83
455.654	296.8
455.864	366.75
456.075	335.75
456.285	329.35
456.495	353.38
456.705	357.64
456.916	406.85
457.126	414.6
457.336	368.1
457.546	362.29
457.756	354.15
457.967	401.43
458.177	342.34
458.387	373.14
458.597	363.84
458.807	375.47
459.017	373.14
459.227	358.22
459.437	367.52
459.647	393.68
459.857	383.22
460.068	377.6
460.278	422.55
460.488	389.03
460.698	447.15
460.908	403.75
461.117	346.21
461.327	338.07
461.537	409.18
461.747	389.8
461.957	394.07
462.167	495.59
462.377	425.07
462.587	369.27
462.797	450.83
463.007	402.59
463.216	416.15
463.426	460.52
463.636	416.54
463.846	373.72
464.056	360.16
464.265	450.64
464.475	393.87
464.685	405.3
464.895	433.78
465.104	402.2
465.314	440.76
465.524	410.53
465.733	377.98
465.943	481.45
466.153	485.13
466.362	447.35
466.572	443.08
466.782	421.19
466.991	406.47
467.201	443.28
467.41	395.03
467.62	458.39
467.829	439.79
468.039	443.67
468.249	426.62
468.458	433.01
468.668	450.64
468.877	457.23
469.086	478.93
469.296	497.33
469.505	424.87
469.715	522.91
469.924	479.9
470.134	513.8
470.343	498.88
470.552	459.94
470.762	442.31
470.971	432.43
471.18	466.53
471.39	460.71
471.599	436.11
471.808	513.61
472.018	440.37
472.227	502.18
472.436	523.1
472.645	488.03
472.855	490.55
473.064	531.82
473.273	540.15
473.482	492.1
473.691	541.51
473.901	519.03
474.11	497.72
474.319	569.02
474.528	514.58
474.737	542.67
474.946	530.46
475.155	538.02
475.364	587.62
475.573	549.64
475.783	574.64
475.992	550.42
476.201	603.89
476.41	559.72
476.619	527.56
476.828	557.01
477.037	549.64
477.245	552.55
477.454	603.7
477.663	584.91
477.872	581.42
478.081	637.41
478.29	552.55
478.499	662.02
478.708	632.57
478.917	662.6
479.125	637.99
479.334	631.6
479.543	597.31
479.752	631.41
479.961	655.24
480.169	653.49
480.378	634.12
480.587	749.4
480.796	689.34
481.004	648.07
481.213	691.66
481.422	678.49
481.63	654.85
481.839	748.04
482.048	748.04
482.256	683.52
482.465	701.93
482.674	724.99
482.882	730.99
483.091	753.27
483.299	698.83
483.508	742.81
483.716	726.92
483.925	750.75
484.134	713.17
484.342	742.04
484.551	798.61
484.759	746.3
484.967	749.4
485.176	780.01
485.384	796.09
485.593	808.68
485.801	759.86
486.01	723.05
486.218	674.03
486.426	660.47
486.635	682.94
486.843	700.19
487.051	668.02
487.26	675.97
487.468	734.87
487.676	777.1
487.885	720.53
488.093	780.98
488.301	772.26
488.509	807.13
488.717	801.9
488.926	788.54
489.134	786.4
489.342	799.19
489.55	759.09
489.758	797.45
489.967	787.57
490.175	907.5
490.383	855.57
490.591	939.46
490.799	832.9
491.007	894.13
491.215	877.47
491.423	892.19
491.631	848.4
491.839	875.72
492.047	875.14
492.255	820.89
492.463	826.51
492.671	838.52
492.879	914.28
493.087	884.83
493.295	898.2
493.503	872.62
493.711	911.56
493.919	939.27
494.127	931.13
494.334	948.38
494.542	884.25
494.75	926.87
494.958	924.16
495.166	974.14
495.374	965.04
495.581	946.44
495.789	952.45
495.997	998.56
496.205	961.75
496.412	975.11
496.62	957.87
496.828	968.72
497.035	975.69
497.243	1020.06
497.451	1005.53
497.658	990.23
497.866	991.97
498.074	1049.51
498.281	976.08
498.489	1026.84
498.696	1022.58
498.904	983.06
499.112	983.44
499.319	1080.32
499.527	1026.65
499.734	1075.67
499.942	1011.54
500.149	990.61
500.357	1037.31
500.564	1037.11
500.771	1006.5
500.979	994.49
501.186	999.33
501.394	1023.74
501.601	1033.63
501.808	1053
502.016	1015.22
502.223	1030.14
502.43	1018.9
502.638	1009.6
502.845	1037.5
503.052	1103.96
503.26	1041.38
503.467	1167.12
503.674	1109.77
503.881	1103.57
504.089	1169.64
504.296	1094.27
504.503	1076.64
504.71	1105.12
504.917	1112.09
505.125	1141.16
505.332	1128.76
505.539	1173.51
505.746	1215.36
505.953	1205.67
506.16	1220.98
506.367	1241.71
506.574	1279.88
506.781	1275.62
506.988	1168.67
507.195	1221.95
507.402	1248.1
507.609	1268.83
507.816	1238.42
508.023	1268.83
508.23	1239.19
508.437	1221.56
508.644	1249.07
508.851	1297.7
509.058	1344.78
509.265	1306.81
509.472	1351.56
509.679	1427.32
509.885	1369.39
510.092	1384.7
510.299	1359.9
510.506	1355.63
510.713	1380.05
510.92	1400.39
511.126	1399.42
511.333	1434.49
511.54	1447.86
511.746	1466.07
511.953	1487.19
512.16	1508.69
512.367	1440.11
512.573	1473.82
512.78	1473.82
512.987	1466.46
513.193	1464.33
513.4	1422.86
513.606	1492.23
513.813	1493
514.02	1497.65
514.226	1551.51
514.433	1543.18
514.639	1472.66
514.846	1547.64
515.052	1518.77
515.259	1534.07
515.465	1555.19
515.672	1580.57
515.878	1648.97
516.085	1593.55
516.291	1680.55
516.497	1615.84
516.704	1602.27
516.91	1588.71
517.117	1515.28
517.323	1468.98
517.529	1520.9
517.736	1504.43
517.942	1546.67
518.148	1597.04
518.354	1589.87
518.561	1628.24
518.767	1622.04
518.973	1653.23
519.179	1712.9
519.386	1678.61
519.592	1669.7
519.798	1710.19
520.004	1819.46
520.21	1792.34
520.417	1838.06
520.623	1842.91
520.829	1917.31
521.035	1891.93
521.241	1926.8
521.447	1923.12
521.653	2034.52
521.859	1923.89
522.065	1990.16
522.271	2054.48
522.477	2057
522.683	2073.27
522.889	2041.5
523.095	2050.41
523.301	2000.81
523.507	1998.1
523.713	2050.41
523.919	2019.22
524.125	2136.82
524.331	2113.77
524.537	2218.58
524.742	2232.15
524.948	2254.43
525.154	2268.18
525.36	2356.14
525.566	2245.9
525.772	2321.27
525.977	2207.93
526.183	2275.74
526.389	2274.77
526.595	2230.79
526.8	2207.35
527.006	2132.17
527.212	2080.25
527.417	2090.71
527.623	2070.37
527.829	2157.17
528.034	2210.25
528.24	2208.31
528.446	2263.15
528.651	2383.46
528.857	2361.18
529.062	2451.86
529.268	2408.65
529.473	2464.45
529.679	2475.69
529.884	2521.8
530.09	2500.1
530.295	2521.41
530.501	2492.54
530.706	2539.24
530.912	2475.69
531.117	2498.55
531.323	2521.22
531.528	2593.87
531.733	2606.85
531.939	2525.29
532.144	2568.88
532.35	2583.22
532.555	2607.24
532.76	2534.2
532.966	2561.13
533.171	2530.71
533.376	2443.72
533.581	2496.22
533.787	2535.36
533.992	2622.35
534.197	2590.58
534.402	2583.8
534.607	2613.63
534.813	2727.56
535.018	2622.35
535.223	2668.66
535.428	2712.83
535.633	2698.69
535.838	2746.74
536.043	2765.92
536.249	2838.57
536.454	2694.43
536.659	2775.8
536.864	2728.33
537.069	2696.75
537.274	2738.21
537.479	2711.67
537.684	2746.35
537.889	2669.63
538.094	2861.82
538.299	2753.52
538.504	2785.68
538.708	2803.31
538.913	2831.02
539.118	2799.05
539.323	2800.21
539.528	2778.13
539.733	2774.44
539.938	2787.23
540.142	2777.93
540.347	2741.31
540.552	2720.58
540.757	2715.55
540.962	2723.29
541.166	2697.14
541.371	2666.53
541.576	2705.08
541.781	2669.43
541.985	2768.63
542.19	2776.38
542.395	2850.39
542.599	2909.49
542.804	2839.35
543.008	2862.21
543.213	2796.14
543.418	2799.24
543.622	2873.84
543.827	2763.98
544.031	2924.21
544.236	2928.09
544.44	2898.64
544.645	2974.59
544.849	2885.07
545.054	2914.33
545.258	2978.27
545.463	2972.65
545.667	2856.79
545.872	2965.29
546.076	2965.09
546.281	2891.66
546.485	2924.6
546.689	2986.79
546.894	2978.65
547.098	2940.87
547.302	2930.8
547.507	2925.76
547.711	2927.7
547.915	2949.01
548.119	2898.83
548.324	2892.63
548.528	2961.02
548.732	2921.3
548.936	2979.23
549.141	3010.82
549.345	2935.25
549.549	2971.1
549.753	3049.37
549.957	3030.58
550.161	3048.21
550.366	3009.46
550.57	2988.15
550.774	2974.78
550.978	3026.32
551.182	3037.17
551.386	2955.21
551.59	3020.5
551.794	3005.97
551.998	3044.72
552.202	2980.59
552.406	2988.73
552.61	3064.87
552.814	3026.9
553.018	3063.13
553.222	2972.45
553.426	2978.07
553.63	3065.65
553.833	2992.6
554.037	2932.93
554.241	3013.33
554.445	2994.93
554.649	2976.33
554.853	2948.04
555.056	3033.1
555.26	3076.11
555.464	2979.23
555.668	2991.63
555.871	3048.98
556.075	3056.15
556.279	2992.8
556.483	2937.19
556.686	2965.87
556.89	2971.87
557.094	2961.99
557.297	2899.41
557.501	2937.19
557.704	2830.05
557.908	2927.89
558.112	2845.55
558.315	2933.32
558.519	2888.56
558.722	2845.74
558.926	2846.91
559.129	2758.94
559.333	2784.71
559.536	2816.1
559.74	2754.88
559.943	2768.83
560.147	2763.21
560.35	2746.54
560.553	2780.06
560.757	2738.79
560.96	2838.57
561.164	2800.79
561.367	2887.98
561.57	2817.07
561.774	2798.28
561.977	2750.23
562.18	2766.11
562.384	2851.36
562.587	2761.46
562.79	2763.01
562.993	2744.41
563.197	2769.6
563.4	2787.62
563.603	2770.38
563.806	2792.85
564.009	2709.93
564.212	2733.95
564.416	2653.16
564.619	2725.43
564.822	2630.49
565.025	2698.88
565.228	2664.78
565.431	2707.6
565.634	2589.8
565.837	2614.02
566.04	2582.44
566.243	2592.52
566.446	2530.13
566.649	2589.03
566.852	2509.79
567.055	2547.76
567.258	2577.98
567.461	2598.52
567.664	2598.52
567.867	2497.19
568.07	2505.52
568.273	2567.91
568.475	2582.83
568.678	2499.32
568.881	2441.39
569.084	2464.84
569.287	2330.38
569.489	2400.51
569.692	2469.68
569.895	2457.09
570.098	2385.59
570.3	2379.2
570.503	2313.71
570.706	2311.39
570.909	2320.88
571.111	2273.41
571.314	2276.71
571.516	2261.6
571.719	2313.91
571.922	2261.4
572.124	2240.09
572.327	2292.21
572.529	2249
572.732	2253.26
572.935	2298.21
573.137	2325.73
573.34	2215.48
573.542	2291.43
573.745	2285.81
573.947	2251.52
574.15	2213.16
574.352	2202.5
574.554	2251.91
574.757	2193.4
574.959	2153.29
575.162	2171.31
575.364	2131.78
575.566	2211.03
575.769	2096.14
575.971	2116.48
576.173	2014.37
576.376	2117.83
576.578	2167.43
576.78	2174.99
576.982	2037.82
577.185	2087.03
577.387	2063.97
577.589	2081.99
577.791	2096.52
577.993	2114.35
578.196	2076.18
578.398	2072.69
578.6	2058.35
578.802	2002.17
579.004	2002.17
579.206	2014.57
579.408	2054.09
579.61	2001.78
579.812	2075.02
580.014	1997.91
580.216	2013.41
580.418	1994.22
580.62	2028.32
580.822	2004.49
581.024	2044.21
581.226	2039.95
581.428	2029.1
581.63	2131.4
581.832	2019.02
582.034	2090.13
582.236	2041.11
582.438	2088.19
582.64	2136.24
582.841	2096.52
583.043	2167.05
583.245	2095.94
583.447	2100.59
583.649	2073.85
583.85	2080.83
584.052	2135.08
584.254	2017.28
584.456	2102.14
584.657	2003.72
584.859	2059.71
585.061	2043.44
585.262	2021.93
585.464	1969.23
585.666	2067.65
585.867	1953.54
586.069	2051.38
586.27	1984.34
586.472	1991.12
586.674	1977.76
586.875	1953.15
587.077	1987.06
587.278	2023.87
587.48	1960.51
587.681	2090.52
587.883	1982.99
588.084	1919.83
588.285	1908.78
588.487	1877.01
588.688	1876.62
588.89	1819.27
589.091	1784.4
589.292	1750.49
589.494	1734.22
589.695	1618.94
589.896	1569.14
590.098	1604.4
590.299	1676.09
590.5	1635.21
590.702	1681.32
590.903	1704.96
591.104	1790.98
591.305	1755.91
591.507	1810.16
591.708	1771.61
591.909	1734.02
592.11	1829.35
592.311	1792.73
592.512	1766.18
592.714	1719.68
592.915	1767.15
593.116	1767.15
593.317	1758.05
593.518	1754.56
593.719	1795.05
593.92	1759.01
594.121	1808.03
594.322	1770.83
594.523	1760.76
594.724	1716
594.925	1740.8
595.126	1787.69
595.327	1754.75
595.528	1788.27
595.729	1746.62
595.929	1754.75
596.13	1744.48
596.331	1802.8
596.532	1770.64
596.733	1843.88
596.934	1796.02
597.135	1819.27
597.335	1815.01
597.536	1738.87
597.737	1739.83
597.938	1744.68
598.138	1801.83
598.339	1766.38
598.54	1780.13
598.74	1725.3
598.941	1755.91
599.142	1851.24
599.342	1765.21
599.543	1760.56
599.744	1755.33
599.944	1750.49
600.145	1770.45
600.345	1749.13
600.546	1808.03
600.746	1858.79
600.947	1847.94
601.147	1790.79
601.348	1813.65
601.548	1734.99
601.749	1740.42
601.949	1737.32
602.15	1721.62
602.35	1719.1
602.551	1793.89
602.751	1715.23
602.951	1725.3
603.152	1696.24
603.352	1790.21
603.552	1753.59
603.753	1799.9
603.953	1763.08
604.153	1767.93
604.354	1760.37
604.554	1745.07
604.754	1761.15
604.954	1716
605.155	1784.4
605.355	1749.52
605.555	1783.81
605.755	1771.8
605.955	1750.1
606.155	1767.73
606.356	1742.93
606.556	1746.23
606.756	1734.02
606.956	1690.62
607.156	1796.99
607.356	1684.81
607.556	1729.37
607.756	1707.09
607.956	1744.87
608.156	1724.92
608.356	1646.06
608.556	1709.61
608.756	1668.92
608.956	1662.92
609.156	1693.14
609.356	1648.97
609.556	1644.32
609.755	1659.62
609.955	1664.66
610.155	1635.02
610.355	1661.37
610.555	1619.52
610.755	1653.62
610.954	1598.79
611.154	1610.8
611.354	1689.07
611.554	1591.42
611.753	1642.19
611.953	1559.26
612.153	1627.85
612.352	1603.44
612.552	1557.91
612.752	1540.86
612.951	1575.15
613.151	1577.28
613.351	1535.04
613.55	1565.66
613.75	1588.13
613.949	1561.2
614.149	1561.39
614.348	1555.19
614.548	1551.12
614.747	1488.54
614.947	1539.69
615.146	1486.03
615.346	1558.29
615.545	1573.79
615.745	1558.68
615.944	1546.09
616.144	1523.22
616.343	1521.67
616.542	1494.16
616.742	1525.55
616.941	1490.09
617.14	1435.84
