Data from gum_young_FLMT105791__121__17-40-49-040.txt Node

Date: Mon Mar 20 17:40:49 GMT 2023
User: antho
Spectrometer: FLMT10579
Trigger mode: 0
Integration Time (sec): 1.000000E-1
Scans to average: 10
Electric dark correction enabled: true
Nonlinearity correction enabled: false
Boxcar width: 0
XAxis mode: Wavelengths
Number of Pixels in Spectrum: 3648
>>>>>Begin Spectral Data<<<<<
345.248	-150.51
345.464	-150.51
345.681	-150.51
345.898	-151.87
346.114	-120.09
346.331	-33.1
346.548	15.92
346.764	-5.78
346.981	4.29
347.197	-5.01
347.414	4.1
347.631	-10.82
347.847	38.2
348.064	-25.74
348.28	43.24
348.497	-38.72
348.713	13.4
348.93	27.35
349.146	32.58
349.363	-6.36
349.579	25.8
349.796	11.66
350.012	-21.28
350.229	14.95
350.445	18.05
350.661	4.68
350.878	21.93
351.094	37.23
351.311	27.93
351.527	46.53
351.743	7.98
351.96	38.78
352.176	30.45
352.392	18.63
352.609	30.06
352.825	26.77
353.041	15.73
353.257	22.31
353.474	27.16
353.69	30.26
353.906	30.64
354.122	-9.27
354.339	51.96
354.555	18.63
354.771	19.21
354.987	55.06
355.203	64.16
355.42	-2.68
355.636	-3.84
355.852	-11.01
356.068	29.09
356.284	0.61
356.5	44.01
356.716	36.07
356.932	-1.71
357.148	59.51
357.364	9.53
357.58	25.41
357.796	54.09
358.012	29.87
358.228	24.44
358.444	-42.79
358.66	57.58
358.876	27.16
359.092	6.62
359.308	27.93
359.524	28.13
359.74	13.98
359.956	-21.86
360.172	23.86
360.388	45.76
360.604	3.13
360.819	85.67
361.035	38.59
361.251	62.42
361.467	5.07
361.683	67.46
361.898	20.96
362.114	39.36
362.33	28.71
362.546	51.57
362.762	29.29
362.977	32.39
363.193	-19.34
363.409	70.36
363.624	7.01
363.84	9.14
364.056	18.44
364.271	57.96
364.487	12.43
364.703	-2.87
364.918	-20.5
365.134	25.99
365.35	25.03
365.565	113.37
365.781	45.18
365.996	49.24
366.212	64.36
366.427	53.31
366.643	0.81
366.858	22.7
367.074	7.01
367.289	56.61
367.505	134.11
367.72	-13.34
367.936	9.33
368.151	72.88
368.367	26.19
368.582	29.29
368.798	8.17
369.013	61.06
369.228	21.54
369.444	46.92
369.659	65.71
369.874	45.76
370.09	67.07
370.305	-48.99
370.52	18.05
370.736	61.06
370.951	19.99
371.166	60.87
371.381	76.76
371.597	71.53
371.812	18.44
372.027	-3.84
372.242	32.78
372.458	114.92
372.673	36.84
372.888	34.13
373.103	68.23
373.318	108.72
373.533	54.28
373.749	28.32
373.964	-17.79
374.179	86.83
374.394	-3.07
374.609	66.49
374.824	5.46
375.039	68.23
375.254	7.59
375.469	63
375.684	27.93
375.899	89.74
376.114	33.16
376.329	56.22
376.544	66.88
376.759	50.79
376.974	1.19
377.189	31.03
377.404	12.43
377.619	100.97
377.834	-0.55
378.049	-6.75
378.264	10.49
378.478	37.62
378.693	28.51
378.908	35.68
379.123	29.48
379.338	61.84
379.553	30.26
379.767	38.78
379.982	47.69
380.197	64.55
380.412	43.43
380.626	53.89
380.841	92.64
381.056	59.71
381.271	77.92
381.485	13.4
381.7	6.23
381.915	38.2
382.129	20.57
382.344	76.56
382.559	18.83
382.773	88.19
382.988	-11.4
383.202	37.43
383.417	6.23
383.632	119.77
383.846	9.33
384.061	26.38
384.275	25.61
384.49	66.68
384.704	39.75
384.919	46.34
385.133	51.18
385.348	65.52
385.562	35.49
385.777	58.16
385.991	29.48
386.206	11.85
386.42	63.97
386.634	69.2
386.849	32.78
387.063	56.8
387.277	2.36
387.492	26.58
387.706	24.44
387.92	9.33
388.135	62.23
388.349	58.74
388.563	39.36
388.778	38.78
388.992	72.49
389.206	75.21
389.42	95.55
389.635	35.88
389.849	81.02
390.063	85.09
390.277	68.62
390.491	113.57
390.706	59.32
390.92	81.41
391.134	52.73
391.348	78.11
391.562	30.26
391.776	59.51
391.99	16.11
392.205	70.94
392.419	28.51
392.633	49.63
392.847	113.18
393.061	25.8
393.275	71.91
393.489	67.65
393.703	80.05
393.917	81.99
394.131	39.36
394.345	45.18
394.559	94.58
394.773	43.43
394.986	61.06
395.2	67.84
395.414	104.46
395.628	51.96
395.842	62.81
396.056	59.9
396.27	8.94
396.484	61.84
396.697	64.36
396.911	97.68
397.125	83.73
397.339	80.44
397.553	56.99
397.766	118.99
397.98	107.56
398.194	94
398.408	58.93
398.621	92.64
398.835	104.66
399.049	100.78
399.262	116.09
399.476	100.97
399.69	114.34
399.903	154.64
400.117	71.14
400.331	124.22
400.544	98.07
400.758	195.72
400.971	98.07
401.185	108.34
401.398	70.75
401.612	146.51
401.826	104.46
402.039	112.99
402.253	69.01
402.466	144.96
402.68	75.21
402.893	117.25
403.106	93.42
403.32	116.47
403.533	130.42
403.747	117.06
403.96	107.95
404.174	121.9
404.387	74.04
404.6	112.21
404.814	128.68
405.027	126.55
405.24	104.27
405.454	102.14
405.667	164.52
405.88	64.16
406.094	120.74
406.307	129.84
406.52	137.59
406.733	94.58
406.947	62.03
407.16	178.47
407.373	142.82
407.586	81.6
407.799	81.41
408.012	125.39
408.226	115.51
408.439	158.13
408.652	65.91
408.865	114.73
409.078	177.89
409.291	132.17
409.504	92.84
409.717	143.99
409.93	131.2
410.143	114.54
410.357	58.16
410.57	106.79
410.783	115.51
410.996	140.89
411.209	109.89
411.421	175.37
411.634	149.22
411.847	117.64
412.06	108.72
412.273	144.37
412.486	142.44
412.699	201.92
412.912	120.74
413.125	176.73
413.338	132.75
413.55	180.99
413.763	120.93
413.976	161.23
414.189	112.99
414.402	129.26
414.615	188.55
414.827	105.04
415.04	181.19
415.253	144.96
415.466	174.6
415.678	194.75
415.891	140.69
416.104	152.12
416.316	126.55
416.529	160.84
416.742	169.75
416.954	188.94
417.167	158.13
417.38	120.35
417.592	168.59
417.805	120.74
418.017	123.84
418.23	181.57
418.442	134.88
418.655	178.47
418.868	154.45
419.08	169.17
419.293	208.31
419.505	183.12
419.718	173.24
419.93	180.02
420.142	125
420.355	204.24
420.567	197.27
420.78	193.78
420.992	159.68
421.205	219.74
421.417	155.22
421.629	170.92
421.842	146.12
422.054	122.67
422.266	178.86
422.479	216.45
422.691	152.32
422.903	199.4
423.115	154.45
423.328	120.93
423.54	158.52
423.752	159.1
423.964	158.52
424.177	206.95
424.389	147.86
424.601	247.25
424.813	176.73
425.025	186.03
425.238	229.24
425.45	162.2
425.662	178.67
425.874	444.1
426.086	175.37
426.298	201.53
426.51	191.84
426.722	187.97
426.934	185.45
427.146	218
427.358	141.66
427.57	230.98
427.782	193.78
427.994	184.09
428.206	175.76
428.418	156.19
428.63	196.88
428.842	217.8
429.054	217.42
429.266	201.92
429.478	160.45
429.69	176.92
429.902	146.7
430.114	181.96
430.325	184.87
430.537	149.8
430.749	148.44
430.961	124.42
431.173	149.22
431.384	192.81
431.596	115.31
431.808	162.2
432.02	219.16
432.231	191.65
432.443	257.91
432.655	220.32
432.867	205.6
433.078	200.37
433.29	277.09
433.502	249.38
433.713	246.48
433.925	233.69
434.136	242.99
434.348	202.89
434.56	149.8
434.771	289.68
434.983	174.21
435.194	195.33
435.406	205.99
435.617	251.13
435.829	240.86
436.04	262.56
436.252	237.37
436.463	265.27
436.675	253.84
436.886	245.7
437.098	261.2
437.309	319.72
437.521	234.47
437.732	247.06
437.943	238.15
438.155	215.48
438.366	202.69
438.578	287.94
438.789	269.92
439	256.75
439.211	236.21
439.423	265.27
439.634	246.09
439.845	256.36
440.057	267.79
440.268	272.25
440.479	247.45
440.69	279.03
440.902	243.19
441.113	255
441.324	247.06
441.535	273.8
441.746	306.35
441.957	219.35
442.168	246.87
442.38	290.07
442.591	305.57
442.802	271.28
443.013	271.86
443.224	309.45
443.435	295.88
443.646	287.75
443.857	278.06
444.068	277.48
444.279	277.67
444.49	361.18
444.701	293.56
444.912	382.3
445.123	311.97
445.334	342.58
445.545	308.48
445.756	295.88
445.967	264.11
446.178	315.07
446.388	325.33
446.599	309.06
446.81	328.05
447.021	287.17
447.232	322.62
447.443	374.35
447.653	312.35
447.864	372.8
448.075	338.9
448.286	349.55
448.496	325.14
448.707	371.83
448.918	327.08
449.129	389.27
449.339	312.16
449.55	349.55
449.761	348.39
449.971	401.28
450.182	344.71
450.393	365.25
450.603	332.7
450.814	394.89
451.024	350.71
451.235	402.64
451.446	389.66
451.656	409.81
451.867	369.31
452.077	382.3
452.288	428.99
452.498	419.11
452.709	369.12
452.919	371.64
453.13	321.65
453.34	395.66
453.55	317.39
453.761	416.78
453.971	375.13
454.182	418.14
454.392	388.88
454.602	437.13
454.813	389.66
455.023	418.33
455.233	351.1
455.444	374.16
455.654	352.07
455.864	389.66
456.075	376.87
456.285	359.05
456.495	387.53
456.705	419.3
456.916	436.54
457.126	433.83
457.336	391.01
457.546	346.06
457.756	388.5
457.967	422.98
458.177	409.61
458.387	408.26
458.597	387.14
458.807	397.99
459.017	415.04
459.227	400.31
459.437	396.25
459.647	437.51
459.857	410.78
460.068	388.69
460.278	436.35
460.488	416.78
460.698	472.78
460.908	427.44
461.117	395.47
461.327	382.68
461.537	447.59
461.747	428.41
461.957	415.43
462.167	530.71
462.377	456.5
462.587	441.19
462.797	461.54
463.007	459.99
463.216	488.86
463.426	500.68
463.636	484.21
463.846	400.31
464.056	406.71
464.265	485.56
464.475	431.7
464.685	449.72
464.895	466.58
465.104	433.06
465.314	460.76
465.524	435.58
465.733	416.2
465.943	521.79
466.153	508.43
466.362	516.56
466.572	468.71
466.782	472.58
466.991	474.13
467.201	510.17
467.41	418.72
467.62	486.34
467.829	477.81
468.039	471.23
468.249	470.26
468.458	468.32
468.668	478.78
468.877	517.53
469.086	530.9
469.296	520.44
469.505	471.61
469.715	559.38
469.924	510.94
470.134	533.61
470.343	531.87
470.552	493.12
470.762	488.66
470.971	468.13
471.18	503.39
471.39	488.47
471.599	494.28
471.808	520.05
472.018	506.1
472.227	563.64
472.436	548.53
472.645	532.64
472.855	535.74
473.064	589.61
473.273	534.58
473.482	590.96
473.691	598.13
473.901	560.93
474.11	538.46
474.319	638.82
474.528	558.61
474.737	622.35
474.946	569.26
475.155	582.05
475.364	604.91
475.573	614.4
475.783	591.16
475.992	611.3
476.201	647.34
476.41	599.49
476.619	547.76
476.828	616.92
477.037	605.49
477.245	598.52
477.454	651.02
477.663	612.27
477.872	628.55
478.081	697.72
478.29	617.31
478.499	715.73
478.708	671.37
478.917	737.43
479.125	649.09
479.334	681.05
479.543	672.14
479.752	662.84
479.961	683.96
480.169	727.17
480.378	680.28
480.587	853.1
480.796	717.67
481.004	725.62
481.213	748.28
481.422	725.62
481.63	747.32
481.839	799.05
482.048	810.67
482.256	783.74
482.465	798.85
482.674	810.86
482.882	817.65
483.091	854.46
483.299	797.11
483.508	803.7
483.716	807.18
483.925	820.36
484.134	790.71
484.342	775.99
484.551	804.28
484.759	824.62
484.967	836.25
485.176	839.54
485.384	832.56
485.593	843.61
485.801	829.08
486.01	780.64
486.218	748.67
486.426	728.52
486.635	726.39
486.843	722.71
487.051	744.6
487.26	722.13
487.468	766.3
487.676	806.6
487.885	797.69
488.093	839.35
488.301	844.77
488.509	836.63
488.717	876.35
488.926	844.58
489.134	885.65
489.342	856.98
489.55	829.85
489.758	871.89
489.967	877.9
490.175	985.82
490.383	916.84
490.591	975.36
490.799	900.96
491.007	961.21
491.215	958.31
491.423	921.88
491.631	940.68
491.839	950.94
492.047	948.04
492.255	900.18
492.463	856.78
492.671	928.28
492.879	960.05
493.087	938.35
493.295	950.36
493.503	957.34
493.711	1005.77
493.919	1009.07
494.127	1023.41
494.334	1030.57
494.542	945.13
494.75	1019.34
494.958	1002.09
495.166	1059.25
495.374	1059.83
495.581	1048.01
495.789	1065.25
495.997	1111.37
496.205	1043.55
496.412	1035.03
496.62	1073.2
496.828	1105.36
497.035	1057.12
497.243	1109.82
497.451	1101.49
497.658	1072.42
497.866	1097.42
498.074	1150.5
498.281	1047.43
498.489	1132.48
498.696	1100.71
498.904	1099.74
499.112	1091.6
499.319	1186.73
499.527	1119.7
499.734	1163.1
499.942	1079.79
500.149	1101.87
500.357	1154.57
500.564	1091.99
500.771	1135.2
500.979	1085.02
501.186	1109.24
501.394	1138.3
501.601	1089.28
501.808	1136.36
502.016	1099.74
502.223	1087.92
502.43	1120.67
502.638	1146.05
502.845	1127.83
503.052	1197.2
503.26	1144.5
503.467	1238.08
503.674	1204.17
503.881	1203.98
504.089	1251.06
504.296	1223.16
504.503	1150.12
504.71	1178.4
504.917	1160.58
505.125	1211.92
505.332	1189.25
505.539	1251.83
505.746	1297.94
505.953	1285.74
506.16	1308.21
506.367	1334.95
506.574	1365.37
506.781	1378.54
506.988	1312.67
507.195	1309.96
507.402	1331.08
507.609	1372.34
507.816	1320.61
508.023	1340.57
508.23	1333.01
508.437	1305.31
508.644	1355.68
508.851	1396.56
509.058	1392.69
509.265	1388.23
509.472	1456.43
509.679	1531.6
509.885	1443.45
510.092	1431.24
510.299	1443.45
510.506	1491.11
510.713	1475.8
510.92	1467.67
511.126	1514.94
511.333	1518.43
511.54	1517.27
511.746	1585.66
511.953	1588.95
512.16	1644.56
512.367	1547.49
512.573	1557.57
512.78	1576.17
512.987	1569.97
513.193	1569
513.4	1529.86
513.606	1584.69
513.813	1625.18
514.02	1631.19
514.226	1677.69
514.433	1669.16
514.639	1645.72
514.846	1640.88
515.052	1631.77
515.259	1686.02
515.465	1703.65
515.672	1720.7
515.878	1779.02
516.085	1738.72
516.291	1797.43
516.497	1696.87
516.704	1692.8
516.91	1647.08
517.117	1653.86
517.323	1575.78
517.529	1570.55
517.736	1600.97
517.942	1655.6
518.148	1669.36
518.354	1721.67
518.561	1735.43
518.767	1691.06
518.973	1746.66
519.179	1814.09
519.386	1818.16
519.592	1781.15
519.798	1822.42
520.004	1938.28
520.21	1905.15
520.417	2006.48
520.623	2006.28
520.829	2039.42
521.035	2035.93
521.241	2030.7
521.447	2092.89
521.653	2218.44
521.859	2074.68
522.065	2122.53
522.271	2211.66
522.477	2166.9
522.683	2221.93
522.889	2196.54
523.095	2182.01
523.301	2167.68
523.507	2134.16
523.713	2197.9
523.919	2175.81
524.125	2278.89
524.331	2249.63
524.537	2357.94
524.742	2369.56
524.948	2394.36
525.154	2408.5
525.36	2468.18
525.566	2404.05
525.772	2494.72
525.977	2371.5
526.183	2435.82
526.389	2436.4
526.595	2337.21
526.8	2345.73
527.006	2251.38
527.212	2193.44
527.417	2223.48
527.623	2224.64
527.829	2303.3
528.034	2369.17
528.24	2411.02
528.446	2463.72
528.651	2535.99
528.857	2536.38
529.062	2585.78
529.268	2596.25
529.473	2654.95
529.679	2618.91
529.884	2633.64
530.09	2658.63
530.295	2625.89
530.501	2653.01
530.706	2665.99
530.912	2676.26
531.117	2700.29
531.323	2694.09
531.528	2794.45
531.733	2761.71
531.939	2683.24
532.144	2733.81
532.35	2711.14
532.555	2796.97
532.76	2715.21
532.966	2718.69
533.171	2688.66
533.376	2662.7
533.581	2609.03
533.787	2680.53
533.992	2738.46
534.197	2741.36
534.402	2750.66
534.607	2785.15
534.813	2864
535.018	2757.83
535.223	2843.85
535.428	2841.53
535.633	2914.38
535.838	2924.26
536.043	2934.14
536.249	3004.47
536.454	2947.32
536.659	2953.71
536.864	2916.12
537.069	2882.41
537.274	2917.87
537.479	2930.07
537.684	2918.83
537.889	2850.25
538.094	3001.18
538.299	2931.82
538.504	2996.72
538.708	2944.02
538.913	3020.55
539.118	2977.73
539.323	2992.46
539.528	2932.01
539.733	2933.17
539.938	2951.58
540.142	2910.5
540.347	2926.2
540.552	2909.73
540.757	2880.47
540.962	2872.33
541.166	2839.4
541.371	2795.8
541.576	2863.42
541.781	2811.5
541.985	2977.93
542.19	2889.19
542.395	3019.97
542.599	3050.19
542.804	3007.57
543.008	3032.56
543.213	2982
543.418	2941.5
543.622	2993.43
543.827	2942.67
544.031	3022.3
544.236	3062.01
544.44	3039.73
544.645	3108.32
544.849	3045.74
545.054	3079.84
545.258	3110.64
545.463	3148.42
545.667	3019.97
545.872	3115.29
546.076	3095.34
546.281	3098.44
546.485	3055.43
546.689	3067.63
546.894	3092.24
547.098	3114.52
547.302	3090.11
547.507	3132.34
547.711	3123.63
547.915	3109.87
548.119	3052.71
548.324	3082.36
548.528	3159.86
548.732	3120.53
548.936	3174.97
549.141	3147.26
549.345	3168.19
549.549	3150.94
549.753	3146.1
549.957	3207.32
550.161	3209.46
550.366	3196.86
550.57	3157.72
550.774	3198.99
550.978	3154.43
551.182	3177.29
551.386	3161.6
551.59	3103.28
551.794	3195.31
551.998	3171.48
552.202	3173.42
552.406	3158.11
552.61	3255.95
552.814	3188.14
553.018	3234.06
553.222	3172.06
553.426	3151.52
553.63	3212.94
553.833	3184.46
554.037	3131.76
554.241	3184.85
554.445	3189.11
554.649	3227.09
554.853	3149.59
555.056	3227.09
555.26	3291.8
555.464	3220.3
555.668	3241.23
555.871	3233.09
556.075	3248.01
556.279	3123.04
556.483	3148.62
556.686	3171.67
556.89	3147.26
557.094	3156.56
557.297	3084.49
557.501	3159.66
557.704	3045.54
557.908	3114.91
558.112	3068.79
558.315	3108.9
558.519	3092.63
558.722	3026.95
558.926	3051.55
559.129	2969.01
559.333	2971.73
559.536	2946.15
559.74	2943.44
559.943	2905.27
560.147	2944.02
560.35	2975.02
560.553	2972.31
560.757	2939.95
560.96	3040.7
561.164	3015.13
561.367	3039.73
561.57	2987.81
561.774	3003.89
561.977	2906.63
562.18	2954.87
562.384	3037.41
562.587	2944.41
562.79	2918.06
562.993	2883.18
563.197	2972.11
563.4	2985.68
563.603	3006.21
563.806	3007.18
564.009	2902.75
564.212	2958.16
564.416	2851.41
564.619	2895.58
564.822	2806.07
565.025	2916.7
565.228	2859.55
565.431	2872.72
565.634	2776.62
565.837	2799.87
566.04	2799.1
566.243	2786.5
566.446	2642.16
566.649	2824.09
566.852	2690.21
567.055	2770.04
567.258	2726.44
567.461	2825.25
567.664	2769.26
567.867	2682.85
568.07	2760.74
568.273	2683.63
568.475	2769.07
568.678	2677.23
568.881	2643.91
569.084	2659.6
569.287	2542.58
569.489	2558.08
569.692	2601.28
569.895	2614.07
570.098	2520.88
570.3	2552.07
570.503	2486.58
570.706	2486
570.909	2498.21
571.111	2419.35
571.314	2424.39
571.516	2402.11
571.719	2423.42
571.922	2410.05
572.124	2404.44
572.327	2449.97
572.529	2403.85
572.732	2412.19
572.935	2479.42
573.137	2493.37
573.34	2409.28
573.542	2434.08
573.745	2416.25
573.947	2439.5
574.15	2360.84
574.352	2366.65
574.554	2436.21
574.757	2321.51
574.959	2306.4
575.162	2340.5
575.364	2295.16
575.566	2341.47
575.769	2226.58
575.971	2277.72
576.173	2133.38
576.376	2258.35
576.578	2306.4
576.78	2334.88
576.982	2185.89
577.185	2217.66
577.387	2213.79
577.589	2219.6
577.791	2256.61
577.993	2251.76
578.196	2214.18
578.398	2230.45
578.6	2270.36
578.802	2142.49
579.004	2133.77
579.206	2155.08
579.408	2184.14
579.61	2122.34
579.812	2238.98
580.014	2148.88
580.216	2140.16
580.418	2175.43
580.62	2120.4
580.822	2137.84
581.024	2185.11
581.226	2222.7
581.428	2197.9
581.63	2294.77
581.832	2155.47
582.034	2242.85
582.236	2243.04
582.438	2266.1
582.64	2239.36
582.841	2259.32
583.043	2317.25
583.245	2211.85
583.447	2282.96
583.649	2201.19
583.85	2258.16
584.052	2275.98
584.254	2167.87
584.456	2244.01
584.657	2158.76
584.859	2216.89
585.061	2168.26
585.262	2146.75
585.464	2128.54
585.666	2203.71
585.867	2126.21
586.069	2167.68
586.27	2146.17
586.472	2115.36
586.674	2114.4
586.875	2097.73
587.077	2093.28
587.278	2172.71
587.48	2122.73
587.681	2209.14
587.883	2123.89
588.084	2043.48
588.285	2093.08
588.487	2022.75
588.688	2062.28
588.89	1973.74
589.091	1898.95
589.292	1911.74
589.494	1848.96
589.695	1844.89
589.896	1756.16
590.098	1771.08
590.299	1801.88
590.5	1778.63
590.702	1830.36
590.903	1876.28
591.104	1913.29
591.305	1905.34
591.507	1950.68
591.708	1949.32
591.909	1901.66
592.11	1964.63
592.311	1945.25
592.512	1895.85
592.714	1869.89
592.915	1874.34
593.116	1886.16
593.317	1904.57
593.518	1900.5
593.719	1895.46
593.92	1954.17
594.121	1996.6
594.322	1938.47
594.523	1896.04
594.724	1850.32
594.925	1861.94
595.126	1868.92
595.327	1889.84
595.528	1913.29
595.729	1899.34
595.929	1867.76
596.13	1912.32
596.331	1886.55
596.532	1956.1
596.733	1961.34
596.934	1949.52
597.135	1934.21
597.335	1937.12
597.536	1879.38
597.737	1919.87
597.938	1921.81
598.138	1961.53
598.339	1921.23
598.54	1911.93
598.74	1865.82
598.941	1928.59
599.142	1955.14
599.342	1942.35
599.543	1853.03
599.744	1927.04
599.944	1900.11
600.145	1900.11
600.345	1897.21
600.546	1988.07
600.746	1930.53
600.947	1989.82
601.147	1905.15
601.348	1934.21
601.548	1877.25
601.749	1888.1
601.949	1861.56
602.15	1853.81
602.35	1857.87
602.551	1910.77
602.751	1826.1
602.951	1896.62
603.152	1795.29
603.352	1867.37
603.552	1889.65
603.753	1917.16
603.953	1946.03
604.153	1911.74
604.354	1919.29
604.554	1847.02
604.754	1874.73
604.954	1872.79
605.155	1929.17
605.355	1880.54
605.555	1922.78
605.755	1933.44
605.955	1886.16
606.155	1931.69
606.356	1867.95
606.556	1890.04
606.756	1872.02
606.956	1817.38
607.156	1938.47
607.356	1813.89
607.556	1866.21
607.756	1868.72
607.956	1909.22
608.156	1875.31
608.356	1785.61
608.556	1871.24
608.756	1841.21
608.956	1804.4
609.156	1797.43
609.356	1796.07
609.556	1767.39
609.755	1805.76
609.955	1762.36
610.155	1791.81
610.355	1810.21
610.555	1747.63
610.755	1733.68
610.954	1699.2
611.154	1777.86
611.354	1781.15
611.554	1773.59
611.753	1753.83
611.953	1687.96
612.153	1763.91
612.352	1754.99
612.552	1701.33
612.752	1648.24
612.951	1718.57
613.151	1691.06
613.351	1682.34
613.55	1677.3
613.75	1697.06
613.949	1647.08
614.149	1694.74
614.348	1691.06
614.548	1644.56
614.747	1628.48
614.947	1667.03
615.146	1621.7
615.346	1721.48
615.545	1691.06
615.745	1676.91
615.944	1686.02
616.144	1681.76
616.343	1688.93
616.542	1583.33
