Data from gum_young_FLMT105791__106__17-40-34-041.txt Node

Date: Mon Mar 20 17:40:34 GMT 2023
User: antho
Spectrometer: FLMT10579
Trigger mode: 0
Integration Time (sec): 1.000000E-1
Scans to average: 10
Electric dark correction enabled: true
Nonlinearity correction enabled: false
Boxcar width: 0
XAxis mode: Wavelengths
Number of Pixels in Spectrum: 3648
>>>>>Begin Spectral Data<<<<<
345.248	-134.49
345.464	-134.49
345.681	-134.49
345.898	-125.39
346.114	-144.57
346.331	-12.43
346.548	7.91
346.764	20.31
346.981	-15.34
347.197	-2.16
347.414	9.07
347.631	-34.52
347.847	69.91
348.064	4.62
348.28	26.9
348.497	-49.83
348.713	-24.44
348.93	31.55
349.146	5.2
349.363	12.56
349.579	32.71
349.796	-9.91
350.012	-5.46
350.229	33.1
350.445	17.79
350.661	-0.23
350.878	14.11
351.094	18.95
351.311	19.34
351.527	29.22
351.743	-6.81
351.96	26.7
352.176	63.13
352.392	41.62
352.609	30.97
352.825	7.14
353.041	27.67
353.257	-8.17
353.474	12.37
353.69	6.56
353.906	28.64
354.122	-11.08
354.339	44.53
354.555	8.88
354.771	-12.63
354.987	58.87
355.203	47.44
355.42	11.4
355.636	27.09
355.852	-10.88
356.068	33.49
356.284	-51.18
356.5	70.3
356.716	27.87
356.932	19.15
357.148	44.53
357.364	32.52
357.58	43.56
357.796	27.48
358.012	48.79
358.228	22.64
358.444	-44.4
358.66	41.82
358.876	34.26
359.092	6.94
359.308	3.46
359.524	26.7
359.74	-5.84
359.956	2.87
360.172	36
360.388	14.69
360.604	0.94
360.819	61.19
361.035	10.43
361.251	48.99
361.467	4.42
361.683	30
361.898	39.69
362.114	57.7
362.33	35.23
362.546	53.83
362.762	9.66
362.977	8.88
363.193	-2.55
363.409	46.08
363.624	-43.04
363.84	-13.4
364.056	5.39
364.271	9.07
364.487	27.09
364.703	-11.08
364.918	7.33
365.134	22.05
365.35	2.29
365.565	106.92
365.781	36.78
365.996	45.69
366.212	73.79
366.427	33.87
366.643	-9.33
366.858	-1
367.074	-26.96
367.289	74.17
367.505	106.14
367.72	-19.79
367.936	18.76
368.151	65.84
368.367	8.49
368.582	11.98
368.798	59.25
369.013	59.84
369.228	46.66
369.444	25.74
369.659	81.92
369.874	39.88
370.09	58.67
370.305	-23.67
370.52	20.5
370.736	57.7
370.951	4.04
371.166	62.55
371.381	65.07
371.597	95.68
371.812	21.67
372.027	7.91
372.242	24.19
372.458	76.5
372.673	19.73
372.888	20.12
373.103	46.47
373.318	99.36
373.533	50.34
373.749	50.15
373.964	-5.26
374.179	82.31
374.394	-15.92
374.609	88.12
374.824	-9.72
375.039	61.77
375.254	11.98
375.469	71.07
375.684	37.36
375.899	75.72
376.114	42.98
376.329	40.85
376.544	78.44
376.759	62.55
376.974	5.59
377.189	31.94
377.404	33.1
377.619	46.27
377.834	-35.49
378.049	7.14
378.264	11.21
378.478	61
378.693	-17.47
378.908	61.77
379.123	36.59
379.338	56.15
379.553	27.67
379.767	28.45
379.982	15.66
380.197	45.5
380.412	39.49
380.626	59.45
380.841	90.45
381.056	58.87
381.271	98.39
381.485	0.94
381.7	19.34
381.915	58.87
382.129	3.84
382.344	42.59
382.559	36
382.773	47.63
382.988	-13.01
383.202	23.6
383.417	-10.69
383.632	103.62
383.846	32.52
384.061	9.66
384.275	20.5
384.49	68.55
384.704	68.75
384.919	35.23
385.133	24.57
385.348	65.07
385.562	3.46
385.777	67.39
385.991	48.99
386.206	17.79
386.42	16.24
386.634	78.63
386.849	48.21
387.063	49.18
387.277	17.02
387.492	11.98
387.706	4.42
387.92	18.18
388.135	61
388.349	58.87
388.563	38.72
388.778	69.14
388.992	51.31
389.206	60.8
389.42	117.96
389.635	30.19
389.849	64.1
390.063	94.32
390.277	46.85
390.491	114.86
390.706	79.6
390.92	73.2
391.134	63.9
391.348	79.99
391.562	10.62
391.776	53.05
391.99	22.44
392.205	64.1
392.419	30.39
392.633	56.54
392.847	87.35
393.061	28.84
393.275	82.5
393.489	36.78
393.703	67.97
393.917	50.34
394.131	41.43
394.345	61.39
394.559	55.96
394.773	49.18
394.986	68.17
395.2	58.87
395.414	93.35
395.628	25.93
395.842	84.64
396.056	51.5
396.27	-1
396.484	72.43
396.697	83.47
396.911	94.52
397.125	75.72
397.339	64.29
397.553	69.33
397.766	104.2
397.98	68.55
398.194	116.02
398.408	46.85
398.621	93.35
398.835	114.67
399.049	91.42
399.262	89.29
399.476	115.05
399.69	80.76
399.903	147.02
400.117	85.22
400.331	96.45
400.544	57.9
400.758	170.85
400.971	106.33
401.185	117.96
401.398	68.75
401.612	125.71
401.826	123.77
402.039	134.23
402.253	73.98
402.466	111.37
402.68	45.69
402.893	114.08
403.106	72.04
403.32	96.84
403.533	122.61
403.747	112.34
403.96	118.73
404.174	137.53
404.387	67.2
404.6	82.5
404.814	127.84
405.027	111.76
405.24	79.02
405.454	100.33
405.667	113.31
405.88	59.64
406.094	101.69
406.307	141.4
406.52	112.73
406.733	62.35
406.947	78.82
407.16	135.98
407.373	157.87
407.586	83.47
407.799	88.12
408.012	149.93
408.226	120.87
408.439	147.6
408.652	95.49
408.865	123
409.078	152.06
409.291	118.35
409.504	111.18
409.717	122.8
409.93	145.67
410.143	130.94
410.357	77.47
410.57	81.34
410.783	102.07
410.996	124.16
411.209	108.08
411.421	153.61
411.634	123.77
411.847	113.12
412.06	142.37
412.273	137.14
412.486	138.5
412.699	207.86
412.912	145.86
413.125	152.06
413.338	117.18
413.55	155.93
413.763	121.83
413.976	155.74
414.189	106.72
414.402	138.5
414.615	183.06
414.827	116.22
415.04	159.62
415.253	164.27
415.466	176.08
415.678	200.88
415.891	142.18
416.104	146.83
416.316	116.22
416.529	106.53
416.742	177.44
416.954	202.05
417.167	138.5
417.38	152.64
417.592	164.07
417.805	104.59
418.017	101.88
418.23	173.95
418.442	136.75
418.655	132.3
418.868	163.88
419.08	168.14
419.293	178.02
419.505	177.25
419.718	138.5
419.93	148.57
420.142	133.07
420.355	207.86
420.567	185.58
420.78	150.51
420.992	139.66
421.205	183.64
421.417	123.58
421.629	143.15
421.842	133.46
422.054	99.17
422.266	186.35
422.479	191.58
422.691	162.33
422.903	177.63
423.115	146.83
423.328	155.16
423.54	147.22
423.752	164.27
423.964	118.93
424.177	169.11
424.389	144.7
424.601	244.09
424.813	189.84
425.025	167.37
425.238	202.43
425.45	173.57
425.662	149.93
425.874	436.29
426.086	147.41
426.298	211.93
426.51	204.76
426.722	176.67
426.934	157.1
427.146	202.24
427.358	165.43
427.57	191.97
427.782	198.17
427.994	178.41
428.206	139.66
428.418	139.08
428.63	190.81
428.842	194.68
429.054	190.42
429.266	187.9
429.478	126.1
429.69	196.62
429.902	131.13
430.114	185.97
430.325	190.23
430.537	148.18
430.749	150.9
430.961	124.74
431.173	117.96
431.384	152.83
431.596	125.32
431.808	179.96
432.02	162.33
432.231	227.04
432.443	220.65
432.655	205.53
432.867	174.73
433.078	217.93
433.29	267.34
433.502	229.75
433.713	226.07
433.925	204.76
434.136	218.51
434.348	167.75
434.56	153.61
434.771	253.97
434.983	157.1
435.194	172.79
435.406	196.23
435.617	283.23
435.829	256.1
436.04	252.23
436.252	257.46
436.463	256.49
436.675	264.05
436.886	234.21
437.098	242.93
437.309	290.39
437.521	228.98
437.732	278.19
437.943	234.6
438.155	238.28
438.366	189.84
438.578	276.83
438.789	229.36
439	256.3
439.211	232.85
439.423	239.63
439.634	251.65
439.845	272.57
440.057	230.14
440.268	288.46
440.479	244.86
440.69	252.81
440.902	224.52
441.113	237.5
441.324	248.93
441.535	271.6
441.746	299.11
441.957	244.48
442.168	253.97
442.38	278.96
442.591	287.88
442.802	258.43
443.013	259.98
443.224	279.74
443.435	263.08
443.646	265.6
443.857	261.33
444.068	251.26
444.279	296.79
444.49	319.84
444.701	264.43
444.912	378.16
445.123	343.09
445.334	317.13
445.545	294.85
445.756	294.46
445.967	250.68
446.178	293.88
446.388	316.94
446.599	293.88
446.81	307.06
447.021	302.21
447.232	328.56
447.443	346.19
447.653	282.84
447.864	327.01
448.075	306.09
448.286	311.32
448.496	299.69
448.707	362.86
448.918	286.91
449.129	398.7
449.339	291.75
449.55	345.61
449.761	315.78
449.971	374.29
450.182	332.44
450.393	358.59
450.603	334.18
450.814	364.02
451.024	353.36
451.235	377.58
451.446	389.01
451.656	373.51
451.867	317.13
452.077	339.41
452.288	399.47
452.498	386.3
452.709	342.71
452.919	362.08
453.13	342.71
453.34	373.71
453.55	282.84
453.761	374.87
453.971	384.56
454.182	382.23
454.392	372.35
454.602	408.77
454.813	353.75
455.023	375.26
455.233	320.23
455.444	367.12
455.654	283.42
455.864	318.49
456.075	375.64
456.285	329.73
456.495	354.53
456.705	365.37
456.916	424.27
457.126	429.89
457.336	396.18
457.546	352.39
457.756	370.99
457.967	425.44
458.177	351.62
458.387	392.11
458.597	366.92
458.807	384.17
459.017	375.64
459.227	365.18
459.437	392.31
459.647	407.81
459.857	390.37
460.068	366.73
460.278	413.42
460.488	413.23
460.698	426.21
460.908	375.26
461.117	358.01
461.327	370.61
461.537	404.12
461.747	381.46
461.957	408.19
462.167	491.12
462.377	453.72
462.587	410.52
462.797	418.46
463.007	394.63
463.216	430.09
463.426	457.6
463.636	447.33
463.846	365.57
464.056	406.84
464.265	453.72
464.475	399.09
464.685	452.17
464.895	455.08
465.104	429.7
465.314	463.99
465.524	413.62
465.733	388.04
465.943	520.18
466.153	465.93
466.362	482.59
466.572	436.29
466.782	431.83
466.991	444.23
467.201	480.85
467.41	412.84
467.62	465.15
467.829	432.99
468.039	456.44
468.249	426.6
468.458	437.64
468.668	466.51
468.877	462.05
469.086	505.84
469.296	513.4
469.505	456.24
469.715	502.16
469.924	503.52
470.134	508.75
470.343	498.87
470.552	467.29
470.762	483.56
470.971	464.57
471.18	474.45
471.39	491.7
471.599	437.84
471.808	510.3
472.018	468.84
472.227	530.84
472.436	544.2
472.645	486.08
472.855	510.49
473.064	561.06
473.273	536.26
473.482	529.48
473.691	540.13
473.901	532.77
474.11	494.02
474.319	606.2
474.528	542.27
474.737	570.55
474.946	545.37
475.155	556.99
475.364	582.76
475.573	572.88
475.783	562.03
475.992	586.63
476.201	626.16
476.41	581.4
476.619	535.87
476.828	591.67
477.037	553.89
477.245	573.65
477.454	601.55
477.663	568.23
477.872	591.48
478.081	684.28
478.29	563
478.499	716.83
478.708	622.48
478.917	672.85
479.125	634.1
479.334	661.61
479.543	636.62
479.752	668.01
479.961	661.23
480.169	678.47
480.378	635.85
480.587	758.29
480.796	643.4
481.004	673.05
481.213	685.06
481.422	673.82
481.63	696.68
481.839	731.75
482.048	732.14
482.256	737.76
482.465	690.87
482.674	729.81
482.882	721.68
483.091	772.05
483.299	738.34
483.508	761.2
483.716	751.9
483.925	746.28
484.134	702.3
484.342	725.94
484.551	745.89
484.759	754.81
484.967	763.72
485.176	770.5
485.384	812.35
485.593	799.37
485.801	747.06
486.01	737.95
486.218	721.09
486.426	622.48
486.635	690.29
486.843	695.13
487.051	711.21
487.26	699.4
487.468	746.86
487.676	761.2
487.885	736.98
488.093	777.67
488.301	788.91
488.509	806.92
488.717	841.61
488.926	785.81
489.134	793.94
489.342	824.75
489.55	780.19
489.758	846.06
489.967	813.9
490.175	932.67
490.383	821.26
490.591	934.6
490.799	855.94
491.007	921.24
491.215	903.99
491.423	861.76
491.631	873.77
491.839	861.56
492.047	891.4
492.255	857.49
492.463	843.16
492.671	872.8
492.879	918.91
493.087	872.8
493.295	908.25
493.503	941.58
493.711	959.6
493.919	948.75
494.127	966.96
494.334	965.02
494.542	900.5
494.75	936.35
494.958	952.43
495.166	1001.06
495.374	985.37
495.581	962.5
495.789	971.03
495.997	1037.68
496.205	961.15
496.412	964.25
496.62	976.65
496.828	1011.33
497.035	995.63
497.243	1017.53
497.451	994.86
497.658	1004.16
497.866	1007.26
498.074	1075.85
498.281	1005.13
498.489	1071.2
498.696	1036.71
498.904	991.57
499.112	1000.67
499.319	1073.33
499.527	1043.3
499.734	1078.17
499.942	1029.73
500.149	1056.28
500.357	1095.61
500.564	1057.05
500.771	1096
500.979	1006.87
501.186	1010.36
501.394	1063.83
501.601	1038.84
501.808	1048.33
502.016	1028.18
502.223	1047.75
502.43	1070.42
502.638	1053.57
502.845	1059.96
503.052	1136.88
503.26	1088.05
503.467	1195.39
503.674	1117.11
503.881	1136.68
504.089	1181.24
504.296	1162.45
504.503	1079.33
504.71	1120.02
504.917	1093.86
505.125	1142.88
505.332	1173.49
505.539	1154.7
505.746	1262.62
505.953	1232.59
506.16	1224.26
506.367	1257.39
506.574	1312.02
506.781	1288.39
506.988	1214.76
507.195	1250.61
507.402	1236.66
507.609	1330.82
507.816	1227.16
508.023	1251.77
508.23	1231.04
508.437	1225.03
508.644	1288.19
508.851	1312.02
509.058	1343.41
509.265	1344.96
509.472	1355.81
509.679	1446.87
509.885	1396.89
510.092	1366.66
510.299	1367.44
510.506	1404.83
510.713	1380.03
510.92	1388.55
511.126	1424.78
511.333	1441.25
511.54	1479.81
511.746	1490.47
511.953	1496.67
512.16	1520.3
512.367	1483.49
512.573	1518.56
512.78	1521.08
512.987	1526.5
513.193	1494.92
513.4	1418.97
513.606	1497.44
513.813	1529.6
514.02	1519.72
514.226	1571.26
514.433	1581.72
514.639	1534.83
514.846	1516.62
515.052	1548.59
515.259	1568.74
515.465	1582.69
515.672	1612.53
515.878	1692.54
516.085	1649.73
516.291	1662.9
516.497	1657.67
516.704	1586.18
516.91	1609.23
517.117	1518.36
517.323	1471.67
517.529	1500.73
517.736	1542.2
517.942	1536.58
518.148	1593.34
518.354	1613.3
518.561	1632.09
518.767	1634.61
518.973	1694.29
519.179	1718.51
519.386	1697.97
519.592	1698.55
519.798	1712.5
520.004	1836.11
520.21	1806.08
520.417	1856.65
520.623	1907.22
520.829	1949.84
521.035	1900.24
521.241	1908.38
521.447	1974.45
521.653	2080.62
521.859	1973.67
522.065	2057.18
522.271	2103.87
522.477	2064.73
522.683	2100.58
522.889	2056.21
523.095	2059.69
523.301	2085.66
523.507	2061.44
523.713	2129.25
523.919	2072.09
524.125	2171.49
524.331	2174.78
524.537	2256.93
524.742	2232.52
524.948	2267.97
525.154	2292.19
525.36	2383.83
525.566	2307.3
525.772	2330.36
525.977	2272.82
526.183	2305.37
526.389	2390.61
526.595	2259.25
526.8	2232.71
527.006	2181.95
527.212	2099.8
527.417	2102.13
527.623	2114.91
527.829	2256.15
528.034	2241.43
528.24	2285.99
528.446	2310.98
528.651	2425.3
528.857	2415.41
529.062	2474.89
529.268	2480.13
529.473	2477.03
529.679	2506.67
529.884	2525.08
530.09	2530.5
530.295	2526.63
530.501	2535.15
530.706	2543.87
530.912	2527.79
531.117	2564.79
531.323	2583.2
531.528	2650.62
531.733	2660.7
531.939	2645
532.144	2626.79
532.35	2643.65
532.555	2673.49
532.76	2622.72
532.966	2623.5
533.171	2589.79
533.376	2576.03
533.581	2510.54
533.787	2570.41
533.992	2677.17
534.197	2649.65
534.402	2689.57
534.607	2694.6
534.813	2755.63
535.018	2669.8
535.223	2691.31
535.428	2760.09
535.633	2795.55
535.838	2762.61
536.043	2834.49
536.249	2886.22
536.454	2821.9
536.659	2865.68
536.864	2822.86
537.069	2771.91
537.274	2829.65
537.479	2794.19
537.684	2808.53
537.889	2768.81
538.094	2879.63
538.299	2827.9
538.504	2884.86
538.708	2823.64
538.913	2866.85
539.118	2833.33
539.323	2849.8
539.528	2827.13
539.733	2850.96
539.938	2867.62
540.142	2856
540.347	2816.66
540.552	2760.87
540.757	2771.72
540.962	2765.52
541.166	2773.85
541.371	2707.59
541.576	2796.13
541.781	2725.22
541.985	2838.75
542.19	2830.81
542.395	2935.63
542.599	2965.66
542.804	2898.81
543.008	2964.11
543.213	2855.61
543.418	2804.46
543.622	2887.96
543.827	2887
544.031	2945.51
544.236	2955.97
544.44	2973.21
544.645	3009.06
544.849	2955.19
545.054	3027.27
545.258	3014.48
545.463	3032.11
545.667	2935.43
545.872	2996.27
546.076	3015.06
546.281	2982.32
546.485	2896.68
546.689	2974.18
546.894	3017.39
547.098	3011.38
547.302	2962.94
547.507	3010.99
547.711	3008.09
547.915	3025.33
548.119	2922.64
548.324	2979.8
548.528	3015.84
548.732	2962.56
548.936	3029.98
549.141	3018.55
549.345	2971.28
549.549	3001.31
549.753	3062.34
549.957	3085
550.161	3109.22
550.366	3042.96
550.57	3011.57
550.774	3050.71
550.978	2994.91
551.182	3045.87
551.386	3028.04
551.59	3039.09
551.794	3027.07
551.998	3090.43
552.202	3081.9
552.406	3008.09
552.61	3093.72
552.814	3096.44
553.018	3157.85
553.222	3042.96
553.426	3020.68
553.63	3142.16
553.833	3026.49
554.037	2990.26
554.241	3041.8
554.445	3028.04
554.649	3063.31
554.853	3005.76
555.056	3084.62
555.26	3099.92
555.464	3044.51
555.668	3030.76
555.871	3109.42
556.075	3087.52
556.279	3035.79
556.483	2996.46
556.686	2996.27
556.89	2960.81
557.094	3040.44
557.297	2945.12
557.501	3008.67
557.704	2882.15
557.908	2952.09
558.112	2936.98
558.315	3015.26
558.519	2923.42
558.722	2917.03
558.926	2896.1
559.129	2828.48
559.333	2838.75
559.536	2822.48
559.74	2791.67
559.943	2810.85
560.147	2818.6
560.35	2798.26
560.553	2813.56
560.757	2796.52
560.96	2879.63
561.164	2809.11
561.367	2936.21
561.57	2844.76
561.774	2834.1
561.977	2881.57
562.18	2798.65
562.384	2900.75
562.587	2792.64
562.79	2813.37
562.993	2782.18
563.197	2823.83
563.4	2857.55
563.603	2885.25
563.806	2868.59
564.009	2767.84
564.212	2808.53
564.416	2702.74
564.619	2764.74
564.822	2686.47
565.025	2774.04
565.228	2720.18
565.431	2718.24
565.634	2596.37
565.837	2625.05
566.04	2617.11
566.243	2626.6
566.446	2557.82
566.649	2603.93
566.852	2567.12
567.055	2592.11
567.258	2623.31
567.461	2657.79
567.664	2656.44
567.867	2583.01
568.07	2595.41
568.273	2573.9
568.475	2602.96
568.678	2507.83
568.881	2514.81
569.084	2465.98
569.287	2414.06
569.489	2479.16
569.692	2499.69
569.895	2501.24
570.098	2378.6
570.3	2403.79
570.503	2317.18
570.706	2399.33
570.909	2332.88
571.111	2311.37
571.314	2267
571.516	2292.19
571.719	2309.05
571.922	2340.82
572.124	2274.17
572.327	2291.22
572.529	2265.65
572.732	2256.74
572.935	2300.72
573.137	2374.53
573.34	2305.37
573.542	2320.87
573.745	2297.03
573.947	2299.36
574.15	2224.57
574.352	2199.77
574.554	2299.17
574.757	2200.35
574.959	2185.05
575.162	2180.59
575.364	2174.2
575.566	2231.94
575.769	2144.17
575.971	2181.17
576.173	2070.35
576.376	2127.12
576.578	2162.77
576.78	2199.77
576.982	2079.26
577.185	2132.74
577.387	2075.19
577.589	2079.26
577.791	2110.84
577.993	2155.21
578.196	2075.39
578.398	2101.16
578.6	2096.51
578.802	2020.75
579.004	2022.11
579.206	2017.07
579.408	2071.51
579.61	2028.5
579.812	2115.49
580.014	2051.36
580.216	2039.35
580.418	2040.13
580.62	2075
580.822	2031.99
581.024	2013.97
581.226	2090.89
581.428	2021.33
581.63	2146.49
581.832	2054.66
582.034	2119.56
582.236	2089.14
582.438	2132.16
582.64	2124.6
582.841	2169.94
583.043	2196.48
583.245	2121.5
583.447	2135.84
583.649	2111.81
583.85	2121.11
584.052	2152.31
584.254	2088.56
584.456	2149.4
584.657	2023.85
584.859	2124.79
585.061	2057.95
585.262	2067.64
585.464	2012.81
585.666	2094.38
585.867	2012.81
586.069	2081.98
586.27	2015.52
586.472	2025.98
586.674	1963.01
586.875	1985.1
587.077	1960.69
587.278	2014.75
587.48	1994.4
587.681	2051.36
587.883	2023.08
588.084	1920.2
588.285	1964.95
588.487	1920.2
588.688	1937.05
588.89	1857.62
589.091	1807.44
589.292	1784.19
589.494	1748.34
589.695	1715.79
589.896	1656.89
590.098	1658.44
590.299	1691.19
590.5	1702.42
590.702	1738.85
590.903	1739.82
591.104	1830.88
591.305	1804.72
591.507	1857.42
591.708	1828.36
591.909	1817.32
592.11	1840.57
592.311	1861.68
592.512	1795.04
592.714	1747.96
592.915	1766.36
593.116	1811.31
593.317	1816.15
593.518	1824.29
593.719	1833.01
593.92	1863.04
594.121	1850.83
594.322	1790.77
594.523	1779.73
594.724	1737.69
594.925	1772.17
595.126	1774.11
595.327	1797.36
595.528	1771.4
595.729	1794.07
595.929	1806.27
596.13	1784.57
596.331	1819.84
596.532	1783.8
596.733	1842.89
596.934	1831.07
597.135	1859.17
597.335	1842.89
597.536	1777.4
597.737	1828.55
597.938	1775.27
598.138	1822.74
598.339	1822.74
598.54	1822.55
598.74	1769.65
598.941	1839.02
599.142	1845.22
599.342	1818.48
599.543	1756.29
599.744	1798.33
599.944	1799.49
600.145	1809.37
600.345	1803.75
600.546	1913.8
600.746	1857.03
600.947	1868.08
601.147	1788.84
601.348	1858.78
601.548	1778.37
601.749	1807.24
601.949	1762.87
602.15	1740.98
602.35	1755.9
602.551	1832.82
602.751	1743.31
602.951	1741.76
603.152	1709.59
603.352	1798.72
603.552	1779.15
603.753	1802.2
603.953	1824.87
604.153	1786.32
604.354	1770.43
604.554	1766.17
604.754	1763.07
604.954	1736.72
605.155	1772.75
605.355	1789.8
605.555	1811.31
605.755	1799.69
605.955	1762.87
606.155	1771.01
606.356	1782.64
606.556	1762.1
606.756	1777.6
606.956	1732.26
607.156	1817.32
607.356	1736.52
607.556	1779.34
607.756	1752.99
607.956	1777.21
608.156	1738.66
608.356	1722.19
608.556	1774.5
608.756	1701.46
608.956	1685.76
609.156	1705.33
609.356	1650.69
609.556	1680.92
609.755	1713.47
609.955	1655.54
610.155	1657.09
610.355	1711.72
610.555	1666.58
610.755	1674.72
610.954	1605.36
611.154	1651.47
611.354	1680.14
611.554	1636.16
611.753	1651.86
611.953	1595.48
612.153	1631.71
612.352	1634.42
612.552	1581.33
612.752	1543.55
612.951	1617.37
613.151	1590.24
613.351	1562.73
613.55	1611.75
613.75	1589.47
613.949	1572.23
614.149	1625.12
614.348	1579.59
614.548	1587.73
614.747	1512.16
614.947	1554.79
615.146	1485.04
615.346	1611.75
615.545	1584.43
615.745	1558.47
615.944	1593.54
616.144	1536.77
616.343	1536.19
616.542	1522.24
616.742	1494.92
616.941	1478.45
617.14	1466.83
617.34	1511.2
