Data from gum_young_FLMT105791__35__17-38-34-044.txt Node

Date: Mon Mar 20 17:38:34 GMT 2023
User: antho
Spectrometer: FLMT10579
Trigger mode: 0
Integration Time (sec): 1.000000E-1
Scans to average: 10
Electric dark correction enabled: true
Nonlinearity correction enabled: false
Boxcar width: 0
XAxis mode: Wavelengths
Number of Pixels in Spectrum: 3648
>>>>>Begin Spectral Data<<<<<
345.248	-152.35
345.464	-152.35
345.681	-152.35
345.898	-138.21
346.114	-132.98
346.331	-40.17
346.548	19.89
346.764	2.84
346.981	-17.31
347.197	-0.84
347.414	20.67
347.631	-16.53
347.847	43.14
348.064	-2
348.28	16.99
348.497	-35.91
348.713	9.24
348.93	17.57
349.146	25.32
349.363	22.99
349.579	19.12
349.796	12.53
350.012	-2.78
350.229	33.07
350.445	10.98
350.661	-11.88
350.878	19.7
351.094	56.7
351.311	35.97
351.527	36.94
351.743	-3.16
351.96	39.65
352.176	34.81
352.392	47.21
352.609	22.99
352.825	-1.42
353.041	21.83
353.257	-11.69
353.474	33.26
353.69	8.65
353.906	16.6
354.122	-21.96
354.339	54.96
354.555	8.07
354.771	9.04
354.987	61.16
355.203	57.67
355.42	0.52
355.636	4
355.852	-15.95
356.068	24.15
356.284	-34.36
356.5	51.28
356.716	15.24
356.932	18.34
357.148	8.07
357.364	18.92
357.58	39.65
357.796	63.29
358.012	41.59
358.228	28.8
358.444	-34.16
358.66	47.21
358.876	24.93
359.092	-15.37
359.308	25.51
359.524	17.76
359.74	16.21
359.956	9.62
360.172	13.89
360.388	63.68
360.604	19.7
360.819	97.58
361.035	41.4
361.251	23.38
361.467	3.04
361.683	58.83
361.898	22.6
362.114	35.39
362.33	32.1
362.546	32.29
362.762	9.82
362.977	37.91
363.193	-1.42
363.409	38.1
363.624	-11.69
363.84	1.68
364.056	-14.01
364.271	37.72
364.487	34.23
364.703	-10.91
364.918	-18.28
365.134	22.6
365.35	3.42
365.565	107.66
365.781	-2.97
365.996	32.68
366.212	66.2
366.427	34.03
366.643	15.82
366.858	20.28
367.074	-9.75
367.289	49.92
367.505	87.9
367.72	-39.59
367.936	-3.16
368.151	50.31
368.367	40.62
368.582	35.58
368.798	2.84
369.013	60.58
369.228	-20.21
369.444	37.91
369.659	75.3
369.874	35.97
370.09	66.58
370.305	-22.15
370.52	1.49
370.736	65.62
370.951	27.06
371.166	75.69
371.381	62.13
371.597	69.88
371.812	-20.99
372.027	-2
372.242	11.75
372.458	85.18
372.673	20.86
372.888	4.97
373.103	28.22
373.318	82.08
373.533	42.37
373.749	41.98
373.964	-23.7
374.179	61.35
374.394	-19.83
374.609	67.75
374.824	-1.61
375.039	62.9
375.254	5.36
375.469	82.28
375.684	48.37
375.899	60.97
376.114	3.42
376.329	30.35
376.544	61.35
376.759	72.59
376.974	15.44
377.189	23.96
377.404	-11.3
377.619	73.37
377.834	-21.76
378.049	-5.49
378.264	-3.75
378.478	23.77
378.693	4.2
378.908	62.71
379.123	26.87
379.338	68.13
379.553	50.12
379.767	27.25
379.982	30.16
380.197	24.15
380.412	14.47
380.626	42.75
380.841	83.44
381.056	26.09
381.271	87.51
381.485	5.55
381.7	6.33
381.915	18.34
382.129	-1.42
382.344	39.65
382.559	24.74
382.773	62.71
382.988	-7.04
383.202	23.38
383.417	-2
383.632	96.23
383.846	29.38
384.061	50.31
384.275	37.72
384.49	35.58
384.704	53.41
384.919	23.19
385.133	22.41
385.348	43.53
385.562	16.21
385.777	71.23
385.991	-5.3
386.206	32.48
386.42	16.99
386.634	63.29
386.849	34.81
387.063	42.17
387.277	2.45
387.492	12.53
387.706	3.23
387.92	0.13
388.135	65.03
388.349	47.4
388.563	31.9
388.778	43.33
388.992	57.67
389.206	37.13
389.42	118.12
389.635	39.65
389.849	49.53
390.063	92.74
390.277	30.16
390.491	97.58
390.706	46.43
390.92	75.5
391.134	43.33
391.348	58.06
391.562	6.52
391.776	26.29
391.99	12.72
392.205	53.99
392.419	36.94
392.633	34.81
392.847	78.79
393.061	8.85
393.275	82.08
393.489	41.78
393.703	55.15
393.917	58.64
394.131	29.77
394.345	64.45
394.559	48.76
394.773	39.27
394.986	51.67
395.2	18.92
395.414	55.93
395.628	24.74
395.842	41.01
396.056	25.12
396.27	-11.3
396.484	69.68
396.697	30.16
396.911	86.93
397.125	78.79
397.339	79.76
397.553	67.36
397.766	102.04
397.98	86.35
398.194	84.6
398.408	40.82
398.621	68.72
398.835	68.13
399.049	87.51
399.262	121.41
399.476	71.04
399.69	86.35
399.903	106.88
400.117	68.52
400.331	76.85
400.544	34.42
400.758	176.83
400.971	63.87
401.185	89.83
401.398	28.61
401.612	110.18
401.826	77.63
402.039	108.82
402.253	53.6
402.466	80.53
402.68	80.53
402.893	96.62
403.106	77.43
403.32	51.67
403.533	79.95
403.747	78.79
403.96	88.67
404.174	80.73
404.387	45.66
404.6	75.3
404.814	99.72
405.027	85.38
405.24	79.37
405.454	65.62
405.667	111.34
405.88	30.93
406.094	70.27
406.307	90.03
406.52	98.55
406.733	50.31
406.947	44.11
407.16	142.34
407.373	112.7
407.586	39.85
407.799	58.45
408.012	114.83
408.226	76.66
408.439	99.72
408.652	10.98
408.865	109.98
409.078	131.88
409.291	96.62
409.504	87.12
409.717	106.3
409.93	101.65
410.143	84.02
410.357	47.6
410.57	58.83
410.783	80.15
410.996	115.8
411.209	114.44
411.421	133.04
411.634	107.08
411.847	65.42
412.06	90.61
412.273	106.5
412.486	79.95
412.699	207.05
412.912	85.57
413.125	116.38
413.338	89.06
413.55	114.25
413.763	96.03
413.976	130.52
414.189	73.17
414.402	110.76
414.615	151.06
414.827	60
415.04	121.41
415.253	114.83
415.466	123.16
415.678	161.91
415.891	100.88
416.104	101.27
416.316	106.69
416.529	97.39
416.742	119.09
416.954	143.11
417.167	97.78
417.38	110.95
417.592	160.75
417.805	67.36
418.017	66
418.23	144.47
418.442	81.89
418.655	104.56
418.868	118.9
419.08	142.53
419.293	137.5
419.505	118.12
419.718	125.68
419.93	176.44
420.142	106.11
420.355	131.88
420.567	168.88
420.78	134.98
420.992	101.65
421.205	165.78
421.417	82.08
421.629	109.98
421.842	84.41
422.054	70.46
422.266	145.83
422.479	151.25
422.691	106.5
422.903	156.87
423.115	100.49
423.328	118.31
423.54	123.93
423.752	141.56
423.964	107.27
424.177	136.72
424.389	97
424.601	242.31
424.813	129.75
425.025	166.56
425.238	149.7
425.45	103.2
425.662	105.33
425.874	406.42
426.086	129.55
426.298	146.99
426.51	178.57
426.722	128.58
426.934	131.88
427.146	165.59
427.358	109.6
427.57	157.45
427.782	113.86
427.994	122.19
428.206	96.03
428.418	105.33
428.63	164.43
428.842	159.58
429.054	142.53
429.266	195.81
429.478	109.21
429.69	133.04
429.902	103.78
430.114	141.95
430.325	150.28
430.537	116.76
430.749	138.27
430.961	78.79
431.173	109.98
431.384	120.25
431.596	84.41
431.808	134.59
432.02	155.32
432.231	171.98
432.443	191.55
432.655	178.38
432.867	159
433.078	169.66
433.29	214.99
433.502	163.07
433.713	177.8
433.925	159.58
434.136	186.32
434.348	134.98
434.56	118.7
434.771	249.68
434.983	90.8
435.194	150.48
435.406	143.11
435.617	186.51
435.829	229.14
436.04	190.78
436.252	188.45
436.463	214.03
436.675	213.64
436.886	165.78
437.098	196.78
437.309	239.99
437.521	192.33
437.732	198.53
437.943	196.59
438.155	169.08
438.366	119.67
438.578	229.72
438.789	191.75
439	196.59
439.211	183.41
439.423	207.05
439.634	187.1
439.845	207.24
440.057	170.05
440.268	189.03
440.479	170.05
440.69	184.38
440.902	179.35
441.113	169.66
441.324	176.25
441.535	227.98
441.746	257.43
441.957	162.3
442.168	189.23
442.38	228.36
442.591	230.11
442.802	208.02
443.013	194.65
443.224	236.5
443.435	188.45
443.646	195.43
443.857	204.73
444.068	192.33
444.279	190
444.49	289.98
444.701	213.25
444.912	340.16
445.123	249.87
445.334	264.98
445.545	247.93
445.756	190.97
445.967	199.11
446.178	245.41
446.388	234.95
446.599	270.79
446.81	267.31
447.021	229.72
447.232	277.38
447.443	276.8
447.653	213.83
447.864	286.88
448.075	239.6
448.286	265.37
448.496	243.28
448.707	264.59
448.918	254.52
449.129	316.13
449.339	257.23
449.55	277.19
449.761	250.84
449.971	308.19
450.182	250.26
450.393	291.72
450.603	268.47
450.814	293.85
451.024	303.54
451.235	311.09
451.446	307.8
451.656	324.07
451.867	273.51
452.077	328.34
452.288	333.18
452.498	318.65
452.709	246.77
452.919	306.83
453.13	272.54
453.34	319.81
453.55	242.12
453.761	302.18
453.971	301.02
454.182	303.54
454.392	297.34
454.602	350.42
454.813	302.37
455.023	338.8
455.233	258.2
455.444	285.33
455.654	231.46
455.864	304.12
456.075	300.24
456.285	290.17
456.495	280.09
456.705	337.06
456.916	366.7
457.126	341.12
457.336	334.54
457.546	242.12
457.756	283.97
457.967	343.45
458.177	285.52
458.387	308.96
458.597	305.86
458.807	312.45
459.017	303.15
459.227	281.84
459.437	304.89
459.647	328.14
459.857	328.14
460.068	301.79
460.278	354.88
460.488	324.46
460.698	376.39
460.908	332.6
461.117	287.84
461.327	290.17
461.537	332.99
461.747	354.69
461.957	356.24
462.167	417.07
462.377	342.29
462.587	338.99
462.797	376.97
463.007	354.69
463.216	361.08
463.426	398.86
463.636	344.03
463.846	306.06
464.056	307.41
464.265	353.52
464.475	326.4
464.685	336.28
464.895	356.43
465.104	348.49
465.314	376
465.524	323.3
465.733	302.37
465.943	402.74
466.153	408.74
466.362	375.22
466.572	382.97
466.782	320.39
466.991	353.33
467.201	419.01
467.41	314
467.62	366.12
467.829	362.63
468.039	357.01
468.249	360.5
468.458	350.23
468.668	366.51
468.877	400.41
469.086	398.86
469.296	432.96
469.505	372.12
469.715	448.27
469.924	409.71
470.134	445.75
470.343	426.18
470.552	390.14
470.762	370.96
470.971	371.93
471.18	375.03
471.39	383.17
471.599	338.02
471.808	418.82
472.018	398.09
472.227	457.95
472.436	422.89
472.645	407.19
472.855	395.37
473.064	443.62
473.273	440.71
473.482	428.89
473.691	454.66
473.901	456.6
474.11	441.68
474.319	516.27
474.528	471.13
474.737	513.75
474.946	464.54
475.155	477.13
475.364	497.48
475.573	459.5
475.783	475.78
475.992	477.91
476.201	501.16
476.41	464.54
476.619	433.35
476.828	458.54
477.037	466.67
477.245	469
477.454	511.62
477.663	477.13
477.872	459.7
478.081	557.73
478.29	487.98
478.499	542.04
478.708	517.63
478.917	578.46
479.125	497.67
479.334	552.12
479.543	503.87
479.752	536.42
479.961	530.03
480.169	568.78
480.378	496.12
480.587	647.24
480.796	589.12
481.004	552.89
481.213	588.15
481.422	606.36
481.63	585.63
481.839	610.63
482.048	628.84
482.256	614.5
482.465	600.55
482.674	625.74
482.882	620.7
483.091	644.92
483.299	615.08
483.508	638.72
483.716	620.12
483.925	637.36
484.134	578.66
484.342	591.64
484.551	647.83
484.759	651.89
484.967	621.48
485.176	645.31
485.384	654.99
485.593	648.41
485.801	617.02
486.01	615.47
486.218	611.98
486.426	547.47
486.635	566.06
486.843	570.52
487.051	579.24
487.26	588.93
487.468	599
487.676	637.17
487.885	628.26
488.093	655.38
488.301	663.33
488.509	683.67
488.717	687.74
488.926	657.71
489.134	662.16
489.342	681.15
489.55	665.65
489.758	708.08
489.967	694.71
490.175	787.91
490.383	700.53
490.591	784.22
490.799	686.19
491.007	788.68
491.215	732.11
491.423	735.79
491.631	741.99
491.839	733.07
492.047	757.29
492.255	697.23
492.463	692.97
492.671	712.34
492.879	772.79
493.087	724.16
493.295	770.86
493.503	783.64
493.711	832.85
493.919	794.69
494.127	790.62
494.334	840.6
494.542	755.55
494.75	804.96
494.958	804.18
495.166	836.54
495.374	822.78
495.581	836.73
495.789	820.07
495.997	875.67
496.205	812.32
496.412	818.13
496.62	842.93
496.828	866.18
497.035	824.33
497.243	868.7
497.451	870.64
497.658	861.92
497.866	843.51
498.074	920.62
498.281	826.65
498.489	918.49
498.696	881.49
498.904	858.24
499.112	864.44
499.319	947.75
499.527	873.74
499.734	943.48
499.942	878.77
500.149	864.82
500.357	921.98
500.564	865.02
500.771	899.7
500.979	881.1
501.186	889.43
501.394	921.01
501.601	903.57
501.808	920.82
502.016	892.92
502.223	885.75
502.43	913.26
502.638	920.62
502.845	919.46
503.052	1011.49
503.26	947.75
503.467	1014.98
503.674	966.93
503.881	958.98
504.089	1019.43
504.296	964.41
504.503	931.08
504.71	957.05
504.917	935.54
505.125	999.48
505.332	1003.93
505.539	1043.65
505.746	1076.4
505.953	1060.12
506.16	1060.51
506.367	1114.37
506.574	1126.58
506.781	1101.58
506.988	1055.66
507.195	1106.04
507.402	1066.71
507.609	1134.71
507.816	1096.16
508.023	1078.14
508.23	1111.66
508.437	1053.15
508.644	1128.13
508.851	1187.8
509.058	1175.21
509.265	1142.27
509.472	1195.55
509.679	1280.02
509.885	1159.71
510.092	1203.88
510.299	1170.75
510.506	1197.68
510.713	1233.14
510.92	1209.31
511.126	1238.95
511.333	1273.63
511.54	1318.77
511.746	1302.69
511.953	1308.12
512.16	1311.6
512.367	1265.3
512.573	1289.32
512.78	1252.51
512.987	1294.17
513.193	1288.74
513.4	1251.35
513.606	1284.87
513.813	1306.76
514.02	1310.05
514.226	1383.87
514.433	1362.37
514.639	1289.32
514.846	1332.53
515.052	1319.35
515.259	1357.13
515.465	1374.57
515.672	1394.72
515.878	1460.6
516.085	1419.13
516.291	1449.75
516.497	1376.32
516.704	1373.8
516.91	1333.5
517.117	1284.29
517.323	1262.59
517.529	1284.67
517.736	1291.26
517.942	1351.13
518.148	1349.19
518.354	1375.35
518.561	1410.61
518.767	1383.87
518.973	1431.15
519.179	1423.01
519.386	1455.95
519.592	1435.21
519.798	1448
520.004	1583.04
520.21	1509.81
520.417	1571.23
520.623	1587.11
520.829	1629.35
521.035	1643.49
521.241	1641.75
521.447	1677.4
521.653	1741.14
521.859	1650.66
522.065	1705.3
522.271	1774.66
522.477	1721.77
522.683	1742.69
522.889	1768.07
523.095	1699.68
523.301	1741.53
523.507	1699.87
523.713	1750.25
523.919	1721.19
524.125	1809.73
524.331	1792.29
524.537	1914.16
524.742	1879.86
524.948	1885.1
525.154	1913.19
525.36	1987.2
525.566	1898.08
525.772	1950.58
525.977	1848.28
526.183	1912.22
526.389	1944
526.595	1860.3
526.8	1861.65
527.006	1815.15
527.212	1757.42
527.417	1761.87
527.623	1774.27
527.829	1842.08
528.034	1849.06
528.24	1899.24
528.446	1875.21
528.651	2003.48
528.857	2000.76
529.062	2070.32
529.268	2042.03
529.473	2038.74
529.679	2058.89
529.884	2143.17
530.09	2096.47
530.295	2086.79
530.501	2137.94
530.706	2100.74
530.912	2085.82
531.117	2119.53
531.323	2139.87
531.528	2186.37
531.733	2150.34
531.939	2151.11
532.144	2149.17
532.35	2134.06
532.555	2225.32
532.76	2130.57
532.966	2131.35
533.171	2121.27
533.376	2090.86
533.581	2082.14
533.787	2119.72
533.992	2143.55
534.197	2149.56
534.402	2178.82
534.607	2211.37
534.813	2260.19
535.018	2188.31
535.223	2213.69
535.428	2241.4
535.633	2309.6
535.838	2241.59
536.043	2297.58
536.249	2362.68
536.454	2298.94
536.659	2304.75
536.864	2266.39
537.069	2255.35
537.274	2266
537.479	2258.25
537.684	2282.08
537.889	2219.31
538.094	2352.41
538.299	2273.37
538.504	2334.98
538.708	2305.14
538.913	2334.78
539.118	2315.6
539.323	2311.92
539.528	2281.31
539.733	2333.43
539.938	2320.83
540.142	2329.16
540.347	2284.6
540.552	2266.39
540.757	2198.19
540.962	2264.84
541.166	2256.9
541.371	2275.11
541.576	2248.37
541.781	2209.04
541.985	2341.95
542.19	2303.2
542.395	2394.07
542.599	2372.56
542.804	2335.95
543.008	2407.24
543.213	2327.61
543.418	2317.35
543.622	2328.78
543.827	2327.81
544.031	2408.21
544.236	2439.6
544.44	2404.73
544.645	2470.02
544.849	2408.21
545.054	2449.48
545.258	2469.44
545.463	2491.14
545.667	2411.51
545.872	2457.23
546.076	2458.39
546.281	2456.07
546.485	2406.86
546.689	2436.69
546.894	2456.84
547.098	2439.21
547.302	2422.74
547.507	2457.43
547.711	2480.29
547.915	2476.8
548.119	2418.09
548.324	2408.02
548.528	2489.01
548.732	2441.15
548.936	2467.69
549.141	2473.12
549.345	2447.74
549.549	2458.01
549.753	2476.22
549.957	2550.42
550.161	2531.05
550.366	2485.91
550.57	2481.26
550.774	2466.34
550.978	2460.14
551.182	2539.57
551.386	2466.73
551.59	2463.04
551.794	2486.1
551.998	2485.52
552.202	2510.51
552.406	2468.08
552.61	2506.44
552.814	2509.93
553.018	2528.92
553.222	2463.82
553.426	2454.71
553.63	2553.14
553.833	2481.06
554.037	2429.91
554.241	2526.79
554.445	2500.82
554.649	2486.68
554.853	2443.48
555.056	2513.42
555.26	2509.35
555.464	2490.56
555.668	2509.54
555.871	2516.71
556.075	2543.64
556.279	2484.94
556.483	2438.63
556.686	2487.84
556.89	2454.91
557.094	2479.12
557.297	2399.11
557.501	2492.69
557.704	2358.23
557.908	2497.92
558.112	2393.29
558.315	2487.07
558.519	2405.5
558.722	2376.44
558.926	2350.09
559.129	2307.27
559.333	2302.04
559.536	2303.4
559.74	2289.45
559.943	2323.16
560.147	2319.86
560.35	2328
560.553	2305.14
560.757	2273.56
560.96	2367.72
561.164	2342.34
561.367	2455.29
561.57	2367.33
561.774	2338.85
561.977	2334.78
562.18	2284.6
562.384	2372.95
562.587	2301.46
562.79	2275.11
562.993	2294.1
563.197	2336.33
563.4	2344.86
563.603	2353
563.806	2393.1
564.009	2284.02
564.212	2302.43
564.416	2241.01
564.619	2294.48
564.822	2220.08
565.025	2307.27
565.228	2227.83
565.431	2279.37
565.634	2200.13
565.837	2179.59
566.04	2145.88
566.243	2191.22
566.446	2085.82
566.649	2201.1
566.852	2136.97
567.055	2167.97
567.258	2185.6
567.461	2228.22
567.664	2201.29
567.867	2123.02
568.07	2154.79
568.273	2170.1
568.475	2199.35
568.678	2095.7
568.881	2091.82
569.084	2072.26
569.287	2011.23
569.489	2029.63
569.692	2093.96
569.895	2075.74
570.098	2010.84
570.3	2015.88
570.503	1988.36
570.706	1974.99
570.909	1957.17
571.111	1912.03
571.314	1924.62
571.516	1932.37
571.719	1960.27
571.922	1900.4
572.124	1920.36
572.327	1977.9
572.529	1910.48
572.732	1885.68
572.935	1919.58
573.137	1993.79
573.34	1921.52
573.542	1990.88
573.745	1930.05
573.947	1939.54
574.15	1890.52
574.352	1908.93
574.554	1968.6
574.757	1885.68
574.959	1895.36
575.162	1872.89
575.364	1835.69
575.566	1942.83
575.769	1834.33
575.971	1854.87
576.173	1738.43
576.376	1832.2
576.578	1841.7
576.78	1857.39
576.982	1789.38
577.185	1814.38
577.387	1784.54
577.589	1806.05
577.791	1798.49
577.993	1807.98
578.196	1793.84
578.398	1801.59
578.6	1823.87
578.802	1757.03
579.004	1752.19
579.206	1736.1
579.408	1807.98
579.61	1739.79
579.812	1818.06
580.014	1749.28
580.216	1733
580.418	1795
580.62	1757.42
580.822	1730.68
581.024	1774.27
581.226	1798.68
581.428	1803.14
581.63	1856.23
581.832	1744.05
582.034	1821.55
582.236	1773.5
582.438	1835.3
582.64	1839.57
582.841	1844.02
583.043	1883.93
583.245	1810.31
583.447	1839.57
583.649	1814.77
583.85	1813.99
584.052	1840.53
584.254	1776.79
584.456	1850.42
584.657	1794.23
584.859	1811.67
585.061	1764.2
585.262	1744.44
585.464	1731.45
585.666	1821.74
585.867	1746.76
586.069	1780.67
586.27	1753.35
586.472	1748.89
586.674	1721.77
586.875	1696.58
587.077	1710.53
587.278	1748.7
587.48	1749.28
587.681	1815.93
587.883	1725.25
588.084	1666.74
588.285	1732.62
588.487	1648.14
588.688	1682.05
588.89	1599.51
589.091	1564.44
589.292	1536.74
589.494	1476.48
589.695	1501.28
589.896	1433.66
590.098	1452.46
590.299	1488.3
590.5	1516.59
590.702	1517.56
590.903	1529.18
591.104	1573.16
591.305	1578.01
591.507	1610.36
591.708	1593.89
591.909	1556.5
592.11	1650.66
592.311	1604.74
592.512	1565.41
592.714	1542.16
592.915	1563.09
593.116	1555.92
593.317	1607.84
593.518	1579.36
593.719	1573.94
593.92	1611.33
594.121	1624.7
594.322	1575.49
594.523	1585.56
594.724	1523.76
594.925	1530.15
595.126	1591.38
595.327	1565.61
595.528	1600.29
595.729	1557.28
595.929	1565.61
596.13	1588.86
596.331	1588.86
596.532	1584.79
596.733	1652.99
596.934	1621.6
597.135	1615.79
597.335	1606.29
597.536	1596.61
597.737	1592.34
597.938	1530.54
598.138	1583.43
598.339	1573.94
598.54	1599.13
598.74	1547.59
598.941	1595.44
599.142	1634.58
599.342	1599.51
599.543	1541.39
599.744	1616.56
599.944	1587.89
600.145	1588.66
600.345	1591.76
600.546	1663.26
600.746	1624.89
600.947	1672.17
601.147	1579.94
601.348	1634.58
601.548	1542.55
601.749	1590.79
601.949	1529.96
602.15	1531.51
602.35	1558.63
602.551	1615.01
602.751	1541.58
602.951	1580.14
603.152	1504
603.352	1608.62
603.552	1556.69
603.753	1577.43
603.953	1580.33
604.153	1590.41
604.354	1582.46
604.554	1574.71
604.754	1561.93
604.954	1524.14
605.155	1589.24
605.355	1578.78
605.555	1565.8
605.755	1593.31
605.955	1582.66
606.155	1575.49
606.356	1553.4
606.556	1557.47
606.756	1618.11
606.956	1491.21
607.156	1591.38
607.356	1504.38
607.556	1584.98
607.756	1586.34
607.956	1593.51
608.156	1568.32
608.356	1530.93
608.556	1565.8
608.756	1525.5
608.956	1497.02
609.156	1530.73
609.356	1490.05
609.556	1483.46
609.755	1533.06
609.955	1473
610.155	1490.05
610.355	1476.29
610.555	1463.89
610.755	1450.71
610.954	1438.7
611.154	1489.46
611.354	1522.59
611.554	1446.26
611.753	1474.55
611.953	1455.75
612.153	1500.31
612.352	1472.8
612.552	1425.92
612.752	1413.9
612.951	1462.15
613.151	1447.81
613.351	1435.02
613.55	1444.71
613.75	1452.46
613.949	1425.92
614.149	1442.96
614.348	1379.42
614.548	1371.28
614.747	1347.45
614.947	1359.46
615.146	1353.65
615.346	1427.85
615.545	1415.07
615.745	1416.42
615.944	1422.23
616.144	1389.68
616.343	1382.71
616.542	1376.51
616.742	1359.07
616.941	1358.49
617.14	1261.62
617.34	1372.25
617.539	1337.37
617.738	1331.95
617.938	1406.54
618.137	1341.05
618.336	1342.41
