Data from gum_young_FLMT105791__69__17-39-27-043.txt Node

Date: Mon Mar 20 17:39:27 GMT 2023
User: antho
Spectrometer: FLMT10579
Trigger mode: 0
Integration Time (sec): 1.000000E-1
Scans to average: 10
Electric dark correction enabled: true
Nonlinearity correction enabled: false
Boxcar width: 0
XAxis mode: Wavelengths
Number of Pixels in Spectrum: 3648
>>>>>Begin Spectral Data<<<<<
345.248	-144.18
345.464	-144.18
345.681	-144.18
345.898	-166.65
346.114	-142.24
346.331	-43.63
346.548	12.76
346.764	11.4
346.981	-17.47
347.197	-4.29
347.414	7.14
347.631	-3.52
347.847	37.55
348.064	-0.42
348.28	20.12
348.497	-16.5
348.713	-3.13
348.93	11.4
349.146	13.72
349.363	3.84
349.579	7.91
349.796	18.37
350.012	0.36
350.229	25.74
350.445	-16.89
350.661	-17.86
350.878	11.98
351.094	12.17
351.311	10.43
351.527	35.42
351.743	-33.55
351.96	25.93
352.176	8.88
352.392	29.03
352.609	33.68
352.825	-23.09
353.041	-11.66
353.257	-10.69
353.474	23.99
353.69	4.81
353.906	34.07
354.122	-23.28
354.339	36
354.555	-6.62
354.771	-36.46
354.987	42.98
355.203	43.37
355.42	-17.86
355.636	-3.71
355.852	-25.99
356.068	5.78
356.284	-16.5
356.5	32.52
356.716	14.31
356.932	11.01
357.148	29.61
357.364	-2.36
357.58	21.86
357.796	54.6
358.012	32.71
358.228	11.4
358.444	-70.75
358.66	37.75
358.876	7.33
359.092	-33.55
359.308	12.76
359.524	5.01
359.74	-12.82
359.956	-36.46
360.172	9.27
360.388	40.46
360.604	-7.01
360.819	79.79
361.035	1.13
361.251	38.72
361.467	-3.52
361.683	42.2
361.898	14.89
362.114	53.44
362.33	21.67
362.546	47.82
362.762	7.14
362.977	18.18
363.193	-31.61
363.409	36.39
363.624	-28.51
363.84	-22.51
364.056	2.87
364.271	8.49
364.487	1.32
364.703	-3.13
364.918	-37.62
365.134	-16.11
365.35	2.29
365.565	84.05
365.781	19.54
365.996	26.7
366.212	79.4
366.427	26.32
366.643	21.09
366.858	-0.81
367.074	-22.51
367.289	49.57
367.505	97.04
367.72	-20.18
367.936	-23.67
368.151	49.76
368.367	28.45
368.582	14.11
368.798	4.81
369.013	50.92
369.228	7.14
369.444	15.27
369.659	63.13
369.874	-0.03
370.09	58.87
370.305	-45.37
370.52	-3.52
370.736	63.9
370.951	16.63
371.166	71.85
371.381	47.44
371.597	28.64
371.812	-19.02
372.027	0.94
372.242	-1.39
372.458	65.45
372.673	19.34
372.888	-15.14
373.103	23.02
373.318	82.31
373.533	29.42
373.749	-3.13
373.964	-11.66
374.179	63.13
374.394	6.36
374.609	83.86
374.824	-19.99
375.039	55.77
375.254	-17.86
375.469	66.62
375.684	12.76
375.899	35.04
376.114	35.04
376.329	11.21
376.544	60.61
376.759	51.12
376.974	-26.19
377.189	22.83
377.404	20.31
377.619	43.56
377.834	-42.46
378.049	-10.69
378.264	-16.69
378.478	25.35
378.693	-2.94
378.908	23.6
379.123	10.24
379.338	44.72
379.553	7.91
379.767	19.15
379.982	38.52
380.197	52.86
380.412	6.56
380.626	47.05
380.841	93.55
381.056	45.3
381.271	106.53
381.485	24.19
381.7	-5.65
381.915	12.56
382.129	1.32
382.344	20.5
382.559	17.99
382.773	61.58
382.988	-18.05
383.202	5.78
383.417	16.63
383.632	93.74
383.846	38.33
384.061	32.13
384.275	14.5
384.49	49.95
384.704	22.83
384.919	38.72
385.133	23.41
385.348	32.13
385.562	-3.91
385.777	47.63
385.991	20.7
386.206	21.67
386.42	9.46
386.634	55.57
386.849	59.64
387.063	17.99
387.277	5.78
387.492	8.69
387.706	-12.63
387.92	-17.66
388.135	65.84
388.349	39.69
388.563	27.48
388.778	52.67
388.992	19.15
389.206	43.75
389.42	92.19
389.635	1.71
389.849	42.01
390.063	65.45
390.277	38.33
390.491	96.26
390.706	39.3
390.92	66.62
391.134	36.59
391.348	52.28
391.562	5.01
391.776	43.75
391.99	24.57
392.205	63.71
392.419	2.29
392.633	14.89
392.847	69.14
393.061	18.95
393.275	66.04
393.489	41.04
393.703	22.83
393.917	73.2
394.131	7.33
394.345	27.87
394.559	36.59
394.773	50.73
394.986	61
395.2	20.12
395.414	61
395.628	10.04
395.842	37.55
396.056	14.5
396.27	-10.11
396.484	63.32
396.697	35.81
396.911	73.79
397.125	42.59
397.339	54.6
397.553	42.98
397.766	118.15
397.98	50.73
398.194	86.96
398.408	18.18
398.621	34.65
398.835	83.67
399.049	53.05
399.262	100.52
399.476	61.97
399.69	74.17
399.903	136.17
400.117	56.35
400.331	79.21
400.544	56.54
400.758	146.05
400.971	73.59
401.185	86.19
401.398	51.5
401.612	103.23
401.826	92.77
402.039	100.91
402.253	50.92
402.466	86.77
402.68	54.6
402.893	83.09
403.106	71.65
403.32	75.72
403.533	69.14
403.747	86.77
403.96	97.62
404.174	101.1
404.387	53.25
404.6	75.14
404.814	80.76
405.027	74.37
405.24	56.35
405.454	43.95
405.667	85.02
405.88	31.94
406.094	82.5
406.307	118.35
406.52	74.37
406.733	28.45
406.947	17.79
407.16	137.33
407.373	98.59
407.586	80.57
407.799	22.83
408.012	92.39
408.226	62.35
408.439	121.64
408.652	57.12
408.865	78.05
409.078	108.27
409.291	100.72
409.504	46.27
409.717	95.49
409.93	84.64
410.143	70.88
410.357	47.82
410.57	38.33
410.783	51.31
410.996	87.93
411.209	74.17
411.421	109.43
411.634	75.72
411.847	59.84
412.06	79.4
412.273	80.95
412.486	103.62
412.699	159.23
412.912	78.24
413.125	128.62
413.338	92.58
413.55	147.8
413.763	83.86
413.976	112.53
414.189	71.27
414.402	70.1
414.615	121.45
414.827	62.55
415.04	111.18
415.253	103.62
415.466	113.31
415.678	161.36
415.891	117.57
416.104	120.87
416.316	106.33
416.529	100.72
416.742	157.48
416.954	145.86
417.167	122.42
417.38	106.14
417.592	132.88
417.805	62.16
418.017	90.64
418.23	125.71
418.442	76.5
418.655	70.3
418.868	114.86
419.08	146.25
419.293	150.32
419.505	145.47
419.718	125.9
419.93	134.82
420.142	93.35
420.355	136.17
420.567	164.27
420.78	131.91
420.992	96.84
421.205	150.51
421.417	62.55
421.629	91.42
421.842	97.62
422.054	73.79
422.266	145.47
422.479	144.7
422.691	95.68
422.903	139.27
423.115	109.63
423.328	103.62
423.54	128.23
423.752	118.93
423.964	78.82
424.177	145.28
424.389	119.9
424.601	203.4
424.813	143.15
425.025	164.07
425.238	141.4
425.45	114.47
425.662	132.3
425.874	386.88
426.086	137.53
426.298	145.28
426.51	151.28
426.722	163.49
426.934	104.4
427.146	148.57
427.358	84.64
427.57	147.99
427.782	103.62
427.994	160.2
428.206	119.9
428.418	82.89
428.63	142.18
428.842	150.7
429.054	123.38
429.266	154.38
429.478	137.33
429.69	132.49
429.902	96.45
430.114	146.05
430.325	151.09
430.537	94.32
430.749	138.11
430.961	86.19
431.173	114.67
431.384	125.52
431.596	56.35
431.808	106.92
432.02	124.55
432.231	171.82
432.443	172.79
432.655	153.8
432.867	128.42
433.078	167.56
433.29	208.25
433.502	159.81
433.713	206.31
433.925	160.58
434.136	182.28
434.348	126.48
434.56	85.02
434.771	251.65
434.983	100.72
435.194	128.81
435.406	126.48
435.617	190.03
435.829	198.95
436.04	187.32
436.252	173.57
436.463	223.16
436.675	190.42
436.886	172.79
437.098	191.39
437.309	236.53
437.521	163.1
437.732	203.98
437.943	175.31
438.155	189.45
438.366	102.27
438.578	220.45
438.789	164.27
439	180.54
439.211	174.34
439.423	170.08
439.634	216.38
439.845	196.81
440.057	157.68
440.268	205.15
440.479	167.75
440.69	184.03
440.902	185
441.113	167.56
441.324	169.3
441.535	176.67
441.746	261.14
441.957	164.65
442.168	195.26
442.38	199.33
442.591	240.21
442.802	188.68
443.013	187.71
443.224	212.51
443.435	203.79
443.646	201.46
443.857	211.93
444.068	215.8
444.279	190.42
444.49	255.71
444.701	226.26
444.912	292.91
445.123	253.39
445.334	229.75
445.545	234.79
445.756	189.26
445.967	184.8
446.178	216.77
446.388	228.4
446.599	246.41
446.81	249.13
447.021	247
447.232	243.7
447.443	254.55
447.653	192.94
447.864	254.75
448.075	258.81
448.286	262.88
448.496	247.77
448.707	273.54
448.918	229.95
449.129	311.9
449.339	209.6
449.55	247.77
449.761	220.84
449.971	284.39
450.182	239.05
450.393	267.92
450.603	217.74
450.814	271.02
451.024	242.15
451.235	279.74
451.446	295.04
451.656	304.93
451.867	222.39
452.077	267.34
452.288	291.17
452.498	303.18
452.709	246.41
452.919	243.51
453.13	244.86
453.34	277.41
453.55	197.2
453.761	302.02
453.971	258.43
454.182	304.15
454.392	276.25
454.602	348.33
454.813	274.9
455.023	290.78
455.233	251.06
455.444	258.62
455.654	192.36
455.864	265.4
456.075	277.41
456.285	249.51
456.495	254.55
456.705	270.63
456.916	312.09
457.126	350.07
457.336	282.06
457.546	244.48
457.756	273.73
457.967	276.25
458.177	269.86
458.387	275.67
458.597	262.3
458.807	282.84
459.017	291.17
459.227	270.44
459.437	293.11
459.647	330.31
459.857	300.66
460.068	256.88
460.278	320.43
460.488	293.69
460.698	352.39
460.908	320.62
461.117	271.6
461.327	256.3
461.537	311.32
461.747	326.04
461.957	300.08
462.167	405.87
462.377	338.25
462.587	295.24
462.797	367.51
463.007	306.86
463.216	323.53
463.426	325.66
463.636	321.2
463.846	304.15
464.056	270.25
464.265	344.45
464.475	308.41
464.685	302.79
464.895	363.24
465.104	317.71
465.314	336.12
465.524	293.11
465.733	296.01
465.943	373.9
466.153	368.09
466.362	376.03
466.572	337.48
466.782	328.18
466.991	321.01
467.201	365.57
467.41	309.58
467.62	350.65
467.829	318.88
468.039	349.88
468.249	317.33
468.458	338.25
468.668	371.19
468.877	363.05
469.086	391.72
469.296	383.59
469.505	342.32
469.715	406.06
469.924	348.71
470.134	391.34
470.343	382.42
470.552	358.98
470.762	367.51
470.971	316.36
471.18	356.85
471.39	349.88
471.599	340.58
471.808	371.77
472.018	345.61
472.227	429.89
472.436	433.38
472.645	391.34
472.855	377.77
473.064	410.71
473.273	413.04
473.482	420.01
473.691	446.36
473.901	445.2
474.11	383.39
474.319	498.29
474.528	423.11
474.737	450.82
474.946	421.95
475.155	416.33
475.364	467.48
475.573	428.73
475.783	429.12
475.992	469.03
476.201	474.45
476.41	449.66
476.619	417.3
476.828	427.96
477.037	431.64
477.245	450.62
477.454	488.79
477.663	455.85
477.872	442.49
478.081	535.49
478.29	421.17
478.499	540.91
478.708	489.18
478.917	526.19
479.125	476.97
479.334	502.16
479.543	476.59
479.752	488.79
479.961	511.46
480.169	510.1
480.378	464.96
480.587	612.98
480.796	507.2
481.004	512.62
481.213	544.98
481.422	533.94
481.63	531.03
481.839	571.52
482.048	610.27
482.256	512.43
482.465	563
482.674	548.47
482.882	577.14
483.091	612.98
483.299	590.7
483.508	600.97
483.716	575.01
483.925	567.07
484.134	549.05
484.342	526.38
484.551	610.66
484.759	586.83
484.967	612.79
485.176	597.48
485.384	616.28
485.593	630.03
485.801	623.25
486.01	543.23
486.218	531.8
486.426	487.63
486.635	504.1
486.843	552.15
487.051	557.18
487.26	509.72
487.468	584.31
487.676	630.81
487.885	587.8
488.093	616.67
488.301	623.06
488.509	613.76
488.717	676.53
488.926	629.06
489.134	620.54
489.342	648.83
489.55	611.43
489.758	641.27
489.967	618.8
490.175	730.2
490.383	655.03
490.591	706.18
490.799	620.93
491.007	706.76
491.215	703.27
491.423	699.59
491.631	687.19
491.839	687.19
492.047	683.9
492.255	660.26
492.463	631.39
492.671	646.89
492.879	734.66
493.087	694.36
493.295	718.96
493.503	694.94
493.711	765.08
493.919	756.16
494.127	732.14
494.334	726.71
494.542	698.04
494.75	747.64
494.958	755.39
495.166	800.73
495.374	782.32
495.581	764.69
495.789	777.09
495.997	807.89
496.205	738.34
496.412	737.18
496.62	739.11
496.828	795.3
497.035	773.41
497.243	800.73
497.451	817.19
497.658	788.33
497.866	797.04
498.074	877.45
498.281	750.35
498.489	845.09
498.696	784.26
498.904	764.88
499.112	798.98
499.319	847.42
499.527	791.62
499.734	864.08
499.942	806.15
500.149	818.36
500.357	805.18
500.564	789.68
500.771	833.86
500.979	771.86
501.186	806.92
501.394	824.17
501.601	815.84
501.808	842.77
502.016	799.56
502.223	832.11
502.43	827.85
502.638	832.89
502.845	860.59
503.052	895.08
503.26	842.57
503.467	954.17
503.674	878.42
503.881	891.98
504.089	948.94
504.296	896.63
504.503	826.69
504.71	916.39
504.917	852.46
505.125	903.8
505.332	911.74
505.539	931.89
505.746	954.17
505.953	960.95
506.16	947.97
506.367	1007.26
506.574	1029.35
506.781	995.05
506.988	961.54
507.195	1040.78
507.402	1011.91
507.609	1033.22
507.816	995.44
508.023	982.07
508.23	992.73
508.437	972.77
508.644	1027.8
508.851	1046.2
509.058	1052.21
509.265	1041.17
509.472	1071
509.679	1139.98
509.885	1100.84
510.092	1070.61
510.299	1084.95
510.506	1100.06
510.713	1129.32
510.92	1099.29
511.126	1149.86
511.333	1176.21
511.54	1157.41
511.746	1190.54
511.953	1223.48
512.16	1220.19
512.367	1161.29
512.573	1202.36
512.78	1202.17
512.987	1190.54
513.193	1212.44
513.4	1135.33
513.606	1185.7
513.813	1213.41
514.02	1216.31
514.226	1269.59
514.433	1276.37
514.639	1220.96
514.846	1270.95
515.052	1250.8
515.259	1258.36
515.465	1277.15
515.672	1285.48
515.878	1376.74
516.085	1303.5
516.291	1342.64
516.497	1317.45
516.704	1290.32
516.91	1256.03
517.117	1206.43
517.323	1200.62
517.529	1233.56
517.736	1231.81
517.942	1273.47
518.148	1266.49
518.354	1276.96
518.561	1271.34
518.767	1330.43
518.973	1349.03
519.179	1362.4
519.386	1392.43
519.592	1348.06
519.798	1392.82
520.004	1485.62
520.21	1457.92
520.417	1478.84
520.623	1541.03
520.829	1530.76
521.035	1534.83
521.241	1543.75
521.447	1591.6
521.653	1693.12
521.859	1578.04
522.065	1626.28
522.271	1692.74
522.477	1666.58
522.683	1693.32
522.889	1658.64
523.095	1635.39
523.301	1686.73
523.507	1648.37
523.713	1693.32
523.919	1668.52
524.125	1764.42
524.331	1745.05
524.537	1831.07
524.742	1843.47
524.948	1834.75
525.154	1840.18
525.36	1925.04
525.566	1827.97
525.772	1907.22
525.977	1828.94
526.183	1880.67
526.389	1922.13
526.595	1816.35
526.8	1803.75
527.006	1782.25
527.212	1697.58
527.417	1687.51
527.623	1735.75
527.829	1809.95
528.034	1825.65
528.24	1856.26
528.446	1851.03
528.651	1958.17
528.857	1940.35
529.062	2018.62
529.268	2003.7
529.473	1998.86
529.679	2029.47
529.884	2156.96
530.09	2055.04
530.295	2078.1
530.501	2103.68
530.706	2060.28
530.912	2056.21
531.117	2112.01
531.323	2098.83
531.528	2181.17
531.733	2145.33
531.939	2093.21
532.144	2168.77
532.35	2150.56
532.555	2200.74
532.76	2114.52
532.966	2149.4
533.171	2074.23
533.376	2098.64
533.581	2032.96
533.787	2115.11
533.992	2162.57
534.197	2142.04
534.402	2126.73
534.607	2147.85
534.813	2202.29
535.018	2184.47
535.223	2213.14
535.428	2234.84
535.633	2283.67
535.838	2243.37
536.043	2277.08
536.249	2364.85
536.454	2247.63
536.659	2310.98
536.864	2267
537.069	2258.09
537.274	2275.34
537.479	2245.11
537.684	2270.88
537.889	2217.6
538.094	2348.77
538.299	2307.69
538.504	2329.2
538.708	2340.63
538.913	2309.43
539.118	2305.17
539.323	2349.54
539.528	2280.76
539.733	2279.4
539.938	2316.8
540.142	2290.06
540.347	2310.21
540.552	2248.6
540.757	2259.64
540.962	2246.27
541.166	2234.45
541.371	2220.5
541.576	2279.6
541.781	2193.96
541.985	2353.8
542.19	2317.57
542.395	2425.3
542.599	2413.48
542.804	2362.52
543.008	2399.72
543.213	2377.25
543.418	2313.12
543.622	2383.45
543.827	2360.58
544.031	2453.2
544.236	2406.5
544.44	2435.56
544.645	2490.39
544.849	2384.8
545.054	2476.44
545.258	2501.44
545.463	2511.71
545.667	2380.15
545.872	2478.38
546.076	2412.9
546.281	2459.2
546.485	2400.5
546.689	2479.54
546.894	2441.57
547.098	2447
547.302	2479.16
547.507	2469.47
547.711	2468.5
547.915	2501.83
548.119	2414.45
548.324	2432.66
548.528	2499.89
548.732	2490.98
548.936	2529.73
549.141	2507.83
549.345	2462.11
549.549	2511.13
549.753	2551.42
549.957	2559.56
550.161	2563.05
550.366	2562.27
550.57	2468.69
550.774	2512.48
550.978	2545.42
551.182	2557.43
551.386	2525.08
551.59	2521.01
551.794	2498.53
551.998	2504.73
552.202	2548.71
552.406	2518.88
552.61	2540.38
552.814	2543.29
553.018	2607.03
553.222	2507.25
553.426	2511.9
553.63	2581.65
553.833	2537.48
554.037	2483.81
554.241	2562.27
554.445	2544.06
554.649	2542.71
554.853	2512.48
555.056	2568.09
555.26	2598.7
555.464	2533.99
555.668	2534.96
555.871	2583.59
556.075	2567.12
556.279	2539.99
556.483	2465.4
556.686	2521.2
556.89	2516.94
557.094	2517.91
557.297	2413.67
557.501	2518.49
557.704	2411.93
557.908	2512.87
558.112	2439.44
558.315	2501.24
558.519	2453
558.722	2432.27
558.926	2421.81
559.129	2334.23
559.333	2367.37
559.536	2398.95
559.74	2327.45
559.943	2310.4
560.147	2316.22
560.35	2370.66
560.553	2361.94
560.757	2323.77
560.96	2448.93
561.164	2347.6
561.367	2439.05
561.57	2371.24
561.774	2392.94
561.977	2341.21
562.18	2304.2
562.384	2400.88
562.587	2324.93
562.79	2339.85
562.993	2350.7
563.197	2328.62
563.4	2375.31
563.603	2356.52
563.806	2393.71
564.009	2316.02
564.212	2308.47
564.416	2263.71
564.619	2300.33
564.822	2227.87
565.025	2308.27
565.228	2254.6
565.431	2286.19
565.634	2181.56
565.837	2213.53
566.04	2174.39
566.243	2204.04
566.446	2083.72
566.649	2242.4
566.852	2144.56
567.055	2154.05
567.258	2178.46
567.461	2220.5
567.664	2217.02
567.867	2120.53
568.07	2152.11
568.273	2168.39
568.475	2205.59
568.678	2102.51
568.881	2084.11
569.084	2089.53
569.287	1975.41
569.489	2029.28
569.692	2037.8
569.895	2084.49
570.098	1963.01
570.3	2040.13
570.503	1949.65
570.706	1968.05
570.909	1990.14
571.111	1925.23
571.314	1908.18
571.516	1950.42
571.719	1944.8
571.922	1886.68
572.124	1874.86
572.327	1945
572.529	1856.65
572.732	1907.02
572.935	1916.32
573.137	1943.25
573.34	1883.38
573.542	1938.02
573.745	1902.57
573.947	1910.9
574.15	1881.45
574.352	1850.06
574.554	1930.08
574.757	1852.58
574.959	1804.14
575.162	1851.03
575.364	1809.18
575.566	1892.1
575.769	1813.25
575.971	1851.22
576.173	1693.9
576.376	1788.06
576.578	1811.89
576.78	1825.65
576.982	1725.29
577.185	1775.08
577.387	1753.38
577.589	1749.31
577.791	1782.44
577.993	1796.78
578.196	1775.08
578.398	1736.33
578.6	1776.63
578.802	1700.49
579.004	1674.53
579.206	1707.46
579.408	1752.02
579.61	1694.48
579.812	1740.98
580.014	1686.34
580.216	1730.32
580.418	1726.45
580.62	1696.22
580.822	1658.44
581.024	1712.5
581.226	1751.06
581.428	1720.44
581.63	1831.27
581.832	1727.61
582.034	1764.23
582.236	1748.34
582.438	1761.91
582.64	1777.21
582.841	1808.79
583.043	1838.63
583.245	1767.52
583.447	1765.97
583.649	1791.55
583.85	1699.91
584.052	1784.19
584.254	1719.47
584.456	1778.37
584.657	1683.05
584.859	1758.22
585.061	1729.55
585.262	1736.52
585.464	1686.34
585.666	1716.76
585.867	1675.49
586.069	1726.06
586.27	1718.7
586.472	1704.94
586.674	1642.17
586.875	1650.11
587.077	1671.43
587.278	1675.11
587.48	1667.74
587.681	1724.71
587.883	1659.41
588.084	1594.7
588.285	1636.94
588.487	1609.23
588.688	1598.38
588.89	1535.03
589.091	1522.82
589.292	1508.87
589.494	1448.03
589.695	1432.53
589.896	1385.45
590.098	1339.92
590.299	1434.67
590.5	1402.12
590.702	1436.8
590.903	1476.71
591.104	1531.93
591.305	1506.55
591.507	1554.01
591.708	1491.82
591.909	1481.94
592.11	1526.89
592.311	1506.74
592.512	1475.74
592.714	1426.53
592.915	1490.85
593.116	1486.59
593.317	1474.77
593.518	1508.48
593.719	1492.98
593.92	1541.61
594.121	1558.86
594.322	1513.33
594.523	1493.76
594.724	1468.77
594.925	1486.78
595.126	1476.71
595.327	1534.64
595.528	1496.47
595.729	1503.06
595.929	1454.82
596.13	1490.47
596.331	1505.58
596.532	1506.93
596.733	1526.5
596.934	1561.18
597.135	1513.91
597.335	1541.03
597.536	1457.33
597.737	1520.69
597.938	1451.72
598.138	1500.93
598.339	1486.59
598.54	1518.56
598.74	1479.23
598.941	1500.54
599.142	1538.13
599.342	1508.68
599.543	1483.3
599.744	1496.08
599.944	1477.87
600.145	1491.05
600.345	1485.62
600.546	1555.95
600.746	1545.88
600.947	1563.31
601.147	1489.11
601.348	1495.12
601.548	1446.87
601.749	1515.26
601.949	1447.65
602.15	1431.18
602.35	1432.34
602.551	1463.73
602.751	1424.78
602.951	1457.53
603.152	1427.88
603.352	1443.38
603.552	1459.85
603.753	1501.51
603.953	1494.34
604.153	1481.55
604.354	1462.95
604.554	1463.53
604.754	1470.12
604.954	1449.78
605.155	1516.04
605.355	1447.07
605.555	1495.89
605.755	1531.73
605.955	1524.56
606.155	1507.9
606.356	1451.72
606.556	1491.63
606.756	1482.91
606.956	1411.8
607.156	1525.34
607.356	1425.95
607.556	1465.28
607.756	1447.65
607.956	1456.56
608.156	1455.4
608.356	1395.92
608.556	1456.95
608.756	1400.57
608.956	1390.49
609.156	1430.4
609.356	1341.47
609.556	1368.4
609.755	1404.83
609.955	1344.96
610.155	1382.35
610.355	1386.81
610.555	1355.04
610.755	1364.53
610.954	1341.86
611.154	1385.07
611.354	1407.74
611.554	1370.15
611.753	1370.92
611.953	1302.72
612.153	1410.64
612.352	1370.15
612.552	1302.53
612.752	1259.13
612.951	1348.06
613.151	1310.67
613.351	1293.42
613.55	1304.47
613.75	1353.29
613.949	1300.79
614.149	1319.77
614.348	1331.4
614.548	1278.31
614.747	1266.11
614.947	1260.1
615.146	1234.53
615.346	1348.06
615.545	1303.31
615.745	1297.11
615.944	1284.9
616.144	1276.18
616.343	1299.24
616.542	1227.36
616.742	1258.16
616.941	1236.66
617.14	1189.96
617.34	1249.64
617.539	1241.89
617.738	1228.52
617.938	1304.08
618.137	1215.15
618.336	1185.7
