Data from gum_young_FLMT105791__109__17-40-37-041.txt Node

Date: Mon Mar 20 17:40:37 GMT 2023
User: antho
Spectrometer: FLMT10579
Trigger mode: 0
Integration Time (sec): 1.000000E-1
Scans to average: 10
Electric dark correction enabled: true
Nonlinearity correction enabled: false
Boxcar width: 0
XAxis mode: Wavelengths
Number of Pixels in Spectrum: 3648
>>>>>Begin Spectral Data<<<<<
345.248	-151.99
345.464	-151.99
345.681	-151.99
345.898	-158
346.114	-120.61
346.331	-42.14
346.548	34.97
346.764	1.45
346.981	-26.64
347.197	-8.62
347.414	19.08
347.631	-38.27
347.847	57.45
348.064	6.1
348.28	40.4
348.497	-47.18
348.713	3.39
348.93	19.08
349.146	34.2
349.363	-11.33
349.579	1.07
349.796	5.91
350.012	7.65
350.229	28.58
350.445	26.64
350.661	-4.36
350.878	9.4
351.094	15.21
351.311	10.75
351.527	-14.43
351.743	-3.58
351.96	51.63
352.176	43.5
352.392	35.55
352.609	38.85
352.825	0.48
353.041	-5.91
353.257	-3.97
353.474	5.33
353.69	27.8
353.906	8.04
354.122	-7.07
354.339	64.03
354.555	-10.17
354.771	4.17
354.987	60.35
355.203	62.1
355.42	9.59
355.636	-9.98
355.852	0.1
356.068	4.55
356.284	-13.85
356.5	42.72
356.716	-16.18
356.932	3.2
357.148	36.72
357.364	30.13
357.58	35.17
357.796	57.64
358.012	53.96
358.228	40.4
358.444	-36.13
358.66	37.1
358.876	38.65
359.092	17.92
359.308	34.39
359.524	29.74
359.74	6.3
359.956	-17.73
360.172	6.88
360.388	32.26
360.604	1.84
360.819	77.01
361.035	28.19
361.251	48.34
361.467	-13.47
361.683	50.28
361.898	32.65
362.114	44.66
362.33	4.36
362.546	49.89
362.762	6.68
362.977	-0.29
363.193	12.69
363.409	43.5
363.624	-28.97
363.84	-8.04
364.056	9.2
364.271	9.98
364.487	15.79
364.703	24.12
364.918	-33.42
365.134	10.37
365.35	-6.88
365.565	114.21
365.781	34.58
365.996	8.04
366.212	66.75
366.427	18.89
366.643	-0.68
366.858	34.39
367.074	-3
367.289	65.58
367.505	121.96
367.72	-3.2
367.936	21.99
368.151	61.9
368.367	28.58
368.582	29.55
368.798	-13.08
369.013	93.1
369.228	31.87
369.444	15.6
369.659	68.49
369.874	37.49
370.09	53.38
370.305	-13.27
370.52	23.35
370.736	59.77
370.951	29.55
371.166	45.82
371.381	77.98
371.597	42.33
371.812	6.3
372.027	-10.95
372.242	16.18
372.458	70.62
372.673	14.82
372.888	35.17
373.103	54.93
373.318	90.38
373.533	55.9
373.749	20.63
373.964	-16.76
374.179	62.29
374.394	5.52
374.609	46.6
374.824	-9.2
375.039	67.33
375.254	7.85
375.469	76.82
375.684	38.46
375.899	69.65
376.114	32.84
376.329	45.63
376.544	63.45
376.759	47.37
376.974	29.55
377.189	-0.87
377.404	13.27
377.619	59.19
377.834	-9.2
378.049	-15.21
378.264	-1.07
378.478	19.86
378.693	10.17
378.908	25.28
379.123	17.34
379.338	60.55
379.553	28.77
379.767	33.42
379.982	43.3
380.197	44.85
380.412	28.38
380.626	60.55
380.841	103.95
381.056	44.66
381.271	72.36
381.485	26.83
381.7	14.43
381.915	50.66
382.129	21.6
382.344	55.9
382.559	11.72
382.773	64.03
382.988	-9.2
383.202	36.72
383.417	15.98
383.632	99.49
383.846	21.8
384.061	55.7
384.275	-9.01
384.49	56.67
384.704	37.68
384.919	16.37
385.133	40.98
385.348	41.17
385.562	-0.68
385.777	83.21
385.991	44.27
386.206	33.62
386.42	24.32
386.634	55.31
386.849	49.31
387.063	47.56
387.277	14.05
387.492	35.75
387.706	-11.72
387.92	16.76
388.135	59.19
388.349	45.43
388.563	14.82
388.778	73.33
388.992	67.33
389.206	65.39
389.42	109.37
389.635	44.27
389.849	59.77
390.063	80.11
390.277	56.09
390.491	99.88
390.706	25.48
390.92	67.91
391.134	80.89
391.348	68.3
391.562	9.78
391.776	46.01
391.99	32.65
392.205	77.4
392.419	52.6
392.633	42.14
392.847	106.66
393.061	25.28
393.275	108.01
393.489	33.42
393.703	33.42
393.917	86.9
394.131	23.54
394.345	62.87
394.559	102.01
394.773	56.28
394.986	68.68
395.2	38.07
395.414	85.54
395.628	27.61
395.842	58.41
396.056	55.12
396.27	22.38
396.484	58.41
396.697	58.41
396.911	72.95
397.125	66.16
397.339	88.45
397.553	56.28
397.766	97.75
397.98	71.2
398.194	110.34
398.408	72.36
398.621	64.42
398.835	97.36
399.049	90.58
399.262	126.23
399.476	98.52
399.69	84.76
399.903	132.43
400.117	70.62
400.331	106.46
400.544	80.31
400.758	201.98
400.971	88.45
401.185	116.15
401.398	78.37
401.612	124.1
401.826	97.55
402.039	139.59
402.253	93.68
402.466	117.12
402.68	92.71
402.893	101.62
403.106	94.65
403.32	81.86
403.533	105.88
403.747	90.96
403.96	103.95
404.174	117.7
404.387	70.81
404.6	114.99
404.814	122.74
405.027	83.6
405.24	120.61
405.454	101.81
405.667	119.06
405.88	40.4
406.094	112.28
406.307	133.59
406.52	113.83
406.733	96
406.947	50.47
407.16	159.74
407.373	158
407.586	91.16
407.799	87.86
408.012	117.31
408.226	100.65
408.439	157.03
408.652	57.64
408.865	126.81
409.078	148.7
409.291	132.62
409.504	91.74
409.717	130.1
409.93	110.53
410.143	123.13
410.357	39.23
410.57	69.26
410.783	104.91
410.996	125.26
411.209	99.3
411.421	161.1
411.634	126.03
411.847	108.98
412.06	128.16
412.273	124.68
412.486	129.91
412.699	187.06
412.912	148.51
413.125	132.23
413.338	128.16
413.55	158.19
413.763	123.32
413.976	160.13
414.189	91.16
414.402	114.21
414.615	172.73
414.827	109.18
415.04	154.32
415.253	153.93
415.466	156.06
415.678	198.3
415.891	133.39
416.104	119.64
416.316	117.31
416.529	112.28
416.742	140.95
416.954	154.71
417.167	140.18
417.38	143.28
417.592	157.42
417.805	125.45
418.017	80.5
418.23	164.59
418.442	141.34
418.655	135.72
418.868	140.56
419.08	170.98
419.293	174.47
419.505	169.43
419.718	143.47
419.93	195.39
420.142	164.2
420.355	178.73
420.567	171.18
420.78	168.46
420.992	139.79
421.205	170.98
421.417	144.83
421.629	150.06
421.842	144.44
422.054	109.95
422.266	201.4
422.479	177.38
422.691	139.4
422.903	189.19
423.115	134.36
423.328	148.12
423.54	174.66
423.752	162.07
423.964	120.03
424.177	155.87
424.389	138.24
424.601	248.29
424.813	200.43
425.025	166.14
425.238	186.48
425.45	121.19
425.662	160.52
425.874	449.2
426.086	159.94
426.298	177.96
426.51	197.72
426.722	158.39
426.934	162.07
427.146	189.39
427.358	134.36
427.57	209.34
427.782	157.23
427.994	176.79
428.206	148.12
428.418	144.24
428.63	198.11
428.842	219.03
429.054	176.41
429.266	174.28
429.478	153.74
429.69	179.7
429.902	143.47
430.114	206.63
430.325	165.94
430.537	143.28
430.749	162.26
430.961	101.43
431.173	151.8
431.384	156.84
431.596	101.04
431.808	150.44
432.02	198.3
432.231	207.6
432.443	234.72
432.655	208.96
432.867	182.8
433.078	195.78
433.29	269.99
433.502	197.91
433.713	250.22
433.925	198.11
434.136	248.87
434.348	158.19
434.56	163.23
434.771	271.73
434.983	132.62
435.194	207.79
435.406	206.63
435.617	241.12
435.829	282.77
436.04	214.96
436.252	257.97
436.463	283.36
436.675	255.26
436.886	228.91
437.098	243.44
437.309	293.04
437.521	241.7
437.732	255.46
437.943	247.32
438.155	217.29
438.366	161.29
438.578	287.23
438.789	211.67
439	237.24
439.211	206.83
439.423	241.31
439.634	254.87
439.845	236.66
440.057	239.76
440.268	261.07
440.479	220.19
440.69	229.49
440.902	231.82
441.113	232.59
441.324	232.79
441.535	288.2
441.746	294.79
441.957	213.22
442.168	262.62
442.38	304.47
442.591	298.66
442.802	256.81
443.013	247.51
443.224	283.16
443.435	260.88
443.646	258.75
443.857	242.67
444.068	246.16
444.279	256.62
444.49	326.95
444.701	251.39
444.912	360.66
445.123	334.12
445.334	289.17
445.545	292.27
445.756	270.76
445.967	262.82
446.178	286.84
446.388	300.41
446.599	320.94
446.81	314.94
447.021	275.8
447.232	327.14
447.443	310.29
447.653	278.12
447.864	324.62
448.075	303.12
448.286	323.46
448.496	350.39
448.707	390.5
448.918	288.78
449.129	382.55
449.339	279.87
449.55	338.38
449.761	324.82
449.971	386.04
450.182	299.63
450.393	340.32
450.603	321.52
450.814	374.61
451.024	355.04
451.235	395.53
451.446	384.49
451.656	403.48
451.867	315.32
452.077	349.42
452.288	399.02
452.498	372.09
452.709	355.04
452.919	340.12
453.13	328.69
453.34	369.77
453.55	276.38
453.761	383.91
453.971	362.4
454.182	364.92
454.392	358.34
454.602	418.4
454.813	357.56
455.023	389.34
455.233	315.13
455.444	360.85
455.654	277.74
455.864	359.89
456.075	377.9
456.285	301.76
456.495	364.15
456.705	370.15
456.916	385.65
457.126	432.54
457.336	368.6
457.546	342.84
457.756	376.94
457.967	380.81
458.177	353.49
458.387	396.89
458.597	375
458.807	395.73
459.017	370.74
459.227	377.13
459.437	350.2
459.647	400.57
459.857	398.05
460.068	366.28
460.278	418.01
460.488	388.37
460.698	444.75
460.908	391.66
461.117	348.26
461.327	364.92
461.537	396.89
461.747	378.68
461.957	385.85
462.167	504.61
462.377	417.04
462.587	415.88
462.797	452.69
463.007	409.68
463.216	441.65
463.426	452.88
463.636	453.08
463.846	380.23
464.056	361.24
464.265	426.15
464.475	371.9
464.685	416.27
464.895	445.52
465.104	439.32
465.314	445.72
465.524	407.55
465.733	405.42
465.943	495.51
466.153	479.04
466.362	476.72
466.572	452.11
466.782	415.3
466.991	457.92
467.201	476.33
467.41	383.91
467.62	437.77
467.829	444.55
468.039	455.79
468.249	431.18
468.458	454.24
468.668	465.87
468.877	481.75
469.086	497.25
469.296	529.61
469.505	449.78
469.715	491.63
469.924	483.5
470.134	500.55
470.343	488.73
470.552	462.77
470.762	462.38
470.971	417.23
471.18	473.42
471.39	461.6
471.599	422.08
471.808	517.79
472.018	454.82
472.227	514.11
472.436	528.45
472.645	506.55
472.855	473.42
473.064	543.56
473.273	527.67
473.482	536.39
473.691	548.98
473.901	542.98
474.11	498.41
474.319	592.19
474.528	530.38
474.737	576.49
474.946	544.53
475.155	519.34
475.364	564.29
475.573	563.51
475.783	572.43
475.992	586.57
476.201	593.74
476.41	566.23
476.619	553.44
476.828	539.49
477.037	563.9
477.245	574.36
477.454	616.02
477.663	569.52
477.872	602.26
478.081	652.64
478.29	587.34
478.499	674.34
478.708	626.48
478.917	659.22
479.125	635.59
479.334	668.52
479.543	607.49
479.752	680.15
479.961	649.93
480.169	719.09
480.378	645.08
480.587	763.07
480.796	691.58
481.004	677.63
481.213	701.46
481.422	697.01
481.63	672.21
481.839	719.87
482.048	768.5
482.256	687.9
482.465	724.52
482.674	731.3
482.882	757.07
483.091	792.72
483.299	703.79
483.508	746.41
483.716	734.21
483.925	730.91
484.134	711.54
484.342	736.92
484.551	776.44
484.759	763.65
484.967	759.2
485.176	760.94
485.384	794.27
485.593	769.85
485.801	748.15
486.01	743.5
486.218	693.91
486.426	661.55
486.635	669.69
486.843	656.9
487.051	683.06
487.26	722.19
487.468	731.3
487.676	750.09
487.885	736.53
488.093	766.17
488.301	790.78
488.509	801.24
488.717	823.72
488.926	782.64
489.134	805.7
489.342	822.75
489.55	743.31
489.758	820.23
489.967	816.74
490.175	925.43
490.383	829.14
490.591	915.17
490.799	834.57
491.007	897.15
491.215	877
491.423	860.72
491.631	877
491.839	864.6
492.047	903.15
492.255	842.7
492.463	822.17
492.671	833.79
492.879	910.13
493.087	877.58
493.295	892.5
493.503	898.5
493.711	928.15
493.919	957.98
494.127	946.36
494.334	935.9
494.542	891.72
494.75	920.59
494.958	929.89
495.166	981.04
495.374	988.21
495.581	997.51
495.789	940.55
495.997	1021.53
496.205	927.56
496.412	971.74
496.62	978.52
496.828	994.41
497.035	974.26
497.243	1028.7
497.451	1010.88
497.658	1027.15
497.866	992.86
498.074	1054.66
498.281	983.17
498.489	1065.51
498.696	1022.69
498.904	954.3
499.112	1017.46
499.319	1084.69
499.527	1040.13
499.734	1070.36
499.942	991.7
500.149	1030.83
500.357	1047.88
500.564	1029.86
500.771	1035.87
500.979	997.12
501.186	981.43
501.394	1045.94
501.601	994.02
501.808	1062.22
502.016	1034.32
502.223	1047.49
502.43	1075.78
502.638	1056.21
502.845	1047.49
503.052	1150.18
503.26	1057.96
503.467	1147.47
503.674	1097.67
503.881	1105.81
504.089	1206.37
504.296	1117.63
504.503	1095.35
504.71	1109.3
504.917	1089.15
505.125	1140.88
505.332	1147.66
505.539	1141.46
505.746	1259.26
505.953	1231.36
506.16	1210.05
506.367	1247.83
506.574	1256.16
506.781	1298.4
506.988	1204.62
507.195	1244.73
507.402	1224
507.609	1276.7
507.816	1214.89
508.023	1247.25
508.23	1228.45
508.437	1198.62
508.644	1281.73
508.851	1328.04
509.058	1335.21
509.265	1347.8
509.472	1367.56
509.679	1413.29
509.885	1361.95
510.092	1375.51
510.299	1371.44
510.506	1385.2
510.713	1347.22
510.92	1388.49
511.126	1417.36
511.333	1441
511.54	1450.1
511.746	1500.86
511.953	1523.92
512.16	1510.74
512.367	1486.33
512.573	1492.92
512.78	1471.41
512.987	1492.92
513.193	1465.41
513.4	1409.61
513.606	1480.71
513.813	1522.18
514.02	1524.31
514.226	1581.07
514.433	1533.8
514.639	1509.39
514.846	1548.72
515.052	1511.13
515.259	1546.78
515.465	1583.21
515.672	1621.18
515.878	1668.45
516.085	1642.88
516.291	1675.24
516.497	1620.79
516.704	1624.86
516.91	1579.52
517.117	1504.16
517.323	1495.83
517.529	1484.78
517.736	1520.04
517.942	1543.1
518.148	1553.95
518.354	1627.57
518.561	1630.48
518.767	1589.79
518.973	1683.95
519.179	1699.65
519.386	1726
519.592	1716.7
519.798	1718.63
520.004	1825.39
520.21	1810.66
520.417	1858.33
520.623	1893.98
520.829	1903.47
521.035	1899.79
521.241	1922.07
521.447	1956.75
521.653	2060.6
521.859	1977.67
522.065	2008.48
522.271	2094.31
522.477	2060.6
522.683	2071.25
522.889	2064.67
523.095	2064.28
523.301	2077.84
523.507	2039.87
523.713	2080.17
523.919	2050.72
524.125	2185.57
524.331	2166.77
524.537	2253.38
524.742	2230.51
524.948	2260.74
525.154	2285.73
525.36	2352.19
525.566	2261.71
525.772	2322.74
525.977	2256.48
526.183	2261.71
526.389	2287.86
526.595	2215.4
526.8	2214.82
527.006	2167.93
527.212	2122.21
527.417	2114.65
527.623	2127.83
527.829	2227.61
528.034	2264.81
528.24	2217.15
528.446	2298.52
528.651	2373.69
528.857	2421.16
529.062	2453.13
529.268	2475.22
529.473	2482.77
529.679	2514.94
529.884	2563.57
530.09	2566.86
530.295	2535.86
530.501	2522.49
530.706	2556.59
530.912	2541.87
531.117	2577.13
531.323	2593.79
531.528	2632.35
531.733	2628.86
531.939	2619.17
532.144	2632.73
532.35	2614.72
532.555	2654.43
532.76	2631.57
532.966	2570.15
533.171	2590.3
533.376	2504.09
533.581	2540.7
533.787	2569.38
533.992	2641.84
534.197	2650.56
534.402	2631.38
534.607	2649.98
534.813	2745.69
535.018	2644.17
535.223	2690.47
535.428	2668
535.633	2773.59
535.838	2772.81
536.043	2788.51
536.249	2872.98
536.454	2806.72
536.659	2830.55
536.864	2741.62
537.069	2763.13
537.274	2761.96
537.479	2761.19
537.684	2755.57
537.889	2724.76
538.094	2827.45
538.299	2787.15
538.504	2847.79
538.708	2838.11
538.913	2881.31
539.118	2859.61
539.323	2848.57
539.528	2802.26
539.733	2806.33
539.938	2850.89
540.142	2813.5
540.347	2811.37
540.552	2772.43
540.757	2751.31
540.962	2789.67
541.166	2699.38
541.371	2734.84
541.576	2747.43
541.781	2664.7
541.985	2817.18
542.19	2798.19
542.395	2856.51
542.599	2903.01
542.804	2854.38
543.008	2935.75
543.213	2853.99
543.418	2815.83
543.622	2889.26
543.827	2798.39
544.031	2899.14
544.236	2910.18
544.44	2931.3
544.645	3006.47
544.849	2966.17
545.054	2988.84
545.258	3047.74
545.463	3020.03
545.667	2920.26
545.872	2966.37
546.076	2964.24
546.281	2957.84
546.485	2941.18
546.689	2984.39
546.894	3003.76
547.098	2968.3
547.302	2903.01
547.507	2965.98
547.711	3010.15
547.915	3006.28
548.119	2905.72
548.324	2905.53
548.528	3031.66
548.732	2954.55
548.936	3032.05
549.141	3041.73
549.345	3002.79
549.549	3029.92
549.753	3002.79
549.957	3102.96
550.161	3086.68
550.366	3010.74
550.57	3004.92
550.774	3003.37
550.978	3046
551.182	3021.2
551.386	3043.87
551.59	2996.79
551.794	2996.4
551.998	3043.09
552.202	3025.07
552.406	2969.85
552.61	3058.98
552.814	3024.3
553.018	3062.08
553.222	2979.35
553.426	3003.18
553.63	3063.82
553.833	3048.52
554.037	2988.07
554.241	3019.84
554.445	3045.42
554.649	3056.27
554.853	3038.44
555.056	3068.86
555.26	3082.81
555.464	3008.41
555.668	3032.43
555.871	3077.58
556.075	3074.28
556.279	2993.3
556.483	2984
556.686	3002.99
556.89	2985.74
557.094	2990.59
557.297	2928.2
557.501	3017.71
557.704	2913.28
557.908	2950.48
558.112	2905.92
558.315	2964.04
558.519	2914.25
558.722	2866.39
558.926	2866.59
559.129	2789.48
559.333	2825.51
559.536	2813.69
559.74	2794.32
559.943	2790.06
560.147	2757.31
560.35	2811.76
560.553	2822.03
560.757	2780.95
560.96	2881.12
561.164	2824.35
561.367	2961.33
561.57	2825.51
561.774	2842.56
561.977	2802.46
562.18	2747.82
562.384	2866.01
562.587	2778.82
562.79	2741.81
562.993	2767.97
563.197	2805.75
563.4	2848.18
563.603	2824.74
563.806	2858.26
564.009	2755.18
564.212	2809.43
564.416	2703.26
564.619	2744.33
564.822	2689.11
565.025	2791.99
565.228	2734.84
565.431	2760.41
565.634	2606.19
565.837	2656.37
566.04	2631.57
566.243	2619.37
566.446	2502.34
566.649	2606.38
566.852	2550.97
567.055	2598.83
567.258	2620.33
567.461	2670.9
567.664	2653.27
567.867	2582.75
568.07	2610.26
568.273	2598.25
568.475	2610.07
568.678	2517.26
568.881	2518.62
569.084	2433.37
569.287	2411.47
569.489	2428.72
569.692	2466.5
569.895	2475.22
570.098	2371.18
570.3	2381.25
570.503	2311.11
570.706	2359.74
570.909	2306.08
571.111	2276.43
571.314	2260.74
571.516	2294.26
571.719	2277.6
571.922	2290.58
572.124	2279.73
572.327	2312.47
572.529	2247.56
572.732	2248.92
572.935	2273.14
573.137	2348.51
573.34	2276.63
573.542	2323.32
573.745	2296.58
573.947	2283.41
574.15	2255.31
574.352	2252.99
574.554	2270.43
574.757	2176.85
574.959	2173.94
575.162	2172.39
575.364	2159.8
575.566	2261.13
575.769	2156.89
575.971	2169.29
576.173	2053.24
576.376	2105.16
576.578	2107.68
576.78	2169.87
576.982	2073
577.185	2159.6
577.387	2073.97
577.589	2096.05
577.791	2103.8
577.993	2111.94
578.196	2100.9
578.398	2099.15
578.6	2106.52
578.802	2032.12
579.004	2018.17
579.206	1995.69
579.408	2081.91
579.61	2007.9
579.812	2072.61
580.014	2028.82
580.216	2022.62
580.418	2067.77
580.62	2008.09
580.822	2002.67
581.024	2072.22
581.226	2104.77
581.428	2046.65
581.63	2153.98
581.832	2044.91
582.034	2111.55
582.236	2054.4
582.438	2106.71
582.64	2133.64
582.841	2129.96
583.043	2199.32
583.245	2076.29
583.447	2125.7
583.649	2108.65
583.85	2101.09
584.052	2101.87
584.254	2061.18
584.456	2102.45
584.657	2029.99
584.859	2089.85
585.061	2066.22
585.262	2026.69
585.464	2003.06
585.666	2087.14
585.867	2001.89
586.069	2038.51
586.27	2029.79
586.472	2007.32
586.674	1954.04
586.875	1988.72
587.077	1993.56
587.278	2001.7
587.48	1945.13
587.681	2075.71
587.883	1974.96
588.084	1951.33
588.285	1933.5
588.487	1951.13
588.688	1932.92
588.89	1826.36
589.091	1780.63
589.292	1773.47
589.494	1700.81
589.695	1688.41
589.896	1600.26
590.098	1626.6
590.299	1680.08
590.5	1694.61
590.702	1721.15
590.903	1719.99
591.104	1783.93
591.305	1784.32
591.507	1846.9
591.708	1847.86
591.909	1794.2
592.11	1868.4
592.311	1786.25
592.512	1757.97
592.714	1710.3
592.915	1756.61
593.116	1785.67
593.317	1791.1
593.518	1803.69
593.719	1805.05
593.92	1804.46
594.121	1803.69
594.322	1783.15
594.523	1805.05
594.724	1751.18
594.925	1742.66
595.126	1760.29
595.327	1767.65
595.528	1802.33
595.729	1790.9
595.929	1768.23
596.13	1743.63
596.331	1800.78
596.532	1803.5
596.733	1878.48
596.934	1815.51
597.135	1825.39
597.335	1830.23
597.536	1765.13
597.737	1822.1
597.938	1805.05
598.138	1826.55
598.339	1756.22
598.54	1823.45
598.74	1771.72
598.941	1812.02
599.142	1850.77
599.342	1781.02
599.543	1771.72
599.744	1787.22
599.944	1799.04
600.145	1773.85
600.345	1797.68
600.546	1837.21
600.746	1813.18
600.947	1844.38
601.147	1802.14
601.348	1835.46
601.548	1785.28
601.749	1778.7
601.949	1731.62
602.15	1768.62
602.35	1723.48
602.551	1760.1
602.751	1713.79
602.951	1726.77
603.152	1665.94
603.352	1775.79
603.552	1762.81
603.753	1820.74
603.953	1785.09
604.153	1776.18
604.354	1791.1
604.554	1744.98
604.754	1766.88
604.954	1744.6
605.155	1793.03
605.355	1751.96
605.555	1786.45
605.755	1820.55
605.955	1764.75
606.155	1772.5
606.356	1743.24
606.556	1731.23
606.756	1775.6
606.956	1733.75
607.156	1808.92
607.356	1690.74
607.556	1778.12
607.756	1742.08
607.956	1768.43
608.156	1757
608.356	1711.47
608.556	1730.65
608.756	1721.73
608.956	1704.68
609.156	1704.49
609.356	1682.79
609.556	1679.69
609.755	1712.43
609.955	1671.94
610.155	1672.33
610.355	1683.95
610.555	1632.8
610.755	1664.39
610.954	1605.49
611.154	1652.57
611.354	1686.09
611.554	1593.47
611.753	1635.52
611.953	1597.35
612.153	1650.05
612.352	1622.92
612.552	1618.66
612.752	1567.71
612.951	1627.96
613.151	1607.23
613.351	1583.4
613.55	1602
613.75	1636.49
613.949	1578.36
614.149	1589.6
614.348	1563.06
614.548	1537.48
614.747	1522.95
614.947	1555.69
615.146	1458.63
615.346	1594.64
615.545	1569.64
615.745	1558.41
615.944	1566.93
616.144	1530.89
616.343	1551.82
616.542	1497.96
616.742	1487.69
616.941	1491.37
617.14	1464.83
617.34	1489.82
617.539	1503.96
