Data from gum_young_FLMT105791__133__17-41-01-040.txt Node

Date: Mon Mar 20 17:41:01 GMT 2023
User: antho
Spectrometer: FLMT10579
Trigger mode: 0
Integration Time (sec): 1.000000E-1
Scans to average: 10
Electric dark correction enabled: true
Nonlinearity correction enabled: false
Boxcar width: 0
XAxis mode: Wavelengths
Number of Pixels in Spectrum: 3648
>>>>>Begin Spectral Data<<<<<
345.248	-139.01
345.464	-139.01
345.681	-139.01
345.898	-140.76
346.114	-134.75
346.331	-71.4
346.548	45.24
346.764	11.53
346.981	-20.44
347.197	-21.02
347.414	18.31
347.631	-15.02
347.847	52.02
348.064	-2.03
348.28	18.89
348.497	-22.18
348.713	6.1
348.93	27.42
349.146	54.35
349.363	6.3
349.579	23.73
349.796	-3.39
350.012	-24.51
350.229	23.15
350.445	19.08
350.661	-26.06
350.878	10.56
351.094	30.9
351.311	27.22
351.527	9.98
351.743	2.23
351.96	42.72
352.176	21.6
352.392	19.47
352.609	43.69
352.825	-5.52
353.041	-0.1
353.257	11.53
353.474	0.48
353.69	-4.17
353.906	11.14
354.122	-21.02
354.339	66.55
354.555	-2.62
354.771	18.89
354.987	54.15
355.203	52.02
355.42	-18.89
355.636	-2.42
355.852	22.77
356.068	21.6
356.284	-52.02
356.5	67.13
356.716	25.28
356.932	12.88
357.148	-2.42
357.364	-7.07
357.58	33.42
357.796	26.64
358.012	38.85
358.228	29.74
358.444	-52.02
358.66	41.17
358.876	33.62
359.092	-15.21
359.308	34
359.524	46.98
359.74	13.27
359.956	-20.83
360.172	-2.42
360.388	23.73
360.604	30.52
360.819	77.4
361.035	23.73
361.251	43.3
361.467	-16.37
361.683	55.31
361.898	15.79
362.114	50.28
362.33	25.67
362.546	48.92
362.762	35.55
362.977	26.64
363.193	-17.73
363.409	48.15
363.624	16.76
363.84	7.07
364.056	3.39
364.271	35.17
364.487	5.72
364.703	16.95
364.918	6.88
365.134	-6.1
365.35	17.73
365.565	120.22
365.781	12.11
365.996	41.56
366.212	54.35
366.427	18.89
366.643	-5.33
366.858	27.61
367.074	3
367.289	70.81
367.505	114.8
367.72	-11.72
367.936	2.81
368.151	21.22
368.367	25.48
368.582	23.35
368.798	21.6
369.013	60.74
369.228	34
369.444	26.83
369.659	76.82
369.874	37.49
370.09	77.98
370.305	-28.77
370.52	28.38
370.736	77.79
370.951	0.48
371.166	74.69
371.381	93.1
371.597	54.35
371.812	-4.94
372.027	16.18
372.242	17.15
372.458	73.72
372.673	11.92
372.888	14.63
373.103	33.42
373.318	110.53
373.533	30.32
373.749	42.33
373.964	-26.83
374.179	73.14
374.394	-11.72
374.609	58.22
374.824	-0.68
375.039	59.96
375.254	27.8
375.469	59.19
375.684	38.65
375.899	52.21
376.114	53.38
376.329	43.5
376.544	79.34
376.759	65
376.974	10.17
377.189	-20.05
377.404	28.38
377.619	56.86
377.834	-19.67
378.049	4.55
378.264	6.88
378.478	61.32
378.693	4.55
378.908	70.04
379.123	18.89
379.338	94.45
379.553	27.8
379.767	68.68
379.982	66.94
380.197	36.33
380.412	40.4
380.626	31.48
380.841	100.46
381.056	47.56
381.271	103.56
381.485	8.23
381.7	-17.34
381.915	38.27
382.129	27.42
382.344	51.05
382.559	31.1
382.773	47.95
382.988	-18.5
383.202	35.36
383.417	-4.55
383.632	106.27
383.846	38.65
384.061	54.35
384.275	4.75
384.49	60.74
384.704	59.77
384.919	17.15
385.133	43.88
385.348	46.4
385.562	6.49
385.777	75.85
385.991	10.56
386.206	10.56
386.42	43.3
386.634	76.63
386.849	58.41
387.063	28.97
387.277	14.24
387.492	40.4
387.706	0.68
387.92	17.53
388.135	41.37
388.349	60.93
388.563	47.18
388.778	52.41
388.992	93.1
389.206	43.88
389.42	93.1
389.635	45.43
389.849	64.23
390.063	96
390.277	50.28
390.491	117.31
390.706	54.93
390.92	72.36
391.134	47.37
391.348	82.83
391.562	38.27
391.776	41.56
391.99	19.47
392.205	71.98
392.419	18.31
392.633	40.98
392.847	97.55
393.061	26.25
393.275	108.01
393.489	38.65
393.703	72.95
393.917	86.31
394.131	26.83
394.345	50.08
394.559	72.75
394.773	50.28
394.986	60.74
395.2	23.35
395.414	80.31
395.628	31.87
395.842	76.24
396.056	39.23
396.27	12.11
396.484	85.73
396.697	71.98
396.911	119.45
397.125	57.06
397.339	88.25
397.553	72.95
397.766	111.89
397.98	83.02
398.194	93.1
398.408	49.11
398.621	100.46
398.835	94.06
399.049	100.07
399.262	118.67
399.476	95.61
399.69	114.6
399.903	154.9
400.117	79.73
400.331	88.64
400.544	68.1
400.758	200.43
400.971	73.72
401.185	132.81
401.398	79.34
401.612	127.2
401.826	123.32
402.039	122.55
402.253	97.75
402.466	120.03
402.68	73.14
402.893	100.85
403.106	110.53
403.32	92.71
403.533	102.2
403.747	87.86
403.96	122.55
404.174	113.25
404.387	83.99
404.6	109.95
404.814	148.89
405.027	122.93
405.24	93.87
405.454	95.61
405.667	132.04
405.88	60.93
406.094	100.26
406.307	132.23
406.52	106.08
406.733	93.29
406.947	82.63
407.16	166.91
407.373	161.49
407.586	53.96
407.799	74.3
408.012	144.44
408.226	132.81
408.439	178.93
408.652	74.5
408.865	147.93
409.078	160.52
409.291	124.29
409.504	91.93
409.717	128.16
409.93	130.49
410.143	144.05
410.357	73.14
410.57	60.16
410.783	123.71
410.996	138.24
411.209	126.61
411.421	151.22
411.634	128.75
411.847	131.46
412.06	129.91
412.273	127.97
412.486	145.02
412.699	223.29
412.912	135.53
413.125	140.76
413.338	132.04
413.55	158.58
413.763	151.03
413.976	158.78
414.189	97.94
414.402	119.64
414.615	184.54
414.827	144.44
415.04	141.53
415.253	158.78
415.466	170.79
415.678	203.53
415.891	139.79
416.104	144.63
416.316	132.81
416.529	145.6
416.742	183.77
416.954	187.64
417.167	148.12
417.38	131.84
417.592	166.53
417.805	111.31
418.017	94.84
418.23	175.83
418.442	142.5
418.655	125.65
418.868	149.48
419.08	179.12
419.293	177.38
419.505	169.82
419.718	175.44
419.93	188.23
420.142	131.84
420.355	169.82
420.567	200.43
420.78	163.04
420.992	154.9
421.205	189.19
421.417	152.38
421.629	137.46
421.842	118.86
422.054	148.51
422.266	188.23
422.479	191.91
422.691	170.79
422.903	179.89
423.115	151.8
423.328	171.56
423.54	156.26
423.752	154.13
423.964	159.55
424.177	173.89
424.389	153.35
424.601	258.94
424.813	164.78
425.025	210.31
425.238	175.05
425.45	170.79
425.662	170.01
425.874	439.13
426.086	180.86
426.298	187.64
426.51	203.34
426.722	203.14
426.934	172.14
427.146	228.52
427.358	137.85
427.57	190.55
427.782	166.91
427.994	168.66
428.206	157.42
428.418	127.2
428.63	203.14
428.842	206.44
429.054	183.38
429.266	208.38
429.478	151.03
429.69	187.26
429.902	143.66
430.114	195.2
430.325	165.56
430.537	163.04
430.749	161.68
430.961	131.26
431.173	151.8
431.384	198.69
431.596	108.6
431.808	189.97
432.02	207.99
432.231	244.41
432.443	231.04
432.655	212.25
432.867	185.9
433.078	211.48
433.29	268.63
433.502	257.2
433.713	241.89
433.925	214.19
434.136	248.09
434.348	169.04
434.56	150.83
434.771	298.86
434.983	153.54
435.194	189.97
435.406	210.31
435.617	266.11
435.829	281.81
436.04	251.39
436.252	256.42
436.463	283.55
436.675	272.51
436.886	250.61
437.098	251.19
437.309	305.83
437.521	241.12
437.732	247.12
437.943	238.6
438.155	258.94
438.366	182.41
438.578	294.79
438.789	239.76
439	257.01
439.211	229.3
439.423	263.59
439.634	268.63
439.845	260.49
440.057	266.5
440.268	291.3
440.479	257.01
440.69	282.19
440.902	257.01
441.113	241.7
441.324	243.64
441.535	269.02
441.746	313.77
441.957	240.34
442.168	266.5
442.38	293.24
442.591	288.2
442.802	257.78
443.013	275.99
443.224	286.46
443.435	282.39
443.646	311.06
443.857	268.24
444.068	270.37
444.279	244.22
444.49	348.65
444.701	307.19
444.912	388.17
445.123	324.04
445.334	302.15
445.545	329.27
445.756	287.42
445.967	282
446.178	317.84
446.388	338.77
446.599	337.8
446.81	324.62
447.021	285.68
447.232	313
447.443	376.94
447.653	292.85
447.864	349.04
448.075	311.45
448.286	347.1
448.496	351.17
448.707	379.84
448.918	310.29
449.129	399.02
449.339	326.75
449.55	360.27
449.761	312.22
449.971	387.59
450.182	330.24
450.393	354.85
450.603	327.14
450.814	372.67
451.024	373.84
451.235	378.68
451.446	388.56
451.656	406.19
451.867	368.6
452.077	395.73
452.288	419.95
452.498	426.34
452.709	359.3
452.919	393.79
453.13	337.8
453.34	400.96
453.55	337.6
453.761	396.7
453.971	358.14
454.182	367.44
454.392	391.08
454.602	413.94
454.813	411.42
455.023	416.65
455.233	348.84
455.444	382.75
455.654	320.17
455.864	373.25
456.075	403.09
456.285	361.82
456.495	369.77
456.705	404.83
456.916	439.32
457.126	443.39
457.336	411.23
457.546	345.16
457.756	381.59
457.967	424.21
458.177	390.69
458.387	430.99
458.597	340.9
458.807	371.7
459.017	397.86
459.227	367.05
459.437	367.25
459.647	416.65
459.857	407.35
460.068	408.52
460.278	442.23
460.488	417.04
460.698	440.87
460.908	407.55
461.117	366.28
461.327	399.02
461.537	427.5
461.747	430.99
461.957	424.21
462.167	505.78
462.377	457.15
462.587	446.68
462.797	462.57
463.007	411.42
463.216	448.82
463.426	498.41
463.636	471.48
463.846	412.58
464.056	428.47
464.265	458.31
464.475	420.14
464.685	468
464.895	460.05
465.104	458.5
465.314	469.55
465.524	432.35
465.733	420.53
465.943	507.33
466.153	519.15
466.362	476.33
466.572	498.8
466.782	473.62
466.991	469.93
467.201	498.8
467.41	409.48
467.62	477.1
467.829	445.52
468.039	451.33
468.249	459.28
468.458	447.07
468.668	482.33
468.877	487.18
469.086	529.22
469.296	551.11
469.505	475.75
469.715	558.86
469.924	512.36
470.134	564.87
470.343	523.21
470.552	490.08
470.762	515.08
470.971	469.35
471.18	486.79
471.39	476.52
471.599	480.4
471.808	531.35
472.018	507.91
472.227	556.35
472.436	563.32
472.645	561.96
472.855	505
473.064	598
473.273	539.88
473.482	558.48
473.691	604.2
473.901	571.07
474.11	540.46
474.319	644.69
474.528	583.28
474.737	620.09
474.946	587.54
475.155	589.28
475.364	632.29
475.573	620.09
475.783	631.13
475.992	626.09
476.201	647.79
476.41	617.76
476.619	566.23
476.828	582.89
477.037	595.48
477.245	604.39
477.454	657.87
477.663	633.46
477.872	616.99
478.081	696.04
478.29	621.64
478.499	704.76
478.708	658.26
478.917	718.71
479.125	628.42
479.334	693.13
479.543	652.83
479.752	676.47
479.961	683.83
480.169	711.92
480.378	684.8
480.587	816.55
480.796	733.43
481.004	687.32
481.213	696.23
481.422	708.63
481.63	713.28
481.839	776.44
482.048	791.17
482.256	747.19
482.465	750.09
482.674	807.05
482.882	793.88
483.091	817.9
483.299	775.67
483.508	823.72
483.716	765.01
483.925	784.77
484.134	764.62
484.342	766.17
484.551	825.46
484.759	804.73
484.967	820.62
485.176	824.49
485.384	837.28
485.593	831.08
485.801	811.7
486.01	820.42
486.218	764.62
486.426	682.09
486.635	717.35
486.843	744.67
487.051	762.69
487.26	766.17
487.468	776.83
487.676	798.72
487.885	808.8
488.093	834.76
488.301	809.77
488.509	880.68
488.717	898.12
488.926	863.05
489.134	851.42
489.342	860.92
489.55	855.1
489.758	866.34
489.967	870.8
490.175	989.37
490.383	920.4
490.591	984.53
490.799	887.65
491.007	962.83
491.215	956.82
491.423	935.7
491.631	923.11
491.839	933.96
492.047	985.11
492.255	901.8
492.463	870.41
492.671	914
492.879	964.76
493.087	914.39
493.295	979.1
493.503	983.75
493.711	1015.14
493.919	1028.89
494.127	1015.14
494.334	1022.5
494.542	942.68
494.75	1009.71
494.958	1020.18
495.166	1046.53
495.374	1021.73
495.581	1048.46
495.789	1025.21
495.997	1061.83
496.205	1030.64
496.412	1042.84
496.62	1022.89
496.828	1063.77
497.035	1044.39
497.243	1087.6
497.451	1073.26
497.658	1082.56
497.866	1077.33
498.074	1132.36
498.281	1038.58
498.489	1135.26
498.696	1112.21
498.904	1099.81
499.112	1042.65
499.319	1168.78
499.527	1095.93
499.734	1124.22
499.942	1075.01
500.149	1089.73
500.357	1157.93
500.564	1061.25
500.771	1141.27
500.979	1084.89
501.186	1096.9
501.394	1137.2
501.601	1098.64
501.808	1145.92
502.016	1117.82
502.223	1088.76
502.43	1146.11
502.638	1110.07
502.845	1125.96
503.052	1218.57
503.26	1180.79
503.467	1210.63
503.674	1181.95
503.881	1192.42
504.089	1270.3
504.296	1204.24
504.503	1178.08
504.71	1192.03
504.917	1164.91
505.125	1209.27
505.332	1195.9
505.539	1242.6
505.746	1310.6
505.953	1282.12
506.16	1296.85
506.367	1339.86
506.574	1367.18
506.781	1371.63
506.988	1321.26
507.195	1346.64
507.402	1341.22
507.609	1362.14
507.816	1325.91
508.023	1342.96
508.23	1345.28
508.437	1285.03
508.644	1364.85
508.851	1415.42
509.058	1429.95
509.265	1420.65
509.472	1438.28
509.679	1533.22
509.885	1421.04
510.092	1454.56
510.299	1464.63
510.506	1466.18
510.713	1464.44
510.92	1463.86
511.126	1489.82
511.333	1559.37
511.54	1539.22
511.746	1571.39
511.953	1577.78
512.16	1621.57
512.367	1540.19
512.573	1583.98
512.78	1584.76
512.987	1594.44
513.193	1587.86
513.4	1546.59
513.606	1591.54
513.813	1626.41
514.02	1627.57
514.226	1653.73
514.433	1674.07
514.639	1614.79
514.846	1676.4
515.052	1654.5
515.259	1653.34
515.465	1682.6
515.672	1681.82
515.878	1753.51
516.085	1738.2
516.291	1767.65
516.497	1708.75
516.704	1699.84
516.91	1704.88
517.117	1588.05
517.323	1543.1
517.529	1582.62
517.736	1598.12
517.942	1633.19
518.148	1652.95
518.354	1736.27
518.561	1698.49
518.767	1726.58
518.973	1757
519.179	1800.4
519.386	1785.87
519.592	1786.25
519.798	1799.04
520.004	1901.92
520.21	1849.8
520.417	1958.69
520.623	1996.27
520.829	2015.65
521.035	2020.3
521.241	2000.73
521.447	2041.03
521.653	2167.16
521.859	2057.5
522.065	2107.1
522.271	2186.73
522.477	2166.77
522.683	2219.86
522.889	2163.28
523.095	2136.16
523.301	2162.7
523.507	2170.65
523.713	2184.4
523.919	2171.62
524.125	2264.81
524.331	2262.48
524.537	2357.42
524.742	2354.9
524.948	2385.9
525.154	2393.46
525.36	2483.55
525.566	2389.78
525.772	2436.86
525.977	2334.17
526.183	2391.33
526.389	2456.23
526.595	2353.16
526.8	2331.07
527.006	2252.6
527.212	2232.06
527.417	2204.75
527.623	2214.63
527.829	2337.27
528.034	2352.19
528.24	2372.92
528.446	2362.65
528.651	2509.9
528.857	2512.8
529.062	2551.55
529.268	2577.52
529.473	2563.95
529.679	2601.73
529.884	2680.78
530.09	2648.62
530.295	2605.22
530.501	2648.82
530.706	2681.17
530.912	2594.37
531.117	2682.72
531.323	2693.76
531.528	2741.81
531.733	2762.74
531.939	2713.72
532.144	2717.98
532.35	2701.13
532.555	2765.06
532.76	2703.84
532.966	2732.51
533.171	2649.78
533.376	2651.33
533.581	2627.89
533.787	2661.22
533.992	2732.71
534.197	2782.11
534.402	2729.41
534.607	2773.98
534.813	2851.28
535.018	2761.19
535.223	2833.46
535.428	2824.93
535.633	2877.82
535.838	2902.24
536.043	2937.5
536.249	2974.31
536.454	2923.16
536.659	2923.94
536.864	2912.89
537.069	2858.84
537.274	2913.47
537.479	2885.38
537.684	2911.54
537.889	2844.5
538.094	3018.29
538.299	2901.46
538.504	2980.32
538.708	2980.7
538.913	3000.47
539.118	2983.22
539.323	2998.72
539.528	2930.72
539.733	2942.54
539.938	2889.26
540.142	2962.49
540.347	2915.02
540.552	2914.25
540.757	2870.66
540.962	2886.93
541.166	2844.69
541.371	2790.25
541.576	2901.66
541.781	2807.88
541.985	2948.54
542.19	2947.38
542.395	3027.2
542.599	3027.98
542.804	2978.77
543.008	3071.57
543.213	2953.19
543.418	2952.61
543.622	3005.31
543.827	2973.15
544.031	3046.97
544.236	3065.95
544.44	3051.81
544.645	3111.29
544.849	3049.29
545.054	3109.93
545.258	3151.59
545.463	3161.86
545.667	3033.21
545.872	3128.15
546.076	3115.94
546.281	3084.94
546.485	3079.32
546.689	3091.92
546.894	3130.28
547.098	3111.68
547.302	3049.29
547.507	3151.78
547.711	3119.81
547.915	3133.57
548.119	3020.62
548.324	3075.45
548.528	3121.95
548.732	3104.51
548.936	3138.03
549.141	3157.79
549.345	3125.24
549.549	3129.5
549.753	3148.88
549.957	3241.29
550.161	3220.56
550.366	3188.98
550.57	3153.72
550.774	3139.38
550.978	3181.43
551.182	3201.19
551.386	3152.75
551.59	3145.2
551.794	3115.94
551.998	3194.02
552.202	3205.84
552.406	3126.6
552.61	3206.42
552.814	3206.42
553.018	3249.63
553.222	3149.46
553.426	3134.73
553.63	3266.09
553.833	3188.21
554.037	3105.09
554.241	3150.43
554.445	3223.86
554.649	3185.69
554.853	3157.6
555.056	3217.85
555.26	3227.73
555.464	3146.36
555.668	3209.91
555.871	3178.91
556.075	3212.23
556.279	3207
556.483	3107.22
556.686	3139.38
556.89	3132.41
557.094	3160.5
557.297	3020.81
557.501	3111.48
557.704	3009.38
557.908	3075.64
558.112	3030.11
558.315	3111.29
558.519	3035.53
558.722	2970.44
558.926	3047.35
559.129	2932.65
559.333	2965.01
559.536	2944.09
559.74	2899.52
559.943	2895.46
560.147	2879.76
560.35	2954.35
560.553	2932.65
560.757	2902.24
560.96	3018.29
561.164	2938.85
561.367	3032.05
561.57	2934.4
561.774	2934.98
561.977	2957.45
562.18	2926.46
562.384	2999.5
562.587	2911.73
562.79	2903.98
562.993	2863.87
563.197	2914.06
563.4	2998.92
563.603	2968.89
563.806	3002.02
564.009	2908.05
564.212	2898.75
564.416	2853.8
564.619	2876.86
564.822	2849.92
565.025	2890.03
565.228	2848.96
565.431	2855.93
565.634	2720.7
565.837	2776.49
566.04	2741.04
566.243	2718.37
566.446	2645.72
566.649	2765.45
566.852	2655.02
567.055	2743.95
567.258	2709.46
567.461	2775.33
567.664	2770.29
567.867	2689.31
568.07	2689.7
568.273	2712.17
568.475	2692.6
568.678	2621.11
568.881	2662.38
569.084	2624.4
569.287	2500.6
569.489	2562.79
569.692	2603.28
569.895	2588.75
570.098	2492.07
570.3	2504.86
570.503	2458.56
570.706	2475.02
570.909	2470.57
571.111	2342.5
571.314	2409.73
571.516	2381.06
571.719	2440.73
571.922	2427.56
572.124	2360.71
572.327	2426.97
572.529	2358
572.732	2387.06
572.935	2410.51
573.137	2498.66
573.34	2370.98
573.542	2414.96
573.745	2415.35
573.947	2431.24
574.15	2378.73
574.352	2339.98
574.554	2421.36
574.757	2365.36
574.959	2304.14
575.162	2315.38
575.364	2288.83
575.566	2367.11
575.769	2287.67
575.971	2263.84
576.173	2172.58
576.376	2261.51
576.578	2247.76
576.78	2352.38
576.982	2184.6
577.185	2228.96
577.387	2209.78
577.589	2225.87
577.791	2280.7
577.993	2253.57
578.196	2208.04
578.398	2192.35
578.6	2204.36
578.802	2108.26
579.004	2147.4
579.206	2104.77
579.408	2174.52
579.61	2111.36
579.812	2193.51
580.014	2114.07
580.216	2141.2
580.418	2128.8
580.62	2124.34
580.822	2095.86
581.024	2171.03
581.226	2187.89
581.428	2160.18
581.63	2243.11
581.832	2116.98
582.034	2207.46
582.236	2143.52
582.438	2195.25
582.64	2242.91
582.841	2216.95
583.043	2247.56
583.245	2202.81
583.447	2195.64
583.649	2201.07
583.85	2170.45
584.052	2234.39
584.254	2194.09
584.456	2235.16
584.657	2139.45
584.859	2187.12
585.061	2169.48
585.262	2137.13
585.464	2122.02
585.666	2170.84
585.867	2118.14
586.069	2163.48
586.27	2144.88
586.472	2123.57
586.674	2127.05
586.875	2086.37
587.077	2120.27
587.278	2121.44
587.48	2090.24
587.681	2188.86
587.883	2090.24
588.084	2048.78
588.285	2076.87
588.487	2049.56
588.688	2027.47
588.89	1932.92
589.091	1881.77
589.292	1860.46
589.494	1840.5
589.695	1805.43
589.896	1733.75
590.098	1748.67
590.299	1747.7
590.5	1753.51
590.702	1844.57
590.903	1847.28
591.104	1912.38
591.305	1898.43
591.507	1918.39
591.708	1922.65
591.909	1866.66
592.11	1905.02
592.311	1935.44
592.512	1896.49
592.714	1842.25
592.915	1857.36
593.116	1879.44
593.317	1877.7
593.518	1877.12
593.719	1871.31
593.92	1948.23
594.121	1927.88
594.322	1877.9
594.523	1889.13
594.724	1806.6
594.925	1885.26
595.126	1854.06
595.327	1894.94
595.528	1834.88
595.729	1877.51
595.929	1868.01
596.13	1856.39
596.331	1891.07
596.532	1917.61
596.733	1982.91
596.934	1933.69
597.135	1932.14
597.335	1897.85
597.536	1875.18
597.737	1872.66
597.938	1858.91
598.138	1901.92
598.339	1884.87
598.54	1905.02
598.74	1868.21
598.941	1861.81
599.142	1932.14
599.342	1877.12
599.543	1866.46
599.744	1909.28
599.944	1877.9
600.145	1888.94
600.345	1881.96
600.546	1920.33
600.746	1943.77
600.947	1961.98
601.147	1889.33
601.348	1887.19
601.548	1852.9
601.749	1876.54
601.949	1835.27
602.15	1876.15
602.35	1835.08
602.551	1881.38
602.751	1834.3
602.951	1834.11
603.152	1765.13
603.352	1878.86
603.552	1852.71
603.753	1872.47
603.953	1913.93
604.153	1858.13
604.354	1863.56
604.554	1876.73
604.754	1854.45
604.954	1866.46
605.155	1880.03
605.355	1853.68
605.555	1865.11
605.755	1950.74
605.955	1818.03
606.155	1885.26
606.356	1841.86
606.556	1875.18
606.756	1854.65
606.956	1853.1
607.156	1872.47
607.356	1811.44
607.556	1849.61
607.756	1877.12
607.956	1903.08
608.156	1829.46
608.356	1808.34
608.556	1858.13
608.756	1808.15
608.956	1779.86
609.156	1804.46
609.356	1784.32
609.556	1779.28
609.755	1763.97
609.955	1764.17
610.155	1756.03
610.355	1801.56
610.555	1741.88
610.755	1733.36
610.954	1689.38
611.154	1782.18
611.354	1770.56
611.554	1733.75
611.753	1744.79
611.953	1697.32
612.153	1750.41
612.352	1770.37
612.552	1691.9
612.752	1667.29
612.951	1730.65
613.151	1698.87
613.351	1699.45
613.55	1688.22
613.75	1721.54
613.949	1690.15
614.149	1676.2
614.348	1682.6
614.548	1639.2
614.747	1596.19
614.947	1652.18
615.146	1586.31
615.346	1695.19
615.545	1649.27
615.745	1640.36
615.944	1647.92
616.144	1610.72
616.343	1632.22
616.542	1592.31
616.742	1610.52
616.941	1585.34
