Data from gum_young_FLMT105791__120__17-40-48-040.txt Node

Date: Mon Mar 20 17:40:48 GMT 2023
User: antho
Spectrometer: FLMT10579
Trigger mode: 0
Integration Time (sec): 1.000000E-1
Scans to average: 10
Electric dark correction enabled: true
Nonlinearity correction enabled: false
Boxcar width: 0
XAxis mode: Wavelengths
Number of Pixels in Spectrum: 3648
>>>>>Begin Spectral Data<<<<<
345.248	-147.65
345.464	-147.65
345.681	-147.65
345.898	-150.56
346.114	-140.48
346.331	4.25
346.548	11.61
346.764	-21.52
346.981	0.18
347.197	-16.1
347.414	19.16
347.631	-11.45
347.847	67.99
348.064	-7.77
348.28	17.61
348.497	-28.3
348.713	-35.67
348.93	24.4
349.146	40.09
349.363	-3.12
349.579	37.76
349.796	18.39
350.012	1.73
350.229	8.51
350.445	8.51
350.661	6.38
350.878	10.83
351.094	6.77
351.311	31.37
351.527	22.26
351.743	-25.59
351.96	32.53
352.176	24.98
352.392	43.19
352.609	38.15
352.825	-16.29
353.041	-5.63
353.257	25.17
353.474	23.43
353.69	10.83
353.906	27.11
354.122	-0.6
354.339	46.48
354.555	10.64
354.771	16.65
354.987	37.96
355.203	30.6
355.42	-0.6
355.636	-5.25
355.852	-17.84
356.068	13.55
356.284	-21.33
356.5	67.02
356.716	34.66
356.932	11.41
357.148	36.41
357.364	7.35
357.58	49.97
357.796	68.38
358.012	79.81
358.228	12
358.444	-21.33
358.66	54.81
358.876	37.38
359.092	-0.98
359.308	28.27
359.524	38.35
359.74	-26.17
359.956	2.31
360.172	10.06
360.388	45.71
360.604	18.78
360.819	80.2
361.035	36.02
361.251	60.63
361.467	-14.35
361.683	56.95
361.898	43.19
362.114	54.23
362.33	25.17
362.546	87.17
362.762	8.31
362.977	37.38
363.193	-16.29
363.409	36.8
363.624	-9.32
363.84	24.01
364.056	8.12
364.271	34.86
364.487	54.04
364.703	2.89
364.918	4.83
365.134	30.6
365.35	-17.45
365.565	96.28
365.781	12.19
365.996	24.2
366.212	87.36
366.427	51.33
366.643	-1.76
366.858	3.67
367.074	-5.25
367.289	66.25
367.505	110.03
367.72	-15.9
367.936	23.43
368.151	54.23
368.367	44.16
368.582	30.79
368.798	12.96
369.013	71.48
369.228	13.93
369.444	40.67
369.659	86.01
369.874	51.52
370.09	40.67
370.305	-23.46
370.52	26.33
370.736	50.36
370.951	19.16
371.166	42.03
371.381	64.11
371.597	48.61
371.812	-1.76
372.027	-3.5
372.242	26.72
372.458	96.86
372.673	30.6
372.888	-10.67
373.103	35.05
373.318	107.13
373.533	47.65
373.749	56.95
373.964	-14.74
374.179	92.21
374.394	12
374.609	87.75
374.824	9.09
375.039	71.67
375.254	4.44
375.469	65.28
375.684	17.23
375.899	68.18
376.114	0.37
376.329	46.29
376.544	51.71
376.759	53.07
376.974	26.72
377.189	32.53
377.404	9.09
377.619	63.53
377.834	-5.05
378.049	-1.57
378.264	-4.67
378.478	12.38
378.693	0.37
378.908	58.3
379.123	30.79
379.338	77.48
379.553	32.15
379.767	42.8
379.982	54.04
380.197	70.31
380.412	30.21
380.626	67.02
380.841	100.34
381.056	38.54
381.271	93.37
381.485	8.31
381.7	35.25
381.915	15.87
382.129	17.03
382.344	47.45
382.559	44.35
382.773	78.65
382.988	9.48
383.202	53.65
383.417	9.48
383.632	125.92
383.846	35.63
384.061	43.58
384.275	38.35
384.49	57.53
384.704	57.72
384.919	54.23
385.133	20.52
385.348	64.31
385.562	-5.83
385.777	77.48
385.991	74.58
386.206	40.28
386.42	19.36
386.634	55.59
386.849	60.43
387.063	43.38
387.277	46.48
387.492	50.16
387.706	12.19
387.92	22.65
388.135	63.15
388.349	39.12
388.563	34.08
388.778	43.58
388.992	69.54
389.206	61.98
389.42	133.67
389.635	55.2
389.849	67.02
390.063	89.3
390.277	46.68
390.491	88.14
390.706	61.21
390.92	95.5
391.134	29.63
391.348	102.48
391.562	21.1
391.776	45.13
391.99	30.21
392.205	72.06
392.419	18.2
392.633	58.5
392.847	90.66
393.061	27.5
393.275	102.67
393.489	56.17
393.703	44.93
393.917	74.96
394.131	47.26
394.345	72.64
394.559	67.6
394.773	38.73
394.986	58.3
395.2	58.11
395.414	106.54
395.628	34.28
395.842	72.25
396.056	51.91
396.27	15.68
396.484	81.55
396.697	65.47
396.911	99.96
397.125	79.03
397.339	79.23
397.553	76.13
397.766	120.3
397.98	92.01
398.194	91.24
398.408	35.83
398.621	90.27
398.835	80
399.049	53.07
399.262	132.7
399.476	103.25
399.69	117.59
399.903	146.07
400.117	79.23
400.331	113.71
400.544	58.88
400.758	185.01
400.971	81.16
401.185	141.61
401.398	71.86
401.612	130.57
401.826	95.31
402.039	108.09
402.253	74.38
402.466	118.56
402.68	77.68
402.893	101.31
403.106	111.78
403.32	74.77
403.533	139.68
403.747	109.26
403.96	103.83
404.174	132.31
404.387	70.51
404.6	98.02
404.814	117.59
405.027	114.1
405.24	121.08
405.454	85.43
405.667	119.53
405.88	53.85
406.094	118.36
406.307	126.31
406.52	119.33
406.733	87.95
406.947	48.23
407.16	160.6
407.373	122.82
407.586	89.11
407.799	64.7
408.012	148.01
408.226	146.26
408.439	155.76
408.652	85.81
408.865	123.01
409.078	142
409.291	118.75
409.504	79.23
409.717	121.27
409.93	153.04
410.143	132.31
410.357	78.06
410.57	80.58
410.783	119.14
410.996	137.54
411.209	146.26
411.421	151.11
411.634	130.18
411.847	103.06
412.06	121.46
412.273	153.82
412.486	125.92
412.699	195.09
412.912	130.96
413.125	181.91
413.338	125.53
413.55	143.16
413.763	153.04
413.976	172.23
414.189	116.81
414.402	128.24
414.615	182.88
414.827	118.75
415.04	181.33
415.253	155.56
415.466	156.73
415.678	194.51
415.891	141.42
416.104	157.31
416.316	162.15
416.529	141.42
416.742	169.32
416.954	185.01
417.167	122.24
417.38	142
417.592	169.51
417.805	135.61
418.017	92.98
418.23	168.16
418.442	129.02
418.655	133.28
418.868	124.95
419.08	184.24
419.293	196.83
419.505	172.23
419.718	188.89
419.93	182.49
420.142	147.43
420.355	186.56
420.567	211.17
420.78	220.47
420.992	156.92
421.205	248.95
421.417	131.15
421.629	142
421.842	144.13
422.054	137.54
422.266	180.75
422.479	193.34
422.691	135.61
422.903	188.31
423.115	150.91
423.328	169.51
423.54	189.47
423.752	182.88
423.964	165.25
424.177	183.46
424.389	166.8
424.601	266.39
424.813	173.78
425.025	218.72
425.238	193.92
425.45	186.37
425.662	189.08
425.874	432.43
426.086	172.03
426.298	197.99
426.51	199.93
426.722	191.79
426.934	179.98
427.146	200.9
427.358	167.58
427.57	194.12
427.782	176.68
427.994	179.01
428.206	158.66
428.418	141.03
428.63	205.55
428.842	246.43
429.054	173.58
429.266	224.92
429.478	151.3
429.69	211.36
429.902	116.43
430.114	187.14
430.325	199.54
430.537	153.82
430.749	159.44
430.961	107.51
431.173	157.89
431.384	192.37
431.596	121.66
431.808	164.28
432.02	221.63
432.231	243.33
432.443	232.48
432.655	200.71
432.867	177.84
433.078	248.95
433.29	276.65
433.502	224.73
433.713	256.31
433.925	236.94
434.136	247.59
434.348	181.33
434.56	166.8
434.771	298.74
434.983	179.39
435.194	173.97
435.406	211.56
435.617	272.39
435.829	288.67
436.04	269.87
436.252	260.38
436.463	291.77
436.675	276.27
436.886	282.66
437.098	238.87
437.309	302.81
437.521	246.24
437.732	271.23
437.943	235
438.155	220.66
438.366	195.86
438.578	311.14
438.789	237.32
439	260.38
439.211	214.85
439.423	274.14
439.634	242.36
439.845	288.28
440.057	267.16
440.268	290.41
440.479	241.97
440.69	254.96
440.902	223.37
441.113	259.41
441.324	233.26
441.535	295.25
441.746	325.87
441.957	268.52
442.168	266.77
442.38	313.47
442.591	314.82
442.802	250.5
443.013	273.17
443.224	305.72
443.435	261.74
443.646	283.63
443.857	279.37
444.068	279.95
444.279	251.86
444.49	358.42
444.701	282.66
444.912	384.18
445.123	366.17
445.334	299.9
445.545	300.49
445.756	303.97
445.967	283.82
446.178	297.58
446.388	320.05
446.599	326.84
446.81	362.68
447.021	299.71
447.232	366.55
447.443	393.1
447.653	286.92
447.864	353.38
448.075	340.4
448.286	366.75
448.496	312.5
448.707	376.05
448.918	312.5
449.129	421.77
449.339	318.7
449.55	341.37
449.761	325.29
449.971	364.23
450.182	333.42
450.393	358.42
450.603	351.83
450.814	380.89
451.024	353.77
451.235	388.45
451.446	441.15
451.656	419.25
451.867	354.15
452.077	346.02
452.288	418.67
452.498	397.75
452.709	376.05
452.919	374.88
453.13	327.8
453.34	390.38
453.55	312.11
453.761	372.17
453.971	393.1
454.182	377.79
454.392	385.73
454.602	463.81
454.813	387.87
455.023	397.94
455.233	360.16
455.444	359.58
455.654	324.12
455.864	373.53
456.075	390.19
456.285	372.95
456.495	395.23
456.705	390.58
456.916	422.35
457.126	452.58
457.336	397.17
457.546	335.75
457.756	390.19
457.967	442.7
458.177	366.36
458.387	391.74
458.597	355.51
458.807	374.3
459.017	391.55
459.227	402.2
459.437	370.62
459.647	445.99
459.857	442.12
460.068	381.86
460.278	447.54
460.488	437.08
460.698	479.12
460.908	386.9
461.117	391.93
461.327	379.53
461.537	432.04
461.747	422.16
461.957	406.66
462.167	525.04
462.377	460.52
462.587	427.39
462.797	455.87
463.007	448.9
463.216	447.35
463.426	483.58
463.636	473.11
463.846	379.73
464.056	419.64
464.265	496.75
464.475	419.83
464.685	464.4
464.895	486.87
465.104	429.13
465.314	501.6
465.524	432.82
465.733	411.89
465.943	512.45
466.153	520.39
466.362	477.18
466.572	474.86
466.782	456.26
466.991	476.8
467.201	499.08
467.41	424.29
467.62	479.9
467.829	493.65
468.039	488.23
468.249	455.29
468.458	472.73
468.668	517.48
468.877	490.75
469.086	540.15
469.296	524.65
469.505	501.79
469.715	578.32
469.924	499.27
470.134	526.98
470.343	540.15
470.552	488.81
470.762	504.7
470.971	455.29
471.18	507.02
471.39	522.33
471.599	481.45
471.808	523.1
472.018	500.24
472.227	527.17
472.436	584.91
472.645	548.48
472.855	519.61
473.064	601.18
473.273	558.36
473.482	582
473.691	579.09
473.901	565.34
474.11	567.28
474.319	646.71
474.528	555.65
474.737	634.89
474.946	578.13
475.155	595.76
475.364	626.17
475.573	594.59
475.783	617.84
475.992	631.21
476.201	639.74
476.41	579.68
476.619	567.86
476.828	600.02
477.037	602.54
477.245	579.29
477.454	633.54
477.663	621.72
477.872	600.21
478.081	699.61
478.29	604.28
478.499	713.17
478.708	657.76
478.917	719.95
479.125	644.97
479.334	692.82
479.543	639.16
479.752	701.35
479.961	691.27
480.169	726.15
480.378	678.68
480.587	822.44
480.796	758.31
481.004	700.96
481.213	726.15
481.422	709.49
481.63	744.94
481.839	750.56
482.048	800.55
482.256	726.92
482.465	787.57
482.674	793.19
482.882	784.47
483.091	830.38
483.299	766.25
483.508	792.02
483.716	787.95
483.925	802.1
484.134	795.12
484.342	771.1
484.551	832.13
484.759	809.46
484.967	837.75
485.176	801.71
485.384	845.69
485.593	807.91
485.801	800.55
486.01	798.03
486.218	760.64
486.426	670.54
486.635	733.32
486.843	703.67
487.051	761.02
487.26	743.78
487.468	782.34
487.676	803.65
487.885	811.4
488.093	852.47
488.301	848.98
488.509	880.76
488.717	894.13
488.926	855.96
489.134	836.2
489.342	873.2
489.55	815.08
489.758	905.17
489.967	899.75
490.175	991.78
490.383	930.16
490.591	984.41
490.799	923.19
491.007	971.43
491.215	941.4
491.423	936.75
491.631	924.16
491.839	935.59
492.047	991.78
492.255	908.08
492.463	874.95
492.671	900.33
492.879	955.74
493.087	947.6
493.295	979.96
493.503	961.16
493.711	1000.69
493.919	1004.18
494.127	999.72
494.334	1010.38
494.542	986.16
494.75	1003.4
494.958	1003.98
495.166	1070.24
495.374	1042.15
495.581	1053.58
495.789	1059.2
495.997	1105.7
496.205	1014.64
496.412	1056.87
496.62	1028.59
496.828	1057.07
497.035	1071.41
497.243	1066.17
497.451	1104.15
497.658	1119.46
497.866	1032.66
498.074	1138.64
498.281	1092.52
498.489	1105.12
498.696	1107.44
498.904	1071.6
499.112	1065.59
499.319	1166.34
499.527	1105.89
499.734	1138.64
499.942	1078.57
500.149	1107.25
500.357	1129.92
500.564	1065.01
500.771	1146.58
500.979	1108.41
501.186	1085.16
501.394	1119.07
501.601	1093.88
501.808	1104.54
502.016	1110.16
502.223	1119.26
502.43	1146.97
502.638	1151.04
502.845	1117.13
503.052	1210.71
503.26	1153.17
503.467	1226.6
503.674	1197.15
503.881	1188.24
504.089	1266.7
504.296	1195.79
504.503	1145.8
504.71	1171.38
504.917	1179.9
505.125	1220.4
505.332	1220.2
505.539	1248.88
505.746	1310.3
505.953	1286.66
506.16	1281.04
506.367	1352.15
506.574	1369.58
506.781	1361.64
506.988	1316.69
507.195	1344.98
507.402	1335.68
507.609	1367.84
507.816	1347.3
508.023	1320.95
508.23	1288.21
508.437	1311.27
508.644	1367.06
508.851	1420.15
509.058	1403.1
509.265	1415.69
509.472	1479.63
509.679	1527.87
509.885	1404.07
510.092	1461.81
510.299	1423.83
510.506	1436.81
510.713	1468.39
510.92	1481.96
511.126	1534.27
511.333	1531.17
511.54	1539.11
511.746	1619.71
511.953	1571.08
512.16	1623
512.367	1576.12
512.573	1585.42
512.78	1584.06
512.987	1586.97
513.193	1605.57
513.4	1524.39
513.606	1590.45
513.813	1647.61
514.02	1580.96
514.226	1665.63
514.433	1653.23
514.639	1610.22
514.846	1678.22
515.052	1656.91
515.259	1680.74
515.465	1691.59
515.672	1721.23
515.878	1783.04
516.085	1739.83
516.291	1815.01
516.497	1770.25
516.704	1724.72
516.91	1689.85
517.117	1649.74
517.323	1563.14
517.529	1610.6
517.736	1597.82
517.942	1639.28
518.148	1680.35
518.354	1736.73
518.561	1737.32
518.767	1730.73
518.973	1802.61
519.179	1827.02
519.386	1825.08
519.592	1791.37
519.798	1825.28
520.004	1976.98
520.21	1959.35
520.417	1973.69
520.623	2015.73
520.829	2039.56
521.035	2009.72
521.241	2039.95
521.447	2072.5
521.653	2210.06
521.859	2071.72
522.065	2160.65
522.271	2226.33
522.477	2167.63
522.683	2233.31
522.889	2201.73
523.095	2206.57
523.301	2160.85
523.507	2159.3
523.713	2182.35
523.919	2166.08
524.125	2298.79
524.331	2281.16
524.537	2356.92
524.742	2362.93
524.948	2380.56
525.154	2408.84
525.36	2474.33
525.566	2385.98
525.772	2497
525.977	2382.11
526.183	2436.36
526.389	2509.2
526.595	2368.35
526.8	2344.91
527.006	2259.08
527.212	2239.7
527.417	2212.58
527.623	2247.84
527.829	2381.72
528.034	2353.63
528.24	2440.04
528.446	2460.96
528.651	2506.1
528.857	2546.02
529.062	2597.36
529.268	2587.28
529.473	2643.47
529.679	2635.14
529.884	2695.78
530.09	2625.07
530.295	2661.68
530.501	2716.13
530.706	2652.19
530.912	2670.21
531.117	2712.83
531.323	2693.26
531.528	2755.07
531.733	2769.21
531.939	2703.15
532.144	2770.76
532.35	2761.27
532.555	2773.86
532.76	2714.58
532.966	2729.11
533.171	2658.97
533.376	2645.41
533.581	2659.16
533.787	2691.13
533.992	2771.73
534.197	2765.92
534.402	2764.56
534.607	2791.11
534.813	2875.19
535.018	2835.67
535.223	2832.37
535.428	2865.7
535.633	2940.29
535.838	2915.69
536.043	2955.6
536.249	3044.14
536.454	2923.63
536.659	2984.47
536.864	2942.62
537.069	2888.76
537.274	2887.4
537.479	2891.27
537.684	2935.64
537.889	2903.09
538.094	2980.59
538.299	2912.2
538.504	3043.17
538.708	2974.39
538.913	3020.89
539.118	2990.86
539.323	2963.35
539.528	2915.88
539.733	2948.04
539.938	2957.34
540.142	2962.96
540.347	2907.94
540.552	2901.35
540.757	2880.04
540.962	2894.95
541.166	2883.72
541.371	2844
541.576	2890.11
541.781	2815.52
541.985	2966.25
542.19	2936.22
542.395	3044.92
542.599	3087.93
542.804	3013.14
543.008	3062.74
543.213	3016.43
543.418	2974.39
543.622	3022.25
543.827	2943
544.031	3062.16
544.236	3054.99
544.44	3059.64
544.645	3141.79
544.849	3043.75
545.054	3101.1
545.258	3172.98
545.463	3162.71
545.667	3054.22
545.872	3136.56
546.076	3140.63
546.281	3114.47
546.485	3065.84
546.689	3107.11
546.894	3142.76
547.098	3132.3
547.302	3088.31
547.507	3092.38
547.711	3121.25
547.915	3164.46
548.119	3051.89
548.324	3090.25
548.528	3184.8
548.732	3091.03
548.936	3169.88
549.141	3157.29
549.345	3134.62
549.549	3184.22
549.753	3187.9
549.957	3245.06
550.161	3246.61
550.366	3231.11
550.57	3143.53
550.774	3167.75
550.978	3148.76
551.182	3189.84
551.386	3131.91
551.59	3187.13
551.794	3153.41
551.998	3264.43
552.202	3209.6
552.406	3146.83
552.61	3208.05
552.814	3191.19
553.018	3217.74
553.222	3195.84
553.426	3166.2
553.63	3264.04
553.833	3227.43
554.037	3131.13
554.241	3217.54
554.445	3178.02
554.649	3183.83
554.853	3178.21
555.056	3248.93
555.26	3237.89
555.464	3228.59
555.668	3261.91
555.871	3261.52
556.075	3281.87
556.279	3175.69
556.483	3197.01
556.686	3106.72
556.89	3150.9
557.094	3159.23
557.297	3067.78
557.501	3136.17
557.704	3053.05
557.908	3143.34
558.112	3077.08
558.315	3164.65
558.519	3063.9
558.722	3051.31
558.926	3085.21
559.129	2951.72
559.333	2962.38
559.536	2955.6
559.74	2948.82
559.943	2936.61
560.147	2936.03
560.35	2937
560.553	3005.78
560.757	2915.1
560.96	3040.65
561.164	2984.66
561.367	3058.67
561.57	2977.49
561.774	2981.37
561.977	2967.22
562.18	2963.35
562.384	3030
562.587	2882.17
562.79	2932.74
562.993	2923.44
563.197	2894.95
563.4	2950.95
563.603	2963.54
563.806	2986.79
564.009	2881.01
564.212	2893.79
564.416	2805.44
564.619	2854.27
564.822	2835.67
565.025	2879.07
565.228	2831.99
565.431	2871.71
565.634	2752.74
565.837	2802.73
566.04	2730.08
566.243	2777.93
566.446	2675.05
566.649	2774.83
566.852	2707.8
567.055	2748.48
567.258	2755.26
567.461	2806.41
567.664	2764.95
567.867	2720.39
568.07	2714.77
568.273	2750.23
568.475	2741.89
568.678	2639.4
568.881	2666.53
569.084	2636.3
569.287	2515.4
569.489	2572.75
569.692	2619.06
569.895	2625.45
570.098	2544.08
570.3	2547.76
570.503	2447.4
570.706	2498.74
570.909	2491.19
571.111	2402.84
571.314	2451.08
571.516	2436.16
571.719	2455.54
571.922	2397.41
572.124	2438.49
572.327	2452.63
572.529	2362.15
572.732	2353.43
572.935	2421.82
573.137	2491.57
573.34	2395.67
573.542	2470.65
573.745	2433.26
573.947	2435.19
574.15	2405.16
574.352	2406.52
574.554	2426.67
574.757	2344.91
574.959	2327.28
575.162	2342.58
575.364	2287.17
575.566	2392.57
575.769	2272.45
575.971	2313.91
576.173	2173.25
576.376	2251.33
576.578	2294.14
576.78	2315.65
576.982	2200.76
577.185	2247.06
577.387	2226.14
577.589	2238.35
577.791	2257.33
577.993	2246.87
578.196	2226.14
578.398	2230.21
578.6	2268.18
578.802	2149.61
579.004	2137.98
579.206	2192.43
579.408	2224.59
579.61	2119.38
579.812	2227.88
580.014	2176.54
580.216	2190.3
580.418	2200.37
580.62	2172.47
580.822	2091.29
581.024	2162.01
581.226	2218.78
581.428	2156.39
581.63	2282.33
581.832	2136.43
582.034	2236.02
582.236	2194.36
582.438	2209.48
582.64	2258.3
582.841	2263.53
583.043	2321.27
583.245	2225.36
583.447	2225.17
583.649	2222.65
583.85	2195.14
584.052	2255.78
584.254	2168.4
584.456	2254.62
584.657	2160.46
584.859	2187.97
585.061	2200.18
585.262	2184.29
585.464	2126.36
585.666	2165.3
585.867	2128.68
586.069	2221.1
586.27	2171.89
586.472	2112.6
586.674	2107.37
586.875	2113.38
587.077	2132.37
587.278	2147.09
587.48	2132.75
587.681	2213.55
587.883	2145.35
588.084	2032.78
588.285	2049.25
588.487	2032.2
588.688	2045.76
588.89	1942.11
589.091	1893.48
589.292	1903.74
589.494	1851.43
589.695	1805.71
589.896	1719.49
590.098	1724.53
590.299	1780.13
590.5	1809.58
590.702	1848.91
590.903	1878.17
591.104	1904.13
591.305	1915.18
591.507	1942.3
591.708	1928.54
591.909	1909.75
592.11	1938.23
592.311	1895.99
592.512	1871.39
592.714	1873.71
592.915	1891.54
593.116	1880.11
593.317	1917.69
593.518	1899.68
593.719	1951.02
593.92	1949.66
594.121	1980.47
594.322	1956.44
594.523	1882.82
594.724	1834.19
594.925	1863.83
595.126	1876.81
595.327	1848.14
595.528	1875.65
595.729	1857.44
595.929	1867.71
596.13	1896.19
596.331	1938.04
596.532	1922.73
596.733	1981.44
596.934	1939.97
597.135	1977.37
597.335	1971.94
597.536	1885.92
597.737	1897.93
597.938	1903.94
598.138	1929.51
598.339	1906.07
598.54	1932.03
598.74	1886.11
598.941	1940.56
599.142	1966.13
599.342	1897.35
599.543	1859.18
599.744	1898.13
599.944	1918.47
600.145	1905.88
600.345	1921.18
600.546	1985.31
600.746	1959.74
600.947	1977.17
601.147	1896.96
601.348	1923.31
601.548	1892.7
601.749	1921.96
601.949	1831.67
602.15	1808.23
602.35	1886.69
602.551	1896.77
602.751	1834.58
602.951	1871.58
603.152	1831.48
603.352	1877.59
603.552	1907.04
603.753	1918.28
603.953	1891.54
604.153	1896.77
604.354	1908.39
604.554	1894.44
604.754	1885.92
604.954	1847.56
605.155	1903.16
605.355	1870.81
605.555	1909.36
605.755	1990.74
605.955	1893.48
606.155	1911.49
606.356	1900.26
606.556	1923.7
606.756	1901.23
606.956	1849.3
607.156	1925.25
607.356	1814.43
607.556	1846.39
607.756	1882.63
607.956	1889.41
608.156	1872.94
608.356	1844.26
608.556	1872.36
608.756	1887.08
608.956	1803
609.156	1807.84
609.356	1791.95
609.556	1772
609.755	1810.55
609.955	1780.52
610.155	1805.13
610.355	1836.71
610.555	1747.2
610.755	1782.85
610.954	1724.92
611.154	1782.46
611.354	1810.36
611.554	1707.09
611.753	1784.2
611.953	1739.83
612.153	1809
612.352	1761.15
612.552	1714.26
612.752	1680.35
612.951	1725.69
613.151	1739.83
613.351	1733.63
613.55	1749.13
613.75	1751.46
613.949	1700.89
614.149	1728.4
614.348	1696.82
614.548	1637.15
614.747	1644.12
614.947	1652.45
615.146	1609.25
615.346	1656.52
615.545	1705.93
615.745	1686.55
615.944	1670.28
616.144	1645.29
616.343	1646.64
616.542	1600.14
616.742	1588.32
616.941	1582.7
