Data from gum_young_FLMT105791__116__17-40-44-040.txt Node

Date: Mon Mar 20 17:40:44 GMT 2023
User: antho
Spectrometer: FLMT10579
Trigger mode: 0
Integration Time (sec): 1.000000E-1
Scans to average: 10
Electric dark correction enabled: true
Nonlinearity correction enabled: false
Boxcar width: 0
XAxis mode: Wavelengths
Number of Pixels in Spectrum: 3648
>>>>>Begin Spectral Data<<<<<
345.248	-152.59
345.464	-152.59
345.681	-152.59
345.898	-132.64
346.114	-110.74
346.331	-41.57
346.548	21.01
346.764	-22.01
346.981	-27.63
347.197	19.46
347.414	6.28
347.631	-17.74
347.847	38.83
348.064	17.91
348.28	37.67
348.497	-28.01
348.713	-4.18
348.93	14.61
349.146	21.59
349.363	-1.47
349.579	6.86
349.796	9.96
350.012	-22.59
350.229	28.76
350.445	22.94
350.661	10.16
350.878	4.34
351.094	22.36
351.311	39.02
351.527	28.76
351.743	-27.04
351.96	34.18
352.176	45.03
352.392	41.74
352.609	33.41
352.825	-16.97
353.041	32.63
353.257	-6.31
353.474	16.74
353.69	35.15
353.906	14.03
354.122	-20.84
354.339	65.18
354.555	17.52
354.771	-13.68
354.987	71.57
355.203	52.59
355.42	-10.96
355.636	0.86
355.852	6.86
356.068	-12.51
356.284	-9.99
356.5	58.4
356.716	27.01
356.932	23.33
357.148	23.52
357.364	22.17
357.58	45.03
357.796	64.6
358.012	57.24
358.228	27.59
358.444	-39.25
358.66	66.92
358.876	21.78
359.092	-10.58
359.308	22.17
359.524	44.06
359.74	2.6
359.956	7.25
360.172	34.96
360.388	46.77
360.604	-1.47
360.819	84.94
361.035	8.99
361.251	26.82
361.467	-28.98
361.683	49.29
361.898	17.52
362.114	43.67
362.33	-8.06
362.546	45.03
362.762	26.62
362.977	40.77
363.193	-13.87
363.409	55.88
363.624	-18.91
363.84	10.54
364.056	-0.11
364.271	20.42
364.487	47.36
364.703	32.05
364.918	-7.09
365.134	17.13
365.35	16.94
365.565	98.5
365.781	18.1
365.996	41.54
366.212	66.73
366.427	44.64
366.643	17.91
366.858	9.96
367.074	-13.48
367.289	47.36
367.505	117.88
367.72	-30.53
367.936	-14.64
368.151	54.91
368.367	45.81
368.582	22.17
368.798	16.55
369.013	64.6
369.228	38.44
369.444	8.99
369.659	54.72
369.874	54.33
370.09	62.08
370.305	-28.4
370.52	10.35
370.736	59.17
370.951	3.57
371.166	64.99
371.381	74.87
371.597	42.12
371.812	-23.56
372.027	11.32
372.242	18.87
372.458	76.42
372.673	16.36
372.888	31.27
373.103	26.43
373.318	95.4
373.533	69.83
373.749	46.77
373.964	-11.93
374.179	46.39
374.394	9.19
374.609	67.12
374.824	-15.42
375.039	62.66
375.254	8.8
375.469	79.71
375.684	56.85
375.899	65.57
376.114	36.31
376.329	25.46
376.544	48.32
376.759	61.3
376.974	-4.18
377.189	15.58
377.404	-3.79
377.619	53.94
377.834	-37.89
378.049	-3.02
378.264	-3.99
378.478	30.11
378.693	8.99
378.908	39.02
379.123	13.26
379.338	66.73
379.553	34.76
379.767	43.87
379.982	59.56
380.197	44.45
380.412	41.93
380.626	51.04
380.841	112.07
381.056	52.39
381.271	81.26
381.485	14.22
381.7	3.76
381.915	37.86
382.129	12.87
382.344	34.57
382.559	37.67
382.773	63.24
382.988	-29.56
383.202	59.56
383.417	-9.99
383.632	115.55
383.846	46
384.061	31.86
384.275	34.18
384.49	43.48
384.704	53.75
384.919	46.58
385.133	26.43
385.348	32.24
385.562	8.41
385.777	67.12
385.991	33.79
386.206	16.16
386.42	25.46
386.634	76.8
386.849	38.25
387.063	17.32
387.277	7.25
387.492	9.38
387.706	17.71
387.92	26.24
388.135	62.85
388.349	56.46
388.563	64.79
388.778	53.94
388.992	77.97
389.206	49.49
389.42	96.76
389.635	29.92
389.849	60.14
390.063	66.92
390.277	55.3
390.491	77.97
390.706	69.05
390.92	72.93
391.134	65.76
391.348	63.63
391.562	21.78
391.776	49.29
391.99	8.8
392.205	57.24
392.419	23.72
392.633	41.54
392.847	102.38
393.061	19.84
393.275	102.57
393.489	56.27
393.703	33.99
393.917	89.79
394.131	29.34
394.345	57.04
394.559	92.89
394.773	55.49
394.986	70.41
395.2	41.16
395.414	108.39
395.628	34.37
395.842	64.99
396.056	45.81
396.27	9.38
396.484	56.46
396.697	73.9
396.911	89.01
397.125	86.1
397.339	88.62
397.553	70.02
397.766	111.68
397.98	126.21
398.194	89.59
398.408	48.32
398.621	68.67
398.835	94.82
399.049	80.49
399.262	88.82
399.476	125.44
399.69	109.94
399.903	159.15
400.117	77.77
400.331	76.42
400.544	51.81
400.758	178.13
400.971	95.6
401.185	98.5
401.398	55.69
401.612	142.48
401.826	89.01
402.039	123.3
402.253	76.03
402.466	112.84
402.68	79.9
402.893	91.72
403.106	83.2
403.32	117.69
403.533	114.59
403.747	95.02
403.96	109.74
404.174	153.53
404.387	66.34
404.6	91.34
404.814	152.75
405.027	90.56
405.24	102.77
405.454	131.44
405.667	123.89
405.88	50.65
406.094	103.93
406.307	141.9
406.52	114.59
406.733	57.24
406.947	54.14
407.16	141.71
407.373	135.7
407.586	92.11
407.799	66.54
408.012	152.95
408.226	125.24
408.439	159.92
408.652	66.15
408.865	140.16
409.078	124.85
409.291	113.81
409.504	97.73
409.717	161.47
409.93	114.97
410.143	120.59
410.357	78.35
410.57	91.72
410.783	85.33
410.996	107.61
411.209	120.2
411.421	151.78
411.634	131.64
411.847	128.73
412.06	119.62
412.273	135.32
412.486	123.69
412.699	210.68
412.912	132.8
413.125	175.62
413.338	106.25
413.55	155.66
413.763	143.26
413.976	160.12
414.189	135.12
414.402	122.72
414.615	145
414.827	95.4
415.04	175.81
415.253	150.04
415.466	193.83
415.678	185.11
415.891	144.03
416.104	136.67
416.316	156.63
416.529	132.99
416.742	159.73
416.954	181.23
417.167	172.9
417.38	150.43
417.592	169.22
417.805	108.97
418.017	118.46
418.23	155.47
418.442	115.75
418.655	156.24
418.868	177.17
419.08	196.54
419.293	175.62
419.505	148.3
419.718	151.59
419.93	179.49
420.142	140.74
420.355	181.43
420.567	204.1
420.78	167.28
420.992	170.77
421.205	216.5
421.417	127.37
421.629	154.5
421.842	141.13
422.054	110.9
422.266	186.08
422.479	170.58
422.691	147.52
422.903	170.77
423.115	126.21
423.328	154.88
423.54	160.5
423.752	188.6
423.964	133.38
424.177	170.77
424.389	156.63
424.601	245.36
424.813	176.58
425.025	198.09
425.238	204.87
425.45	157.98
425.662	159.92
425.874	462.75
426.086	163.22
426.298	216.69
426.51	176.2
426.722	152.56
426.934	177.36
427.146	196.93
427.358	151.78
427.57	216.88
427.782	184.72
427.994	177.17
428.206	137.06
428.418	126.4
428.63	182.4
428.842	218.05
429.054	204.87
429.266	219.02
429.478	151.59
429.69	194.99
429.902	119.24
430.114	214.75
430.325	140.93
430.537	133.57
430.749	147.52
430.961	121.56
431.173	148.3
431.384	156.05
431.596	120.01
431.808	161.86
432.02	163.99
432.231	221.73
432.443	244.4
432.655	206.42
432.867	194.99
433.078	215.33
433.29	269.2
433.502	227.54
433.713	238.58
433.925	204.1
434.136	228.9
434.348	161.86
434.56	161.47
434.771	273.26
434.983	151.4
435.194	188.4
435.406	226.18
435.617	248.08
435.829	279.85
436.04	237.23
436.252	244.2
436.463	278.69
436.675	252.15
436.886	238.58
437.098	237.23
437.309	295.55
437.521	255.05
437.732	259.7
437.943	224.44
438.155	234.13
438.366	186.08
438.578	256.21
438.789	246.33
439	243.43
439.211	236.84
439.423	248.66
439.634	258.93
439.845	240.13
440.057	258.35
440.268	296.71
440.479	241.88
440.69	273.85
440.902	227.54
441.113	228.7
441.324	232.38
441.535	301.36
441.746	337.98
441.957	219.79
442.168	240.52
442.38	292.25
442.591	289.35
442.802	233.35
443.013	265.51
443.224	313.18
443.435	273.85
443.646	276.36
443.857	275.59
444.068	260.48
444.279	240.33
444.49	343.98
444.701	276.75
444.912	378.08
445.123	315.31
445.334	301.55
445.545	301.36
445.756	298.45
445.967	251.18
446.178	306.78
446.388	320.15
446.599	304.07
446.81	310.08
447.021	285.66
447.232	329.26
447.443	349.02
447.653	292.64
447.864	314.14
448.075	302.13
448.286	350.38
448.496	339.91
448.707	344.37
448.918	324.03
449.129	374.59
449.339	289.15
449.55	352.51
449.761	319.76
449.971	357.35
450.182	339.91
450.393	354.83
450.603	305.81
450.814	363.94
451.024	377.11
451.235	360.64
451.446	388.54
451.656	411.21
451.867	324.03
452.077	369.94
452.288	410.44
452.498	395.33
452.709	361.23
452.919	374.79
453.13	362.19
453.34	376.73
453.55	310.85
453.761	397.07
453.971	360.64
454.182	398.62
454.392	376.92
454.602	430.2
454.813	396.68
455.023	411.79
455.233	341.46
455.444	410.44
455.654	314.53
455.864	349.79
456.075	366.84
456.285	351.54
456.495	373.82
456.705	408.5
456.916	396.1
457.126	441.82
457.336	378.47
457.546	336.04
457.756	366.46
457.967	462.36
458.177	369.75
458.387	394.94
458.597	368.01
458.807	387.38
459.017	347.28
459.227	393.19
459.437	399.2
459.647	422.45
459.857	428.26
460.068	374.59
460.278	408.11
460.488	405.98
460.698	430.78
460.908	395.13
461.117	362
461.327	364.91
461.537	414.31
461.747	433.11
461.957	423.42
462.167	508.86
462.377	447.83
462.587	439.69
462.797	478.25
463.007	405.98
463.216	476.12
463.426	487.36
463.636	465.85
463.846	379.83
464.056	395.91
464.265	454.61
464.475	381.18
464.685	446.28
464.895	442.6
465.104	445.51
465.314	455.77
465.524	423.03
465.733	405.59
465.943	509.25
466.153	494.33
466.362	464.49
466.572	471.27
466.782	455.39
466.991	459.26
467.201	508.47
467.41	382.93
467.62	468.17
467.829	437.17
468.039	484.26
468.249	465.27
468.458	485.03
468.668	482.51
468.877	492.97
469.086	488.13
469.296	527.07
469.505	444.15
469.715	519.71
469.924	523
470.134	504.79
470.343	510.41
470.552	503.82
470.762	480.19
470.971	459.65
471.18	488.71
471.39	498.59
471.599	469.14
471.808	511.19
472.018	458.49
472.227	549.94
472.436	550.71
472.645	521.45
472.855	503.24
473.064	558.65
473.273	547.03
473.482	540.83
473.691	547.22
473.901	560.79
474.11	552.26
474.319	634.6
474.528	548.97
474.737	609.42
474.946	566.21
475.155	560.59
475.364	595.85
475.573	553.42
475.783	582.1
475.992	597.79
476.201	624.14
476.41	566.6
476.619	574.15
476.828	559.43
477.037	557.69
477.245	602.83
477.454	629.95
477.663	614.07
477.872	616.97
478.081	664.25
478.29	608.64
478.499	710.55
478.708	665.21
478.917	678
479.125	626.47
479.334	663.28
479.543	654.37
479.752	660.37
479.961	658.82
480.169	747.95
480.378	653.98
480.587	799.09
480.796	717.91
481.004	685.56
481.213	693.31
481.422	719.27
481.63	734.77
481.839	741.36
482.048	796.38
482.256	735.35
482.465	756.66
482.674	768.29
482.882	779.33
483.091	807.81
483.299	733.41
483.508	793.67
483.716	756.86
483.925	799.48
484.134	763.83
484.342	745.04
484.551	786.89
484.759	783.01
484.967	793.86
485.176	778.17
485.384	793.86
485.593	833.39
485.801	796.77
486.01	792.31
486.218	741.75
486.426	690.21
486.635	716.95
486.843	731.86
487.051	723.73
487.26	739.23
487.468	758.6
487.676	782.04
487.885	775.07
488.093	825.06
488.301	817.89
488.509	836.49
488.717	878.53
488.926	877.17
489.134	823.7
489.342	826.03
489.55	823.12
489.758	852.76
489.967	895.58
490.175	919.22
490.383	891.32
490.591	936.27
490.799	862.06
491.007	940.92
491.215	946.92
491.423	915.15
491.631	905.07
491.839	881.82
492.047	940.14
492.255	884.54
492.463	837.65
492.671	898.87
492.879	968.24
493.087	920.57
493.295	952.54
493.503	967.27
493.711	972.69
493.919	973.27
494.127	1011.25
494.334	987.8
494.542	943.44
494.75	956.03
494.958	978.7
495.166	1013.77
495.374	1021.71
495.581	1007.57
495.789	1034.11
495.997	1072.28
496.205	1003.5
496.412	1011.83
496.62	1031.4
496.828	1054.07
497.035	1041.67
497.243	1075.57
497.451	1043.22
497.658	1046.7
497.866	1065.11
498.074	1131.37
498.281	1046.51
498.489	1107.35
498.696	1093.78
498.904	1049.42
499.112	1042.44
499.319	1129.82
499.527	1093.01
499.734	1118.2
499.942	1061.62
500.149	1055.03
500.357	1133.7
500.564	1088.36
500.771	1096.88
500.979	1068.98
501.186	1051.93
501.394	1122.85
501.601	1090.88
501.808	1085.45
502.016	1111.41
502.223	1085.84
502.43	1091.27
502.638	1072.47
502.845	1066.27
503.052	1176.9
503.26	1125.75
503.467	1211.58
503.674	1163.53
503.881	1186.98
504.089	1211.19
504.296	1196.08
504.503	1128.85
504.71	1151.33
504.917	1138.15
505.125	1211.39
505.332	1196.66
505.539	1246.65
505.746	1283.85
505.953	1249.36
506.16	1242.19
506.367	1313.88
506.574	1342.17
506.781	1321.82
506.988	1275.71
507.195	1284.04
507.402	1296.06
507.609	1346.62
507.816	1298.77
508.023	1286.17
508.23	1277.07
508.437	1278.04
508.644	1321.44
508.851	1369.1
509.058	1371.81
509.265	1385.18
509.472	1397.19
509.679	1489.22
509.885	1401.26
510.092	1430.71
510.299	1405.14
510.506	1433.81
510.713	1441.75
510.92	1446.79
511.126	1454.15
511.333	1521.97
511.54	1527.39
511.746	1535.72
511.953	1536.69
512.16	1607.02
512.367	1508.98
512.573	1567.3
512.78	1533.98
512.987	1520.03
513.193	1558.97
513.4	1513.83
513.606	1581.06
513.813	1599.46
514.02	1600.24
514.226	1649.64
514.433	1639.38
514.639	1561.1
514.846	1617.1
515.052	1582.22
515.259	1640.15
515.465	1651.78
515.672	1661.85
515.878	1765.51
516.085	1676.77
516.291	1740.9
516.497	1674.06
516.704	1694.4
516.91	1641.89
517.117	1587.26
517.323	1553.74
517.529	1564.2
517.736	1564.98
517.942	1630.66
518.148	1640.54
518.354	1647.51
518.561	1694.21
518.767	1697.69
518.973	1721.33
519.179	1762.79
519.386	1735.67
519.592	1743.22
519.798	1786.82
520.004	1894.73
520.21	1869.55
520.417	1919.53
520.623	1958.28
520.829	2009.24
521.035	1979.4
521.241	1993.16
521.447	2036.95
521.653	2109.21
521.859	2039.85
522.065	2122.97
522.271	2138.08
522.477	2123.36
522.683	2178.19
522.889	2149.51
523.095	2141.76
523.301	2160.56
523.507	2095.07
523.713	2158.42
523.919	2125.49
524.125	2226.82
524.331	2222.75
524.537	2322.53
524.742	2306.84
524.948	2320.98
525.154	2299.86
525.36	2444.2
525.566	2352.37
525.772	2404.48
525.977	2304.32
526.183	2384.72
526.389	2424.05
526.595	2319.62
526.8	2311.29
527.006	2237.28
527.212	2191.17
527.417	2156.29
527.623	2184.97
527.829	2253.55
528.034	2328.34
528.24	2314.59
528.446	2330.67
528.651	2492.06
528.857	2472.68
529.062	2568.2
529.268	2531
529.473	2553.86
529.679	2574.01
529.884	2655
530.09	2592.81
530.295	2589.71
530.501	2635.04
530.706	2627.87
530.912	2602.69
531.117	2641.82
531.323	2694.52
531.528	2744.32
531.733	2723.59
531.939	2668.37
532.144	2707.5
532.35	2698.98
532.555	2760.98
532.76	2648.41
532.966	2692
533.171	2644.15
533.376	2616.44
533.581	2609.08
533.787	2687.55
533.992	2718.55
534.197	2742.38
534.402	2752.84
534.607	2727.46
534.813	2818.52
535.018	2731.72
535.223	2741.41
535.428	2783.26
535.633	2848.75
535.838	2924.89
536.043	2863.08
536.249	2995.41
536.454	2875.1
536.659	2911.71
536.864	2904.16
537.069	2863.66
537.274	2878.58
537.479	2879.94
537.684	2862.31
537.889	2829.37
538.094	2943.1
538.299	2901.25
538.504	2937.48
538.708	2925.28
538.913	2996.38
539.118	2935.74
539.323	2918.11
539.528	2861.15
539.733	2904.35
539.938	2902.41
540.142	2898.15
540.347	2871.61
540.552	2859.79
540.757	2845.26
540.962	2828.21
541.166	2799.92
541.371	2805.73
541.576	2869.28
541.781	2780.16
541.985	2903
542.19	2869.28
542.395	3025.25
542.599	2983.4
542.804	2938.26
543.008	2981.08
543.213	2969.06
543.418	2862.31
543.622	2994.06
543.827	2920.82
544.031	2994.64
544.236	3013.63
544.44	3011.88
544.645	3085.89
544.849	2971.58
545.054	3043.85
545.258	3087.83
545.463	3076.4
545.667	2971.58
545.872	3087.25
546.076	3044.62
546.281	3069.04
546.485	3028.74
546.689	3060.51
546.894	3103.33
547.098	3100.62
547.302	3065.16
547.507	3058.96
547.711	3069.42
547.915	3120.57
548.119	3007.62
548.324	3049.47
548.528	3099.84
548.732	3048.69
548.936	3082.21
549.141	3137.82
549.345	3085.51
549.549	3119.99
549.753	3148.09
549.957	3224.62
550.161	3197.1
550.366	3152.93
550.57	3107.79
550.774	3112.24
550.978	3138.4
551.182	3157
551.386	3088.22
551.59	3113.4
551.794	3108.95
551.998	3161.84
552.202	3066.91
552.406	3085.31
552.61	3155.25
552.814	3166.49
553.018	3158.74
553.222	3107.01
553.426	3129.68
553.63	3220.93
553.833	3119.8
554.037	3095.58
554.241	3140.92
554.445	3162.04
554.649	3145.76
554.853	3102.17
555.056	3169.59
555.26	3211.63
555.464	3164.55
555.668	3183.74
555.871	3173.66
556.075	3173.47
556.279	3136.85
556.483	3051.21
556.686	3112.05
556.89	3059.74
557.094	3113.6
557.297	2979.91
557.501	3100.23
557.704	2937.87
557.908	3005.49
558.112	2965.38
558.315	3053.15
558.519	2977.59
558.722	2964.61
558.926	2987.66
559.129	2875.48
559.333	2917.53
559.536	2906.48
559.74	2890.79
559.943	2889.24
560.147	2910.75
560.35	2891.18
560.553	2913.65
560.757	2836.54
560.96	2940.39
561.164	2915.78
561.367	3008.2
561.57	2919.85
561.774	2917.14
561.977	2900.28
562.18	2855.33
562.384	2967.51
562.587	2855.91
562.79	2889.43
562.993	2825.69
563.197	2878
563.4	2929.54
563.603	2940.97
563.806	2963.83
564.009	2867.73
564.212	2867.35
564.416	2761.75
564.619	2842.74
564.822	2753.23
565.025	2879.55
565.228	2838.67
565.431	2821.04
565.634	2710.8
565.837	2753.23
566.04	2693.94
566.243	2691.04
566.446	2620.12
566.649	2732.5
566.852	2653.26
567.055	2699.95
567.258	2688.13
567.461	2732.3
567.664	2727.65
567.867	2618.57
568.07	2637.95
568.273	2648.02
568.475	2661.97
568.678	2549.79
568.881	2601.91
569.084	2534.88
569.287	2470.55
569.489	2476.56
569.692	2540.69
569.895	2537.01
570.098	2496.9
570.3	2458.15
570.503	2404.87
570.706	2414.17
570.909	2413.59
571.111	2358.18
571.314	2339.97
571.516	2369.22
571.719	2392.67
571.922	2340.55
572.124	2353.92
572.327	2400.03
572.529	2323.3
572.732	2354.69
572.935	2366.51
573.137	2416.3
573.34	2290.56
573.542	2396.35
573.745	2360.5
573.947	2366.7
574.15	2341.71
574.352	2327.18
574.554	2395.38
574.757	2284.75
574.959	2268.47
575.162	2274.87
575.364	2250.65
575.566	2367.09
575.769	2195.82
575.971	2243.09
576.173	2139.83
576.376	2202.79
576.578	2273.7
576.78	2270.02
576.982	2156.68
577.185	2168.89
577.387	2140.41
577.589	2142.93
577.791	2180.71
577.993	2192.52
578.196	2162.69
578.398	2195.04
578.6	2183.61
578.802	2115.41
579.004	2086.74
579.206	2063.49
579.408	2150.48
579.61	2084.41
579.812	2197.56
580.014	2151.64
580.216	2120.06
580.418	2172.96
580.62	2091.19
580.822	2148.35
581.024	2163.46
581.226	2140.99
581.428	2131.3
581.63	2223.72
581.832	2131.49
582.034	2201.24
582.236	2136.53
582.438	2175.28
582.64	2209.96
582.841	2207.64
583.043	2272.35
583.245	2199.89
583.447	2177.99
583.649	2111.54
583.85	2208.22
584.052	2208.41
584.254	2133.63
584.456	2229.72
584.657	2135.18
584.859	2226.43
585.061	2147.58
585.262	2087.9
585.464	2084.22
585.666	2174.51
585.867	2115.41
586.069	2140.79
586.27	2109.79
586.472	2081.12
586.674	2097.59
586.875	2044.89
587.077	2067.56
587.278	2084.22
587.48	2016.02
587.681	2153
587.883	2047.41
588.084	1959.25
588.285	2050.9
588.487	1993.55
588.688	1981.73
588.89	1903.26
589.091	1878.65
589.292	1845.91
589.494	1784.11
589.695	1753.49
589.896	1694.98
590.098	1724.62
590.299	1774.03
590.5	1729.08
590.702	1755.43
590.903	1818.01
591.104	1868
591.305	1876.14
591.507	1863.54
591.708	1873.04
591.909	1826.92
592.11	1932.32
592.311	1889.12
592.512	1854.44
592.714	1791.66
592.915	1829.44
593.116	1849.2
593.317	1892.22
593.518	1853.27
593.719	1879.62
593.92	1891.63
594.121	1921.28
594.322	1891.63
594.523	1866.45
594.724	1822.08
594.925	1845.72
595.126	1842.42
595.327	1839.32
595.528	1826.54
595.729	1880.4
595.929	1870.71
596.13	1832.93
596.331	1863.15
596.532	1869.94
596.733	1905.58
596.934	1893.77
597.135	1931.35
597.335	1889.5
597.536	1848.62
597.737	1877.69
597.938	1867.22
598.138	1856.37
598.339	1840.49
598.54	1886.6
598.74	1856.95
598.941	1888.34
599.142	1892.6
599.342	1853.27
599.543	1836.8
599.744	1892.8
599.944	1864.9
600.145	1882.53
600.345	1866.64
600.546	1928.06
600.746	1883.11
600.947	1959.25
601.147	1862.96
601.348	1900.74
601.548	1836.22
601.749	1867.22
601.949	1815.3
602.15	1807.16
602.35	1849.01
602.551	1875.17
602.751	1827.89
602.951	1824.79
603.152	1783.91
603.352	1864.51
603.552	1824.21
603.753	1895.12
603.953	1881.37
604.153	1871.1
604.354	1831.77
604.554	1832.54
604.754	1842.81
604.954	1803.48
605.155	1850.17
605.355	1806.58
605.555	1828.67
605.755	1862.19
605.955	1833.9
606.155	1861.22
606.356	1834.67
606.556	1843.78
606.756	1829.83
606.956	1789.34
607.156	1875.36
607.356	1802.51
607.556	1807.94
607.756	1762.99
607.956	1836.61
608.156	1810.45
608.356	1774.61
608.556	1798.44
608.756	1745.94
608.956	1738.77
609.156	1786.43
609.356	1732.57
609.556	1738.57
609.755	1757.95
609.955	1714.36
610.155	1751.56
610.355	1783.91
610.555	1715.91
610.755	1706.61
610.954	1661.85
611.154	1704.67
611.354	1738.77
611.554	1695.56
611.753	1675.41
611.953	1652.74
612.153	1760.08
612.352	1708.16
612.552	1668.83
612.752	1653.52
612.951	1662.24
613.151	1675.8
613.351	1651.78
613.55	1663.21
613.75	1672.7
613.949	1628.91
614.149	1682.39
614.348	1624.46
614.548	1586.29
614.747	1552.77
614.947	1589.58
615.146	1579.12
615.346	1652.36
615.545	1614
615.745	1596.95
615.944	1649.26
616.144	1616.51
616.343	1607.02
616.542	1535.53
616.742	1551.8
