Data from gum_young_FLMT105791__27__17-38-26-045.txt Node

Date: Mon Mar 20 17:38:26 GMT 2023
User: antho
Spectrometer: FLMT10579
Trigger mode: 0
Integration Time (sec): 1.000000E-1
Scans to average: 10
Electric dark correction enabled: true
Nonlinearity correction enabled: false
Boxcar width: 0
XAxis mode: Wavelengths
Number of Pixels in Spectrum: 3648
>>>>>Begin Spectral Data<<<<<
345.248	-132.46
345.464	-132.46
345.681	-132.46
345.898	-149.9
346.114	-149.31
346.331	-41.98
346.548	35.13
346.764	-15.63
346.981	-20.47
347.197	0.84
347.414	22.54
347.631	-23.96
347.847	61.29
348.064	16.15
348.28	16.34
348.497	-49.34
348.713	-0.9
348.93	-0.71
349.146	34.75
349.363	7.62
349.579	-9.43
349.796	-6.72
350.012	-0.32
350.229	-0.13
350.445	-8.27
350.661	-18.54
350.878	-7.49
351.094	3.36
351.311	8.01
351.527	-9.24
351.743	-31.13
351.96	12.27
352.176	5.68
352.392	19.05
352.609	18.66
352.825	-18.34
353.041	-8.46
353.257	-10.59
353.474	22.93
353.69	23.7
353.906	10.91
354.122	-19.7
354.339	20.41
354.555	-7.3
354.771	-6.33
354.987	46.56
355.203	46.56
355.42	-30.55
355.636	-11.17
355.852	-20.47
356.068	7.23
356.284	-36.55
356.5	42.3
356.716	15.18
356.932	-17.95
357.148	27.77
357.364	15.76
357.58	40.75
357.796	55.09
358.012	51.02
358.228	17.7
358.444	-47.98
358.66	18.08
358.876	6.26
359.092	-22.99
359.308	-1.49
359.524	27.38
359.74	13.82
359.956	-4.2
360.172	1.03
360.388	30.68
360.604	-4.59
360.819	41.72
361.035	-2.84
361.251	41.14
361.467	-25.7
361.683	46.56
361.898	-0.13
362.114	7.23
362.33	-4
362.546	18.47
362.762	-4.59
362.977	8.4
363.193	-5.36
363.409	19.83
363.624	-17.57
363.84	-16.02
364.056	-30.35
364.271	28.16
364.487	26.41
364.703	-1.49
364.918	-29
365.134	-2.84
365.35	-12.72
365.565	81.83
365.781	-6.72
365.996	20.6
366.212	37.26
366.427	25.83
366.643	-16.79
366.858	5.1
367.074	-31.13
367.289	46.95
367.505	96.74
367.72	-44.5
367.936	14.98
368.151	37.26
368.367	27.58
368.582	6.46
368.798	1.42
369.013	34.94
369.228	19.25
369.444	11.5
369.659	61.48
369.874	16.53
370.09	63.61
370.305	-43.33
370.52	-6.91
370.736	62.45
370.951	4.33
371.166	58.58
371.381	46.37
371.597	7.04
371.812	-27.06
372.027	-22.22
372.242	0.65
372.458	88.99
372.673	21.57
372.888	-3.23
373.103	53.93
373.318	80.28
373.533	41.33
373.749	-8.46
373.964	-10.4
374.179	40.75
374.394	13.43
374.609	49.66
374.824	-2.07
375.039	31.26
375.254	-12.92
375.469	51.6
375.684	43.85
375.899	58.96
376.114	26.22
376.329	12.08
376.544	57.41
376.759	53.15
376.974	-15.63
377.189	-9.82
377.404	4.33
377.619	50.83
377.834	-37.72
378.049	-32.68
378.264	-25.51
378.478	16.34
378.693	0.45
378.908	32.81
379.123	4.91
379.338	52.76
379.553	4.13
379.767	10.53
379.982	51.41
380.197	45.98
380.412	26.61
380.626	7.23
380.841	89.77
381.056	16.73
381.271	70.98
381.485	-5.55
381.7	1.81
381.915	22.35
382.129	-3.81
382.344	25.83
382.559	22.54
382.773	38.62
382.988	-14.27
383.202	28.93
383.417	-34.62
383.632	85.12
383.846	-0.13
384.061	17.5
384.275	6.65
384.49	44.82
384.704	36.68
384.919	32.61
385.133	-21.05
385.348	47.73
385.562	-13.89
385.777	18.08
385.991	6.07
386.206	27.96
386.42	-12.92
386.634	73.49
386.849	49.86
387.063	35.33
387.277	-42.37
387.492	-15.63
387.706	-8.65
387.92	-0.52
388.135	44.24
388.349	29.32
388.563	35.33
388.778	31.26
388.992	50.63
389.206	30.68
389.42	83.96
389.635	10.53
389.849	18.66
390.063	39.78
390.277	47.34
390.491	59.35
390.706	63.03
390.92	40.75
391.134	29.51
391.348	38.04
391.562	-7.88
391.776	19.63
391.99	-27.06
392.205	44.63
392.419	-0.52
392.633	-10.79
392.847	80.47
393.061	27.19
393.275	85.89
393.489	15.76
393.703	19.44
393.917	65.94
394.131	0.06
394.345	68.84
394.559	45.4
394.773	13.63
394.986	53.54
395.2	18.66
395.414	52.38
395.628	-9.62
395.842	24.86
396.056	7.23
396.27	-25.32
396.484	33.2
396.697	29.9
396.911	65.36
397.125	59.74
397.339	73.3
397.553	40.17
397.766	92.09
397.98	51.8
398.194	60.13
398.408	10.14
398.621	30.87
398.835	31.65
399.049	64.58
399.262	83.76
399.476	48.89
399.69	59.16
399.903	102.75
400.117	51.21
400.331	54.31
400.544	36.88
400.758	144.79
400.971	70.78
401.185	86.28
401.398	37.85
401.612	95.78
401.826	73.49
402.039	85.31
402.253	33
402.466	71.56
402.68	42.88
402.893	69.23
403.106	65.74
403.32	67.88
403.533	73.11
403.747	45.21
403.96	51.02
404.174	80.47
404.387	18.28
404.6	66.33
404.814	112.05
405.027	41.72
405.24	89.58
405.454	63.42
405.667	91.32
405.88	-7.1
406.094	96.16
406.307	103.72
406.52	63.23
406.733	39.01
406.947	30.29
407.16	121.35
407.373	115.34
407.586	54.12
407.799	45.79
408.012	70.01
408.226	69.81
408.439	116.7
408.652	44.05
408.865	70.98
409.078	114.57
409.291	79.69
409.504	40.95
409.717	78.92
409.93	98.49
410.143	82.79
410.357	44.24
410.57	11.88
410.783	51.02
410.996	77.95
411.209	71.94
411.421	88.99
411.634	58
411.847	70.2
412.06	69.81
412.273	78.92
412.486	91.13
412.699	155.84
412.912	92.48
413.125	110.89
413.338	81.83
413.55	107.4
413.763	64.58
413.976	85.7
414.189	45.21
414.402	76.4
414.615	118.83
414.827	61.68
415.04	101.39
415.253	111.08
415.466	101.59
415.678	160.87
415.891	98.88
416.104	102.36
416.316	102.56
416.529	62.26
416.742	92.48
416.954	128.71
417.167	103.91
417.38	92.29
417.592	129.88
417.805	50.05
418.017	61.29
418.23	126.19
418.442	66.91
418.655	73.3
418.868	94.03
419.08	92.48
419.293	153.71
419.505	95.19
419.718	124.64
419.93	137.63
420.142	98.1
420.355	142.86
420.567	135.49
420.78	115.54
420.992	83.57
421.205	153.71
421.417	43.66
421.629	62.64
421.842	83.96
422.054	75.82
422.266	136.85
422.479	129.88
422.691	81.05
422.903	130.46
423.115	76.98
423.328	99.26
423.54	113.6
423.752	113.6
423.964	95.58
424.177	107.79
424.389	117.48
424.601	202.14
424.813	109.92
425.025	126.39
425.238	127.74
425.45	104.3
425.662	119.8
425.874	383.3
426.086	111.86
426.298	125.61
426.51	111.66
426.722	120.96
426.934	103.72
427.146	135.88
427.358	94.81
427.57	155.26
427.782	118.44
427.994	103.14
428.206	91.71
428.418	93.26
428.63	138.98
428.842	153.9
429.054	134.14
429.266	146.92
429.478	103.33
429.69	103.53
429.902	92.29
430.114	140.53
430.325	129.88
430.537	94.03
430.749	116.12
430.961	41.91
431.173	105.85
431.384	118.83
431.596	51.8
431.808	100.62
432.02	125.03
432.231	127.55
432.443	164.36
432.655	116.51
432.867	99.26
433.078	132.2
433.29	166.49
433.502	162.23
433.713	163.01
433.925	145.18
434.136	189.36
434.348	68.65
434.56	100.81
434.771	234.11
434.983	61.29
435.194	130.46
435.406	130.26
435.617	177.92
435.829	168.04
436.04	185.67
436.252	175.02
436.463	190.91
436.675	158.94
436.886	169.21
437.098	158.74
437.309	201.56
437.521	145.76
437.732	170.56
437.943	167.07
438.155	166.49
438.366	123.87
438.578	213.96
438.789	165.52
439	176.57
439.211	148.28
439.423	147.12
439.634	173.27
439.845	164.56
440.057	158.16
440.268	195.75
440.479	122.51
440.69	172.89
440.902	159.91
441.113	182.96
441.324	167.07
441.535	154.67
441.746	225.2
441.957	132.2
442.168	154.48
442.38	195.17
442.591	199.24
442.802	174.63
443.013	154.87
443.224	188.39
443.435	190.13
443.646	167.46
443.857	177.34
444.068	149.06
444.279	189.74
444.49	251.55
444.701	163.01
444.912	274.02
445.123	219.58
445.334	221.32
445.545	209.51
445.756	188.39
445.967	165.91
446.178	207.96
446.388	257.75
446.599	232.95
446.81	197.11
447.021	183.16
447.232	256.2
447.443	241.86
447.653	180.25
447.864	250
448.075	215.9
448.286	259.88
448.496	219.97
448.707	256.97
448.918	193.62
449.129	275.77
449.339	208.15
449.55	238.57
449.761	203.69
449.971	266.47
450.182	206.02
450.393	271.12
450.603	223.26
450.814	274.8
451.024	246.9
451.235	303.47
451.446	293.01
451.656	312.19
451.867	223.65
452.077	269.57
452.288	303.28
452.498	302.31
452.709	255.81
452.919	285.07
453.13	214.54
453.34	286.81
453.55	197.69
453.761	277.12
453.971	261.62
454.182	273.25
454.392	268.99
454.602	300.18
454.813	295.34
455.023	270.15
455.233	225.39
455.444	260.65
455.654	200.98
455.864	253.87
456.075	246.9
456.285	260.27
456.495	270.15
456.705	277.7
456.916	309.67
457.126	319.36
457.336	274.22
457.546	212.8
457.756	244.77
457.967	317.42
458.177	264.14
458.387	297.47
458.597	237.99
458.807	279.06
459.017	267.44
459.227	265.69
459.437	276.74
459.647	284.87
459.857	306.96
460.068	262.98
460.278	293.98
460.488	304.05
460.698	333.5
460.908	296.11
461.117	258.14
461.327	275.38
461.537	307.54
461.747	313.94
461.957	308.51
462.167	380.58
462.377	339.32
462.587	284.29
462.797	329.63
463.007	305.8
463.216	338.35
463.426	348.62
463.636	330.02
463.846	281.97
464.056	266.66
464.265	355.78
464.475	286.62
464.685	296.69
464.895	328.47
465.104	315.68
465.314	347.65
465.524	282.74
465.733	285.45
465.943	365.47
466.153	376.13
466.362	365.47
466.572	328.85
466.782	345.9
466.991	327.69
467.201	387.37
467.41	277.32
467.62	367.22
467.829	324.59
468.039	340.28
468.249	313.35
468.458	333.12
468.668	352.1
468.877	369.54
469.086	401.9
469.296	379.62
469.505	343.97
469.715	409.65
469.924	366.44
470.134	375.93
470.343	408.1
470.552	351.13
470.762	351.52
470.971	340.87
471.18	360.24
471.39	358.11
471.599	326.14
471.808	418.17
472.018	329.82
472.227	419.72
472.436	421.27
472.645	381.17
472.855	343.77
473.064	384.85
473.273	396.28
473.482	405
473.691	422.63
473.901	438.32
474.11	384.85
474.319	473.2
474.528	396.08
474.737	445.49
474.946	419.33
475.155	430.76
475.364	450.72
475.573	417.98
475.783	438.13
475.992	423.98
476.201	465.83
476.41	433.48
476.619	394.92
476.828	434.64
477.037	418.95
477.245	437.74
477.454	460.8
477.663	426.7
477.872	436.77
478.081	498.38
478.29	440.06
478.499	504
478.708	485.98
478.917	523.76
479.125	452.66
479.334	501.68
479.543	444.13
479.752	491.99
479.961	485.01
480.169	490.83
480.378	456.15
480.587	578.98
480.796	533.06
481.004	521.24
481.213	524.34
481.422	504
481.63	513.3
481.839	546.24
482.048	574.14
482.256	512.72
482.465	557.09
482.674	546.43
482.882	551.28
483.091	595.84
483.299	560.77
483.508	568.91
483.716	566
483.925	555.93
484.134	525.31
484.342	553.99
484.551	608.82
484.759	582.28
484.967	603.97
485.176	611.34
485.384	587.89
485.593	578.21
485.801	568.52
486.01	592.93
486.218	553.21
486.426	489.66
486.635	503.42
486.843	519.5
487.051	566.97
487.26	540.43
487.468	581.89
487.676	581.69
487.885	587.89
488.093	584.21
488.301	640.98
488.509	626.45
488.717	629.55
488.926	642.92
489.134	589.25
489.342	632.84
489.55	611.92
489.758	626.84
489.967	609.79
490.175	703.95
490.383	620.25
490.591	709.95
490.799	633.42
491.007	716.74
491.215	687.48
491.423	648.34
491.631	667.52
491.839	682.25
492.047	685.54
492.255	637.49
492.463	612.5
492.671	656.09
492.879	703.37
493.087	657.84
493.295	681.28
493.503	726.62
493.711	757.62
493.919	706.27
494.127	722.74
494.334	745.6
494.542	687.67
494.75	731.07
494.958	729.72
495.166	775.25
495.374	754.52
495.581	766.53
495.789	754.9
495.997	791.52
496.205	775.44
496.412	726.81
496.62	781.25
496.828	777.57
497.035	776.99
497.243	784.74
497.451	775.05
497.658	777.77
497.866	808.77
498.074	854.1
498.281	764.4
498.489	853.52
498.696	796.37
498.904	774.28
499.112	783.97
499.319	856.23
499.527	818.45
499.734	881.23
499.942	761.3
500.149	792.88
500.357	820.58
500.564	808.57
500.771	830.85
500.979	820.58
501.186	799.27
501.394	841.12
501.601	803.92
501.808	838.6
502.016	841.51
502.223	808.77
502.43	843.64
502.638	842.09
502.845	819.81
503.052	904.67
503.26	863.79
503.467	927.15
503.674	914.36
503.881	886.07
504.089	983.91
504.296	925.01
504.503	865.34
504.71	913.78
504.917	865.53
505.125	909.9
505.332	901.76
505.539	979.26
505.746	989.34
505.953	969.38
506.16	997.48
506.367	1024.02
506.574	1025.37
506.781	1058.89
506.988	1014.91
507.195	989.92
507.402	1015.88
507.609	1042.62
507.816	1023.82
508.023	1006.39
508.23	985.85
508.437	981.78
508.644	1015.88
508.851	1072.84
509.058	1107.33
509.265	1078.85
509.472	1078.27
509.679	1198.2
509.885	1078.85
510.092	1096.48
510.299	1069.16
510.506	1125.54
510.713	1117.99
510.92	1087.57
511.126	1149.57
511.333	1161.19
511.54	1196.45
511.746	1229
511.953	1227.65
512.16	1239.85
512.367	1196.45
512.573	1192.97
512.78	1207.3
512.987	1181.34
513.193	1195.68
513.4	1142.2
513.606	1202.85
513.813	1249.15
514.02	1218.73
514.226	1277.83
514.433	1268.72
514.639	1217.96
514.846	1257.87
515.052	1242.57
515.259	1276.28
515.465	1298.36
515.672	1276.86
515.878	1377.8
516.085	1294.3
516.291	1348.16
516.497	1304.95
516.704	1298.56
516.91	1218.73
517.117	1200.72
517.323	1156.35
517.529	1219.9
517.736	1210.21
517.942	1236.95
518.148	1242.95
518.354	1298.17
518.561	1292.55
518.767	1301.08
518.973	1354.94
519.179	1376.44
519.386	1352.61
519.592	1359.98
519.798	1338.28
520.004	1430.11
520.21	1442.13
520.417	1464.79
520.623	1512.26
520.829	1534.54
521.035	1516.72
521.241	1528.34
521.447	1552.75
521.653	1640.33
521.859	1571.35
522.065	1584.92
522.271	1638.58
522.477	1625.99
522.683	1700.2
522.889	1641.1
523.095	1616.89
523.301	1606.23
523.507	1578.52
523.713	1638.97
523.919	1594.22
524.125	1710.85
524.331	1708.33
524.537	1798.04
524.742	1733.33
524.948	1824.19
525.154	1739.14
525.36	1878.06
525.566	1771.69
525.772	1819.54
525.977	1727.13
526.183	1816.25
526.389	1818.58
526.595	1734.88
526.8	1730.81
527.006	1668.62
527.212	1623.86
527.417	1629.67
527.623	1675.01
527.829	1777.31
528.034	1768.78
528.24	1790.29
528.446	1825.55
528.651	1890.84
528.857	1882.51
529.062	1953.81
529.268	1918.94
529.473	1900.72
529.679	1930.56
529.884	1970.28
530.09	1993.53
530.295	1975.71
530.501	1969.89
530.706	1973.19
530.912	1941.99
531.117	1987.14
531.323	1972.61
531.528	2054.56
531.733	1984.62
531.939	1973.19
532.144	2066.77
532.35	2007.29
532.555	2006.9
532.76	2007.87
532.966	1988.88
533.171	2008.06
533.376	1964.27
533.581	1947.22
533.787	2019.88
533.992	2040.61
534.197	2042.94
534.402	2047
534.607	2082.65
534.813	2131.09
535.018	2036.35
535.223	2069.48
535.428	2074.32
535.633	2124.89
535.838	2169.84
536.043	2173.33
536.249	2202.39
536.454	2128.77
536.659	2158.21
536.864	2133.42
537.069	2143.68
537.274	2158.8
537.479	2160.15
537.684	2188.25
537.889	2063.67
538.094	2236.1
538.299	2148.53
538.504	2177.01
538.708	2159.18
538.913	2190.96
539.118	2165.19
539.323	2206.26
539.528	2163.25
539.733	2162.67
539.938	2180.69
540.142	2167.51
540.347	2134.77
540.552	2124.5
540.757	2134.77
540.962	2145.62
541.166	2080.13
541.371	2097.96
541.576	2106.68
541.781	2066.77
541.985	2187.08
542.19	2157.63
542.395	2251.6
542.599	2255.67
542.804	2208.59
543.008	2257.41
543.213	2180.3
543.418	2172.16
543.622	2200.84
543.827	2154.73
544.031	2265.94
544.236	2244.63
544.44	2252.18
544.645	2307.59
544.849	2245.98
545.054	2268.46
545.258	2326
545.463	2321.16
545.667	2292.29
545.872	2271.94
546.076	2279.5
546.281	2305.46
546.485	2259.93
546.689	2296.16
546.894	2330.84
547.098	2301.39
547.302	2245.4
547.507	2292.09
547.711	2300.04
547.915	2349.06
548.119	2225.06
548.324	2257.99
548.528	2327.74
548.732	2257.61
548.936	2330.65
549.141	2370.95
549.345	2273.3
549.549	2290.93
549.753	2337.62
549.957	2377.34
550.161	2363.59
550.366	2357
550.57	2327.16
550.774	2322.32
550.978	2340.92
551.182	2325.81
551.386	2324.84
551.59	2307.59
551.794	2285.89
551.998	2331.62
552.202	2312.44
552.406	2325.61
552.61	2366.88
552.814	2362.42
553.018	2399.04
553.222	2311.86
553.426	2367.46
553.63	2396.52
553.833	2355.45
554.037	2297.33
554.241	2345.57
554.445	2313.99
554.649	2331.81
554.853	2297.91
555.056	2412.8
555.26	2385.29
555.464	2335.69
555.668	2369.79
555.871	2367.85
556.075	2356.03
556.279	2357.19
556.483	2294.61
556.686	2294.23
556.89	2274.46
557.094	2308.37
557.297	2235.52
557.501	2313.21
557.704	2228.55
557.908	2340.92
558.112	2255.48
558.315	2324.06
558.519	2275.04
558.722	2258.58
558.926	2204.91
559.129	2194.06
559.333	2180.11
559.536	2183.21
559.74	2168.87
559.943	2119.47
560.147	2116.17
560.35	2165.38
560.553	2175.26
560.757	2144.27
560.96	2256.06
561.164	2164.8
561.367	2287.64
561.57	2180.3
561.774	2194.64
561.977	2191.35
562.18	2173.13
562.384	2285.89
562.587	2162.67
562.79	2121.4
562.993	2192.9
563.197	2199.1
563.4	2217.5
563.603	2221.57
563.806	2239.2
564.009	2153.37
564.212	2163.83
564.416	2129.93
564.619	2181.27
564.822	2100.67
565.025	2180.5
565.228	2097.38
565.431	2137.48
565.634	2047.2
565.837	2040.61
566.04	2047
566.243	2059.6
566.446	1954.01
566.649	2065.22
566.852	1987.72
567.055	2010.77
567.258	2045.45
567.461	2129.35
567.664	2068.12
567.867	1977.84
568.07	2032.09
568.273	2067.54
568.475	2093.89
568.678	2006.51
568.881	2001.09
569.084	1997.21
569.287	1877.09
569.489	1904.41
569.692	1954.01
569.895	1952.26
570.098	1886
570.3	1862.94
570.503	1854.03
570.706	1822.45
570.909	1873.79
571.111	1779.44
571.314	1783.12
571.516	1817.22
571.719	1815.48
571.922	1795.13
572.124	1838.73
572.327	1832.72
572.529	1800.75
572.732	1802.11
572.935	1811.79
573.137	1882.13
573.34	1797.85
573.542	1867.21
573.745	1854.23
573.947	1838.53
574.15	1776.53
574.352	1787.96
574.554	1844.34
574.757	1759.29
574.959	1734.3
575.162	1735.65
575.364	1725.58
575.566	1833.11
575.769	1710.27
575.971	1731
576.173	1615.53
576.376	1708.14
576.578	1723.83
576.78	1780.41
576.982	1685.86
577.185	1681.21
577.387	1697.29
577.589	1665.52
577.791	1681.02
577.993	1722.86
578.196	1696.9
578.398	1691.48
578.6	1697.68
578.802	1629.48
579.004	1598.48
579.206	1636.26
579.408	1667.26
579.61	1614.95
579.812	1675.98
580.014	1649.24
580.216	1627.74
580.418	1632.58
580.62	1636.65
580.822	1614.56
581.024	1652.92
581.226	1698.26
581.428	1689.73
581.63	1766.65
581.832	1684.31
582.034	1708.72
582.236	1685.47
582.438	1725.19
582.64	1712.4
582.841	1725.96
583.043	1788.35
583.245	1694.58
583.447	1718.6
583.649	1668.81
583.85	1694
584.052	1717.63
584.254	1676.95
584.456	1726.16
584.657	1637.23
584.859	1713.18
585.061	1635.87
585.262	1649.24
585.464	1641.68
585.666	1712.02
585.867	1610.88
586.069	1689.35
586.27	1653.5
586.472	1622.89
586.674	1625.8
586.875	1616.5
587.077	1608.75
587.278	1641.68
587.48	1608.94
587.681	1727.13
587.883	1653.5
588.084	1584.34
588.285	1595.96
588.487	1580.85
588.688	1549.27
588.89	1466.73
589.091	1453.36
589.292	1473.9
589.494	1444.64
589.695	1390.78
589.896	1316.19
590.098	1335.56
590.299	1412.87
590.5	1350.1
590.702	1398.14
590.903	1462.86
591.104	1483.01
591.305	1480.1
591.507	1510.32
591.708	1497.73
591.909	1474.67
592.11	1526.21
592.311	1505.67
592.512	1450.26
592.714	1411.9
592.915	1446.39
593.116	1435.15
593.317	1499.09
593.518	1436.89
593.719	1460.72
593.92	1491.14
594.121	1500.25
594.322	1478.36
594.523	1503.74
594.724	1427.59
594.925	1470.02
595.126	1452.98
595.327	1474.09
595.528	1450.84
595.729	1479.32
595.929	1445.61
596.13	1474.87
596.331	1479.13
596.532	1463.63
596.733	1535.9
596.934	1523.69
597.135	1508.19
597.335	1524.86
597.536	1482.62
597.737	1500.83
597.938	1463.05
598.138	1459.37
598.339	1480.49
598.54	1492.89
598.74	1460.34
598.941	1500.25
599.142	1528.54
599.342	1468.86
599.543	1477.97
599.744	1476.42
599.944	1475.45
600.145	1452.39
600.345	1461.89
600.546	1529.12
600.746	1464.6
600.947	1521.95
601.147	1475.45
601.348	1525.63
601.548	1402.41
601.749	1451.81
601.949	1411.71
602.15	1409.38
602.35	1440.58
602.551	1494.24
602.751	1413.84
602.951	1416.36
603.152	1395.63
603.352	1474.87
603.552	1434.18
603.753	1477.58
603.953	1503.74
604.153	1455.3
604.354	1473.32
604.554	1478.74
604.754	1466.15
604.954	1461.11
605.155	1478.55
605.355	1473.32
605.555	1525.05
605.755	1539
605.955	1465.76
606.155	1474.87
606.356	1457.04
606.556	1479.13
606.756	1472.93
606.956	1395.04
607.156	1494.44
607.356	1421.98
607.556	1480.49
607.756	1472.35
607.956	1496.57
608.156	1452.2
608.356	1428.56
608.556	1450.65
608.756	1443.87
608.956	1425.08
609.156	1447.36
609.356	1412.68
609.556	1382.45
609.755	1389.43
609.955	1362.88
610.155	1405.12
610.355	1413.84
610.555	1341.76
610.755	1396.4
610.954	1354.94
611.154	1397.37
611.354	1427.21
611.554	1373.15
611.753	1385.55
611.953	1323.94
612.153	1402.02
612.352	1349.51
612.552	1319.1
612.752	1302.05
612.951	1351.06
613.151	1344.48
613.351	1332.27
613.55	1326.65
613.75	1370.83
613.949	1294.3
614.149	1333.63
614.348	1322.39
614.548	1306.89
614.747	1228.81
614.947	1268.53
615.146	1228.23
615.346	1350.1
615.545	1321.23
615.745	1296.43
615.944	1320.26
616.144	1306.5
616.343	1297.98
616.542	1224.74
616.742	1238.5
616.941	1232.88
617.14	1215.25
617.34	1264.07
617.539	1266.2
617.738	1214.86
617.938	1308.25
618.137	1236.56
618.336	1238.11
618.535	1268.33
