Data from gum_young_FLMT105791__111__17-40-39-030.txt Node

Date: Mon Mar 20 17:40:39 GMT 2023
User: antho
Spectrometer: FLMT10579
Trigger mode: 0
Integration Time (sec): 1.000000E-1
Scans to average: 10
Electric dark correction enabled: true
Nonlinearity correction enabled: false
Boxcar width: 0
XAxis mode: Wavelengths
Number of Pixels in Spectrum: 3648
>>>>>Begin Spectral Data<<<<<
345.248	-162.67
345.464	-162.67
345.681	-162.67
345.898	-163.25
346.114	-157.05
346.331	-26.66
346.548	42.51
346.764	3.76
346.981	-10.38
347.197	-7.48
347.414	27.01
347.631	-18.91
347.847	45.22
348.064	-27.63
348.28	21.97
348.497	-48.55
348.713	-0.89
348.93	21.78
349.146	20.42
349.363	0.86
349.579	23.33
349.796	-5.93
350.012	-33.24
350.229	10.16
350.445	18.87
350.661	-12.13
350.878	16.55
351.094	23.52
351.311	20.81
351.527	24.69
351.743	-15.61
351.96	25.07
352.176	47.16
352.392	38.25
352.609	20.04
352.825	-20.26
353.041	9.38
353.257	-5.54
353.474	-2.05
353.69	18.68
353.906	-2.44
354.122	-32.08
354.339	51.42
354.555	16.16
354.771	15.77
354.987	58.4
355.203	35.15
355.42	-11.93
355.636	-11.93
355.852	-13.29
356.068	4.54
356.284	-32.28
356.5	66.54
356.716	21.2
356.932	16.55
357.148	1.82
357.364	-22.59
357.58	31.66
357.796	42.32
358.012	48.71
358.228	22.75
358.444	-49.71
358.66	32.82
358.876	45.42
359.092	5.51
359.308	9.57
359.524	28.37
359.74	10.35
359.956	2.6
360.172	15.58
360.388	42.71
360.604	-7.48
360.819	81.45
361.035	19.46
361.251	32.82
361.467	-13.29
361.683	38.25
361.898	29.72
362.114	23.52
362.33	-0.11
362.546	52.78
362.762	-5.93
362.977	25.07
363.193	-10.77
363.409	13.06
363.624	-18.91
363.84	-0.69
364.056	4.15
364.271	31.66
364.487	31.86
364.703	-16.39
364.918	-12.9
365.134	-3.41
365.35	-5.15
365.565	97.54
365.781	-1.28
365.996	34.37
366.212	53.55
366.427	25.27
366.643	3.37
366.858	8.02
367.074	-27.24
367.289	39.99
367.505	107.22
367.72	-30.73
367.936	8.41
368.151	32.44
368.367	33.02
368.582	9.57
368.798	-4.38
369.013	63.24
369.228	8.41
369.444	16.94
369.659	47.94
369.874	22.75
370.09	87.85
370.305	-14.06
370.52	12.09
370.736	65.76
370.951	10.16
371.166	67.5
371.381	77.77
371.597	57.04
371.812	-4.18
372.027	-4.57
372.242	29.72
372.458	84.75
372.673	-0.69
372.888	1.82
373.103	32.63
373.318	68.09
373.533	23.52
373.749	25.07
373.964	-29.95
374.179	43.67
374.394	-10.38
374.609	61.89
374.824	-28.4
375.039	77.39
375.254	10.93
375.469	40.57
375.684	40.77
375.899	52.97
376.114	9.96
376.329	47.94
376.544	69.64
376.759	57.82
376.974	-10.77
377.189	11.32
377.404	21.97
377.619	66.92
377.834	-27.04
378.049	-9.61
378.264	-11.74
378.478	34.96
378.693	1.82
378.908	37.47
379.123	7.44
379.338	82.04
379.553	34.37
379.767	26.43
379.982	21.78
380.197	44.45
380.412	19.07
380.626	53.55
380.841	123.89
381.056	46.97
381.271	63.82
381.485	5.89
381.7	10.54
381.915	26.43
382.129	12.09
382.344	33.41
382.559	35.15
382.773	67.89
382.988	3.37
383.202	33.21
383.417	-14.26
383.632	113.04
383.846	29.34
384.061	53.75
384.275	11.51
384.49	49.87
384.704	49.68
384.919	47.94
385.133	18.87
385.348	39.8
385.562	-1.66
385.777	51.04
385.991	36.12
386.206	0.86
386.42	11.51
386.634	72.54
386.849	50.26
387.063	62.66
387.277	12.87
387.492	6.09
387.706	21.01
387.92	-4.38
388.135	89.79
388.349	56.46
388.563	51.42
388.778	45.81
388.992	52.97
389.206	69.25
389.42	99.67
389.635	15.39
389.849	52.59
390.063	80.29
390.277	49.1
390.491	71.19
390.706	84.94
390.92	72.15
391.134	49.1
391.348	64.99
391.562	-19.68
391.776	46.77
391.99	28.95
392.205	83.97
392.419	15.19
392.633	33.41
392.847	88.24
393.061	18.29
393.275	74.29
393.489	33.41
393.703	50.26
393.917	77.77
394.131	11.9
394.345	46
394.559	79.71
394.773	33.21
394.986	53.75
395.2	41.74
395.414	48.32
395.628	68.28
395.842	55.69
396.056	48.91
396.27	-10.19
396.484	55.3
396.697	52.97
396.911	100.05
397.125	65.18
397.339	71.77
397.553	83.2
397.766	95.21
397.98	64.4
398.194	90.75
398.408	48.52
398.621	80.87
398.835	79.52
399.049	89.4
399.262	82.04
399.476	106.84
399.69	102.19
399.903	146.36
400.117	95.6
400.331	132.99
400.544	74.29
400.758	183.75
400.971	115.17
401.185	127.76
401.398	57.43
401.612	114.39
401.826	109.35
402.039	124.47
402.253	48.52
402.466	105.48
402.68	115.36
402.893	122.14
403.106	97.34
403.32	105.48
403.533	112.26
403.747	98.12
403.96	88.24
404.174	129.12
404.387	72.74
404.6	99.47
404.814	126.99
405.027	77.19
405.24	109.94
405.454	97.73
405.667	125.82
405.88	62.27
406.094	104.51
406.307	147.52
406.52	122.53
406.733	95.21
406.947	52.97
407.16	139
407.373	118.27
407.586	89.01
407.799	63.82
408.012	150.43
408.226	119.82
408.439	155.27
408.652	58.59
408.865	95.4
409.078	141.52
409.291	121.95
409.504	90.37
409.717	144.23
409.93	105.67
410.143	129.89
410.357	57.82
410.57	69.25
410.783	88.43
410.996	150.62
411.209	130.67
411.421	172.32
411.634	132.02
411.847	122.53
412.06	133.77
412.273	148.3
412.486	140.93
412.699	223.47
412.912	119.04
413.125	123.11
413.338	146.36
413.55	146.36
413.763	137.25
413.976	139.58
414.189	103.74
414.402	120.79
414.615	165.73
414.827	110.71
415.04	148.68
415.253	129.7
415.466	156.05
415.678	201.97
415.891	132.22
416.104	131.44
416.316	147.13
416.529	135.51
416.742	172.13
416.954	169.61
417.167	145.39
417.38	121.37
417.592	185.3
417.805	95.21
418.017	109.16
418.23	149.65
418.442	126.02
418.655	112.84
418.868	143.65
419.08	191.12
419.293	171.35
419.505	157.6
419.718	163.02
419.93	168.45
420.142	133.57
420.355	165.54
420.567	192.28
420.78	163.22
420.992	132.22
421.205	200.03
421.417	101.8
421.629	135.51
421.842	123.3
422.054	91.34
422.266	181.04
422.479	191.89
422.691	161.67
422.903	197.51
423.115	148.88
423.328	144.23
423.54	200.8
423.752	139.77
423.964	161.47
424.177	181.23
424.389	148.88
424.601	231.8
424.813	182.01
425.025	192.67
425.238	208.94
425.45	158.95
425.662	151.01
425.874	419.93
426.086	186.47
426.298	191.5
426.51	165.73
426.722	164.18
426.934	162.44
427.146	202.55
427.358	149.65
427.57	193.05
427.782	137.45
427.994	159.92
428.206	157.79
428.418	124.85
428.63	171.74
428.842	207.39
429.054	175.23
429.266	186.08
429.478	134.74
429.69	190.92
429.902	107.61
430.114	175.62
430.325	172.13
430.537	134.93
430.749	147.13
430.961	90.75
431.173	129.7
431.384	177.94
431.596	92.11
431.808	167.67
432.02	199.64
432.231	208.75
432.443	224.63
432.655	183.37
432.867	160.31
433.078	213.2
433.29	248.46
433.502	219.21
433.713	247.5
433.925	207.97
434.136	238.39
434.348	179.1
434.56	137.25
434.771	275.98
434.983	173.29
435.194	155.47
435.406	185.69
435.617	238.97
435.829	288.76
436.04	219.02
436.252	249.63
436.463	280.82
436.675	242.85
436.886	241.3
437.098	240.52
437.309	289.35
437.521	238.2
437.732	248.46
437.943	219.98
438.155	235.48
438.366	191.12
438.578	298.45
438.789	206.62
439	246.53
439.211	222.5
439.423	245.95
439.634	236.26
439.845	262.22
440.057	228.51
440.268	260.86
440.479	247.5
440.69	244.78
440.902	246.14
441.113	236.84
441.324	226.38
441.535	262.03
441.746	314.53
441.957	233.93
442.168	263.77
442.38	281.79
442.591	302.13
442.802	238.2
443.013	258.35
443.224	284.5
443.435	294.19
443.646	283.53
443.857	255.25
444.068	276.36
444.279	238.39
444.49	343.79
444.701	292.45
444.912	390.68
445.123	312.6
445.334	296.71
445.545	296.32
445.756	289.15
445.967	229.48
446.178	301.36
446.388	346.89
446.599	307.75
446.81	298.45
447.021	268.23
447.232	328.87
447.443	307.95
447.653	273.65
447.864	349.99
448.075	296.9
448.286	339.72
448.496	308.14
448.707	341.27
448.918	268.23
449.129	361.23
449.339	291.09
449.55	328.09
449.761	306.59
449.971	347.86
450.182	324.8
450.393	355.03
450.603	309.3
450.814	376.14
451.024	355.61
451.235	407.53
451.446	394.94
451.656	405.98
451.867	316.28
452.077	329.84
452.288	405.98
452.498	403.85
452.709	324.8
452.919	348.83
453.13	320.34
453.34	370.91
453.55	270.94
453.761	360.26
453.971	357.35
454.182	372.46
454.392	374.98
454.602	420.51
454.813	370.91
455.023	381.57
455.233	312.79
455.444	377.11
455.654	284.11
455.864	375.95
456.075	363.55
456.285	360.64
456.495	349.6
456.705	394.36
456.916	391.26
457.126	402.49
457.336	405.98
457.546	332.16
457.756	360.84
457.967	429.23
458.177	354.06
458.387	360.64
458.597	363.74
458.807	405.21
459.017	356.38
459.227	364.91
459.437	352.89
459.647	410.63
459.857	418.77
460.068	361.03
460.278	422.06
460.488	389.32
460.698	450.54
460.908	410.44
461.117	346.31
461.327	373.24
461.537	391.64
461.747	409.66
461.957	425.36
462.167	477.86
462.377	442.21
462.587	430.39
462.797	444.92
463.007	439.5
463.216	452.87
463.426	447.83
463.636	435.82
463.846	374.98
464.056	393.97
464.265	441.24
464.475	405.98
464.685	424.58
464.895	461.2
465.104	421.09
465.314	435.43
465.524	420.71
465.733	404.04
465.943	487.16
466.153	496.85
466.362	461.97
466.572	418.57
466.782	422.45
466.991	436.98
467.201	486.97
467.41	386.99
467.62	428.84
467.829	433.49
468.039	467.01
468.249	425.94
468.458	447.06
468.668	474.18
468.877	474.96
469.086	478.83
469.296	487.36
469.505	472.05
469.715	527.65
469.924	481.54
470.134	521.26
470.343	514.48
470.552	451.9
470.762	468.95
470.971	429.81
471.18	466.82
471.39	466.43
471.599	475.54
471.808	480.19
472.018	448.8
472.227	516.42
472.436	541.99
472.645	479.41
472.855	492.97
473.064	541.22
473.273	513.51
473.482	536.76
473.691	556.72
473.901	533.08
474.11	520.1
474.319	597.79
474.528	524.17
474.737	624.14
474.946	573.38
475.155	549.16
475.364	624.92
475.573	568.92
475.783	592.17
475.992	579
476.201	610.58
476.41	564.66
476.619	556.14
476.828	583.26
477.037	560.01
477.245	581.52
477.454	625.11
477.663	568.34
477.872	601.67
478.081	668.31
478.29	570.67
478.499	679.75
478.708	651.65
478.917	705.13
479.125	632.67
479.334	636.73
479.543	647
479.752	650.68
479.961	675.29
480.169	715.4
480.378	666.38
480.587	786.31
480.796	682.46
481.004	678
481.213	708.61
481.422	685.56
481.63	686.14
481.839	718.11
482.048	790.38
482.256	701.83
482.465	761.7
482.674	747.17
482.882	731.86
483.091	804.91
483.299	736.51
483.508	771.39
483.716	783.21
483.925	751.04
484.134	742.33
484.342	744.46
484.551	794.44
484.759	773.13
484.967	756.86
485.176	801.03
485.384	802.39
485.593	805.49
485.801	782.43
486.01	747.75
486.218	732.25
486.426	663.86
486.635	691.37
486.843	657.66
487.051	674.71
487.26	692.15
487.468	758.79
487.676	766.16
487.885	742.91
488.093	772.94
488.301	847.34
488.509	802.58
488.717	826.41
488.926	805.88
489.134	806.65
489.342	811.88
489.55	816.73
489.758	815.95
489.967	843.66
490.175	900.23
490.383	867.87
490.591	952.35
490.799	843.46
491.007	926.39
491.215	887.44
491.423	877.37
491.631	877.17
491.839	901.2
492.047	898.49
492.255	828.35
492.463	841.52
492.671	881.24
492.879	901.39
493.087	901.2
493.295	910.5
493.503	926.77
493.711	946.73
493.919	985.48
494.127	963.97
494.334	999.62
494.542	940.72
494.75	951.77
494.958	942.66
495.166	1018.03
495.374	1011.44
495.581	980.25
495.789	997.88
495.997	1049.8
496.205	965.52
496.412	964.55
496.62	1000.98
496.828	1004.27
497.035	1012.8
497.243	1040.5
497.451	1019.97
497.658	1042.63
497.866	1039.34
498.074	1109.86
498.281	996.33
498.489	1105.21
498.696	1036.43
498.904	1019.19
499.112	1015.32
499.319	1085.84
499.527	1061.62
499.734	1125.36
499.942	1012.8
500.149	1052.32
500.357	1054.65
500.564	1029.85
500.771	1036.82
500.979	1045.73
501.186	1042.63
501.394	1065.5
501.601	1033.92
501.808	1058.13
502.016	1084.68
502.223	1057.75
502.43	1062.78
502.638	1085.65
502.845	1061.43
503.052	1139.51
503.26	1098.24
503.467	1183.3
503.674	1113.55
503.881	1134.28
504.089	1183.1
504.296	1145.32
504.503	1097.08
504.71	1160.82
504.917	1145.51
505.125	1141.45
505.332	1168.18
505.539	1180.97
505.746	1280.56
505.953	1245.29
506.16	1237.35
506.367	1260.41
506.574	1348.17
506.781	1298.57
506.988	1232.89
507.195	1270.68
507.402	1275.32
507.609	1311.56
507.816	1270.29
508.023	1316.4
508.23	1275.52
508.437	1256.53
508.644	1338.1
508.851	1368.52
509.058	1392.54
509.265	1328.41
509.472	1372.2
509.679	1480.7
509.885	1397.19
510.092	1397.77
510.299	1392.54
510.506	1400.68
510.713	1421.8
510.92	1451.44
511.126	1454.35
511.333	1482.83
511.54	1470.43
511.746	1506.85
511.953	1522.74
512.16	1553.35
512.367	1497.17
512.573	1501.43
512.78	1504.92
512.987	1508.98
513.193	1528.17
513.4	1428.19
513.606	1495.62
513.813	1567.3
514.02	1548.9
514.226	1610.9
514.433	1583
514.639	1511.89
514.846	1565.56
515.052	1553.35
515.259	1611.09
515.465	1598.3
515.672	1627.56
515.878	1697.69
516.085	1650.61
516.291	1697.31
516.497	1644.41
516.704	1608.76
516.91	1585.9
517.117	1538.24
517.323	1483.6
517.529	1556.26
517.736	1535.14
517.942	1569.63
518.148	1601.21
518.354	1656.04
518.561	1638.79
518.767	1660.49
518.973	1687.23
519.179	1735.67
519.386	1718.42
519.592	1778.29
519.798	1770.35
520.004	1871.29
520.21	1827.12
520.417	1905.78
520.623	1935.81
520.829	1980.37
521.035	1968.94
521.241	1951.31
521.447	1978.24
521.653	2048.57
521.859	1993.93
522.065	2024.74
522.271	2140.79
522.477	2107.08
522.683	2110.57
522.889	2094.29
523.095	2065.43
523.301	2101.27
523.507	2110.76
523.713	2153.58
523.919	2089.06
524.125	2191.94
524.331	2154.94
524.537	2308
524.742	2284.94
524.948	2324.66
525.154	2324.66
525.36	2405.26
525.566	2298.89
525.772	2367.09
525.977	2269.64
526.183	2333.96
526.389	2368.64
526.595	2276.8
526.8	2251.23
527.006	2174.89
527.212	2137.11
527.417	2159.39
527.623	2160.36
527.829	2232.24
528.034	2273.51
528.24	2294.82
528.446	2336.67
528.651	2422.7
528.857	2455.25
529.062	2547.66
529.268	2522.86
529.473	2500.39
529.679	2541.08
529.884	2607.53
530.09	2599.01
530.295	2589.32
530.501	2592.22
530.706	2566.84
530.912	2575.95
531.117	2619.54
531.323	2638.53
531.528	2707.7
531.733	2645.89
531.939	2633.69
532.144	2684.25
532.35	2682.7
532.555	2724.55
532.76	2623.22
532.966	2631.94
533.171	2608.11
533.376	2563.94
533.581	2542.04
533.787	2661.78
533.992	2698.98
534.197	2696.46
534.402	2686.97
534.607	2719.52
534.813	2775.7
535.018	2688.52
535.223	2748.39
535.428	2776.87
535.633	2788.49
535.838	2831.31
536.043	2801.47
536.249	2907.65
536.454	2832.28
536.659	2837.7
536.864	2830.53
537.069	2819.88
537.274	2850.49
537.479	2837.12
537.684	2811.74
537.889	2780.16
538.094	2906.1
538.299	2809.03
538.504	2880.33
538.708	2881.49
538.913	2940.97
539.118	2870.06
539.323	2888.08
539.528	2854.56
539.733	2880.71
539.938	2849.13
540.142	2851.46
540.347	2816.2
540.552	2779.58
540.757	2826.08
540.962	2822.98
541.166	2756.33
541.371	2743.35
541.576	2794.5
541.781	2743.35
541.985	2889.05
542.19	2841
542.395	2958.99
542.599	2965.38
542.804	2890.6
543.008	2970.61
543.213	2959.38
543.418	2872.58
543.622	2944.26
543.827	2872.38
544.031	2975.46
544.236	2955.11
544.44	2995.03
544.645	3066.13
544.849	2963.64
545.054	3008.59
545.258	3083.76
545.463	3051.6
545.667	2952.98
545.872	2988.44
546.076	3002
546.281	3015.18
546.485	2951.04
546.689	3064.97
546.894	3039.59
547.098	3024.67
547.302	2987.86
547.507	3036.68
547.711	3033.39
547.915	3079.5
548.119	2997.54
548.324	2977.98
548.528	3003.16
548.732	3019.63
548.936	3090.35
549.141	3049.47
549.345	3061.09
549.549	3047.53
549.753	3077.95
549.957	3150.6
550.161	3162.81
550.366	3094.03
550.57	3041.33
550.774	3081.82
550.978	3085.7
551.182	3097.32
551.386	3054.89
551.59	3071.56
551.794	3044.04
551.998	3124.45
552.202	3111.66
552.406	3093.84
552.61	3165.72
552.814	3117.67
553.018	3133.55
553.222	3019.63
553.426	3015.37
553.63	3151.57
553.833	3094.81
554.037	3061.67
554.241	3050.05
554.445	3089.38
554.649	3071.36
554.853	3081.05
555.056	3111.47
555.26	3135.88
555.464	3139.17
555.668	3120.96
555.871	3131.81
556.075	3100.81
556.279	3058.96
556.483	3043.07
556.686	2999.68
556.89	3035.32
557.094	3074.85
557.297	2978.36
557.501	3039.97
557.704	2946.78
557.908	3014.98
558.112	2948.53
558.315	3076.21
558.519	2981.85
558.722	2953.76
558.926	2958.41
559.129	2857.27
559.333	2856.5
559.536	2880.13
559.74	2850.1
559.943	2839.45
560.147	2864.83
560.35	2847
560.553	2872.38
560.757	2806.12
560.96	2914.62
561.164	2858.43
561.367	2928.18
561.57	2874.32
561.774	2889.43
561.977	2820.85
562.18	2843.52
562.384	2967.51
562.587	2834.02
562.79	2875.87
562.993	2818.72
563.197	2872.58
563.4	2890.98
563.603	2886.14
563.806	2914.62
564.009	2804.57
564.212	2858.24
564.416	2747.22
564.619	2784.23
564.822	2726.69
565.025	2823.56
565.228	2748.19
565.431	2789.65
565.634	2704.21
565.837	2719.32
566.04	2664.69
566.243	2651.9
566.446	2558.9
566.649	2680.38
566.852	2616.44
567.055	2613.54
567.258	2647.83
567.461	2712.35
567.664	2716.42
567.867	2584.86
568.07	2599.97
568.273	2630.78
568.475	2689.1
568.678	2533.71
568.881	2553.48
569.084	2547.47
569.287	2412.62
569.489	2428.31
569.692	2529.84
569.895	2502.52
570.098	2431.03
570.3	2407.58
570.503	2347.13
570.706	2394.22
570.909	2361.67
571.111	2338.22
571.314	2328.92
571.516	2332.6
571.719	2354.3
571.922	2305.67
572.124	2307.61
572.327	2343.26
572.529	2290.37
572.732	2282.23
572.935	2338.03
573.137	2411.26
573.34	2326.21
573.542	2368.45
573.745	2342.87
573.947	2322.14
574.15	2289.4
574.352	2268.28
574.554	2343.45
574.757	2258.79
574.959	2212.48
575.162	2215.19
575.364	2177.8
575.566	2306.64
575.769	2146.8
575.971	2229.53
576.173	2065.43
576.376	2152.42
576.578	2204.54
576.78	2227.79
576.982	2111.15
577.185	2136.73
577.387	2103.01
577.589	2145.44
577.791	2149.51
577.993	2123.55
578.196	2127.43
578.398	2146.8
578.6	2125.29
578.802	2049.93
579.004	2047.8
579.206	2066.39
579.408	2105.53
579.61	2083.44
579.812	2143.12
580.014	2050.9
580.216	2071.24
580.418	2079.76
580.62	2055.35
580.822	2025.9
581.024	2082.09
581.226	2130.72
581.428	2103.4
581.63	2146.61
581.832	2079.57
582.034	2168.89
582.236	2091.58
582.438	2157.84
582.64	2154.55
582.841	2177.99
583.043	2240.57
583.245	2161.72
583.447	2151.45
583.649	2150.48
583.85	2134.79
584.052	2167.92
584.254	2081.89
584.456	2174.89
584.657	2066.98
584.859	2124.71
585.061	2114.25
585.262	2114.83
585.464	2041.98
585.666	2086.74
585.867	2029.58
586.069	2096.43
586.27	2051.67
586.472	2047.02
586.674	2017.18
586.875	2003.23
587.077	2026.1
587.278	2065.23
587.48	2030.55
587.681	2112.31
587.883	2064.26
588.084	1971.65
588.285	1986.38
588.487	1980.95
588.688	1952.08
588.89	1866.25
589.091	1850.37
589.292	1792.24
589.494	1746.52
589.695	1714.74
589.896	1683.36
590.098	1706.03
590.299	1726.56
590.5	1698.47
590.702	1760.08
590.903	1737.8
591.104	1832.15
591.305	1843.97
591.507	1881.95
591.708	1860.64
591.909	1818.98
592.11	1870.9
592.311	1870.9
592.512	1787.01
592.714	1786.24
592.915	1797.09
593.116	1799.99
593.317	1843.2
593.518	1843.97
593.719	1832.54
593.92	1855.6
594.121	1886.21
594.322	1820.72
594.523	1827.5
594.724	1778.68
594.925	1793.6
595.126	1798.83
595.327	1845.14
595.528	1796.31
595.729	1798.83
595.929	1819.95
596.13	1834.87
596.331	1836.42
596.532	1854.63
596.733	1882.14
596.934	1876.72
597.135	1833.7
597.335	1838.35
597.536	1813.94
597.737	1837.77
597.938	1781.59
598.138	1854.05
598.339	1842.42
598.54	1861.02
598.74	1817.04
598.941	1819.75
599.142	1884.47
599.342	1834.29
599.543	1820.34
599.744	1836.03
599.944	1805.22
600.145	1828.47
600.345	1834.67
600.546	1915.08
600.746	1899.38
600.947	1886.4
601.147	1837
601.348	1873.04
601.548	1792.44
601.749	1852.11
601.949	1756.01
602.15	1779.46
602.35	1783.72
602.551	1843
602.751	1757.95
602.951	1759.89
603.152	1755.82
603.352	1807.35
603.552	1785.27
603.753	1822.08
603.953	1862.77
604.153	1824.6
604.354	1815.69
604.554	1780.04
604.754	1794.96
604.954	1772.87
605.155	1831.57
605.355	1794.57
605.555	1822.85
605.755	1830.8
605.955	1778.29
606.155	1840.1
606.356	1761.05
606.556	1806.97
606.756	1811.23
606.956	1736.44
607.156	1841.84
607.356	1812.78
607.556	1804.45
607.756	1750.01
607.956	1844.94
608.156	1768.02
608.356	1740.12
608.556	1758.92
608.756	1715.13
608.956	1677.16
609.156	1727.92
609.356	1750.78
609.556	1690.14
609.755	1737.8
609.955	1678.9
610.155	1725.4
610.355	1714.16
610.555	1685.29
610.755	1676.19
610.954	1631.24
611.154	1649.64
611.354	1722.49
611.554	1669.6
611.753	1647.9
611.953	1622.91
612.153	1670.76
612.352	1650.23
612.552	1627.75
612.752	1595.78
612.951	1651
613.151	1643.06
613.351	1633.76
613.55	1592.88
613.75	1602.95
613.949	1616.32
614.149	1604.31
614.348	1625.62
614.548	1594.81
614.747	1560.33
614.947	1605.47
615.146	1525.07
615.346	1576.6
615.545	1578.54
615.745	1605.47
615.944	1589.78
616.144	1528.75
616.343	1561.88
616.542	1536.69
616.742	1548.31
616.941	1543.08
