Data from gum_young_FLMT105791__47__17-38-46-044.txt Node

Date: Mon Mar 20 17:38:46 GMT 2023
User: antho
Spectrometer: FLMT10579
Trigger mode: 0
Integration Time (sec): 1.000000E-1
Scans to average: 10
Electric dark correction enabled: true
Nonlinearity correction enabled: false
Boxcar width: 0
XAxis mode: Wavelengths
Number of Pixels in Spectrum: 3648
>>>>>Begin Spectral Data<<<<<
345.248	-142.58
345.464	-142.58
345.681	-142.58
345.898	-140.84
346.114	-122.43
346.331	-14.51
346.548	24.82
346.764	-1.15
346.981	6.41
347.197	-26.53
347.414	9.12
347.631	-39.51
347.847	57.37
348.064	6.6
348.28	38.96
348.497	-57.53
348.713	-4.05
348.93	19.2
349.146	43.8
349.363	-1.73
349.579	15.32
349.796	-4.25
350.012	1.76
350.229	2.34
350.445	17.45
350.661	-11.61
350.878	24.23
351.094	10.09
351.311	22.88
351.527	1.37
351.743	-5.22
351.96	62.02
352.176	-5.41
352.392	12.8
352.609	51.55
352.825	1.18
353.041	24.82
353.257	1.57
353.474	15.9
353.69	20.75
353.906	24.43
354.122	-2.12
354.339	60.66
354.555	11.45
354.771	13.38
354.987	49.62
355.203	64.53
355.42	22.88
355.636	-1.92
355.852	-15.29
356.068	17.65
356.284	-14.51
356.5	56.2
356.716	19.2
356.932	16.68
357.148	44.19
357.364	-11.8
357.58	54.07
357.796	68.41
358.012	46.32
358.228	35.08
358.444	-24.01
358.66	66.08
358.876	24.43
359.092	39.35
359.308	13.19
359.524	14.55
359.74	-10.45
359.956	16.1
360.172	-6.96
360.388	45.16
360.604	5.63
360.819	51.94
361.035	27.92
361.251	39.54
361.467	19.2
361.683	27.92
361.898	33.15
362.114	40.12
362.33	21.72
362.546	34.89
362.762	13
362.977	27.33
363.193	8.54
363.409	48.26
363.624	-0.37
363.84	16.29
364.056	14.35
364.271	38.38
364.487	49.62
364.703	2.73
364.918	-8.51
365.134	30.63
365.35	4.86
365.565	116.07
365.781	26.37
365.996	36.05
366.212	85.65
366.427	28.5
366.643	-10.83
366.858	-2.5
367.074	-16.45
367.289	58.14
367.505	124.98
367.72	10.87
367.936	28.88
368.151	60.66
368.367	42.64
368.582	9.12
368.798	37.6
369.013	61.82
369.228	40.51
369.444	39.35
369.659	65.7
369.874	59.88
370.09	75.97
370.305	-7.35
370.52	22.3
370.736	55.82
370.951	34.89
371.166	58.92
371.381	106
371.597	56.2
371.812	19.2
372.027	21.13
372.242	-2.89
372.458	76.74
372.673	12.03
372.888	-1.34
373.103	50.97
373.318	104.83
373.533	40.7
373.749	39.15
373.964	-12.19
374.179	83.33
374.394	10.67
374.609	78.1
374.824	6.22
375.039	63.18
375.254	14.16
375.469	46.32
375.684	61.05
375.899	60.47
376.114	10.09
376.329	45.16
376.544	63.18
376.759	59.11
376.974	43.03
377.189	21.33
377.404	19
377.619	43.22
377.834	-7.35
378.049	4.28
378.264	14.35
378.478	52.72
378.693	24.23
378.908	60.66
379.123	25.2
379.338	84.3
379.553	33.92
379.767	34.89
379.982	52.91
380.197	48.84
380.412	-2.31
380.626	72.48
380.841	107.35
381.056	66.86
381.271	97.86
381.485	45.74
381.7	5.05
381.915	75.38
382.129	26.37
382.344	36.44
382.559	30.43
382.773	88.56
382.988	5.05
383.202	47.87
383.417	15.13
383.632	83.71
383.846	53.3
384.061	50.2
384.275	49.03
384.49	41.28
384.704	68.41
384.919	41.48
385.133	46.71
385.348	67.44
385.562	14.16
385.777	84.88
385.991	51.55
386.206	38.96
386.42	24.82
386.634	72.28
386.849	65.31
387.063	50.58
387.277	18.42
387.492	20.94
387.706	17.65
387.92	-0.95
388.135	74.42
388.349	52.13
388.563	51.75
388.778	27.92
388.992	89.53
389.206	73.83
389.42	107.55
389.635	41.87
389.849	89.33
390.063	89.14
390.277	74.8
390.491	108.9
390.706	64.92
390.92	84.3
391.134	60.66
391.348	117.81
391.562	-17.23
391.776	66.67
391.99	43.22
392.205	99.6
392.419	37.41
392.633	51.75
392.847	96.7
393.061	40.51
393.275	111.42
393.489	23.46
393.703	56.98
393.917	76.55
394.131	43.8
394.345	75.77
394.559	89.72
394.773	75.19
394.986	86.62
395.2	72.09
395.414	102.7
395.628	46.9
395.842	70.15
396.056	65.89
396.27	36.25
396.484	76.35
396.697	75.97
396.911	117.43
397.125	45.74
397.339	84.3
397.553	87.98
397.766	120.72
397.98	82.75
398.194	114.91
398.408	101.15
398.621	124.98
398.835	120.53
399.049	94.56
399.262	119.95
399.476	133.12
399.69	122.66
399.903	179.04
400.117	125.37
400.331	118.59
400.544	90.11
400.758	209.46
400.971	111.23
401.185	140.87
401.398	75.38
401.612	154.24
401.826	149.78
402.039	153.85
402.253	98.25
402.466	159.66
402.68	140.48
402.893	112.39
403.106	121.69
403.32	100.57
403.533	149.59
403.747	131.18
403.96	127.31
404.174	150.36
404.387	74.42
404.6	124.4
404.814	177.68
405.027	127.5
405.24	130.21
405.454	131.57
405.667	177.29
405.88	87.01
406.094	165.67
406.307	144.36
406.52	139.32
406.733	101.54
406.947	93.79
407.16	203.06
407.373	183.3
407.586	120.14
407.799	142.03
408.012	161.41
408.226	144.75
408.439	203.84
408.652	118.78
408.865	153.27
409.078	179.81
409.291	189.89
409.504	130.21
409.717	166.06
409.93	209.84
410.143	160.63
410.357	109.68
410.57	108.13
410.783	128.47
410.996	137.38
411.209	154.05
411.421	192.99
411.634	174
411.847	147.26
412.06	163.73
412.273	157.15
412.486	150.36
412.699	256.92
412.912	164.7
413.125	180.59
413.338	165.67
413.55	206.74
413.763	198.61
413.976	208.88
414.189	173.61
414.402	159.28
414.615	231.35
414.827	156.95
415.04	211.59
415.253	186.79
415.466	205.97
415.678	254.21
415.891	182.14
416.104	171.29
416.316	182.53
416.529	180.98
416.742	251.11
416.954	229.41
417.167	185.04
417.38	205.39
417.592	201.13
417.805	154.43
418.017	128.66
418.23	213.53
418.442	175.94
418.655	162.76
418.868	192.21
419.08	245.69
419.293	245.11
419.505	211.01
419.718	198.22
419.93	237.74
420.142	166.64
420.355	238.52
420.567	234.64
420.78	201.9
420.992	209.07
421.205	271.07
421.417	146.68
421.629	218.76
421.842	200.74
422.054	164.9
422.266	246.27
422.479	269.13
422.691	207.13
422.903	227.67
423.115	211.98
423.328	194.73
423.54	230.38
423.752	235.81
423.964	213.14
424.177	226.31
424.389	210.81
424.601	329.19
424.813	260.8
425.025	286.18
425.238	277.66
425.45	231.93
425.662	235.42
425.874	471.79
426.086	236
426.298	243.56
426.51	243.75
426.722	239.68
426.934	214.88
427.146	244.53
427.358	210.62
427.57	278.43
427.782	239.88
427.994	250.14
428.206	234.26
428.418	185.63
428.63	242.2
428.842	283.66
429.054	247.63
429.266	270.49
429.478	202.48
429.69	229.03
429.902	223.02
430.114	253.83
430.325	234.64
430.537	184.66
430.749	182.14
430.961	157.15
431.173	178.26
431.384	238.33
431.596	159.08
431.808	241.62
432.02	275.33
432.231	286.57
432.443	313.69
432.655	267.97
432.867	235.03
433.078	300.13
433.29	327.45
433.502	315.82
433.713	314.86
433.925	287.34
434.136	292.96
434.348	252.08
434.56	206.16
434.771	334.04
434.983	232.51
435.194	267.19
435.406	276.49
435.617	357.09
435.829	344.11
436.04	321.83
436.252	329.97
436.463	366.59
436.675	363.49
436.886	338.49
437.098	342.75
437.309	367.17
437.521	312.92
437.732	351.28
437.943	321.64
438.155	315.82
438.366	279.98
438.578	376.66
438.789	317.18
439	332.29
439.211	323.57
439.423	337.72
439.634	345.27
439.845	345.27
440.057	351.09
440.268	352.64
440.479	332.49
440.69	340.04
440.902	318.34
441.113	333.46
441.324	329.39
441.535	354.38
441.746	413.47
441.957	325.51
442.168	339.27
442.38	394.29
442.591	395.65
442.802	322.8
443.013	362.52
443.224	394.68
443.435	353.8
443.646	375.3
443.857	391.19
444.068	377.24
444.279	354.19
444.49	448.93
444.701	405.34
444.912	459
445.123	422.58
445.334	432.85
445.545	401.46
445.756	406.5
445.967	379.76
446.178	381.5
446.388	417.74
446.599	417.15
446.81	415.22
447.021	392.16
447.232	459
447.443	441.76
447.653	422.19
447.864	447.96
448.075	438.08
448.286	450.48
448.496	450.48
448.707	471.21
448.918	422.39
449.129	532.24
449.339	411.92
449.55	456.1
449.761	436.92
449.971	490.39
450.182	497.17
450.393	468.5
450.603	467.14
450.814	512.67
451.024	480.7
451.235	525.46
451.446	554.33
451.656	518.29
451.867	467.92
452.077	450.67
452.288	554.91
452.498	543.67
452.709	484.77
452.919	495.82
453.13	453.38
453.34	502.21
453.55	425.1
453.761	477.22
453.971	491.55
454.182	512.87
454.392	511.7
454.602	543.28
454.813	520.23
455.023	503.76
455.233	470.24
455.444	511.32
455.654	443.7
455.864	502.21
456.075	508.8
456.285	481.48
456.495	511.9
456.705	527.01
456.916	551.03
457.126	567.7
457.336	517.13
457.546	474.31
457.756	518.68
457.967	574.09
458.177	511.51
458.387	539.02
458.597	486.32
458.807	539.41
459.017	503.95
459.227	512.67
459.437	525.65
459.647	563.05
459.857	559.56
460.068	504.34
460.278	560.53
460.488	542.9
460.698	599.86
460.908	535.53
461.117	508.22
461.327	545.41
461.537	588.62
461.747	570.99
461.957	549.48
462.167	643.45
462.377	607.61
462.587	576.41
462.797	611.68
463.007	569.25
463.216	601.8
463.426	651.2
463.636	615.74
463.846	521.78
464.056	539.41
464.265	647.52
464.475	576.03
464.685	608.58
464.895	599.47
465.104	570.99
465.314	626.98
465.524	559.17
465.733	572.35
465.943	647.13
466.153	691.89
466.362	641.9
466.572	609.16
466.782	625.82
466.991	592.5
467.201	638.61
467.41	574.86
467.62	620.2
467.829	637.83
468.039	627.95
468.249	616.71
468.458	637.06
468.668	649.84
468.877	666.7
469.086	702.35
469.296	702.54
469.505	622.91
469.715	692.27
469.924	663.02
470.134	706.61
470.343	666.12
470.552	638.03
470.762	635.51
470.971	623.11
471.18	638.8
471.39	682.39
471.599	662.24
471.808	688.01
472.018	688.98
472.227	733.93
472.436	731.8
472.645	693.05
472.855	686.46
473.064	767.06
473.273	761.83
473.482	743.42
473.691	755.63
473.901	759.7
474.11	705.84
474.319	819.37
474.528	752.72
474.737	806.97
474.946	800.58
475.155	817.24
475.364	838.55
475.573	781.01
475.783	813.17
475.992	815.11
476.201	834.87
476.41	799.22
476.619	754.27
476.828	803.1
477.037	760.47
477.245	804.84
477.454	848.63
477.663	822.09
477.872	822.28
478.081	906.17
478.29	816.08
478.499	951.7
478.708	883.31
478.917	931.17
479.125	887.96
479.334	915.86
479.543	897.07
479.752	904.04
479.961	901.33
480.169	956.74
480.378	897.07
480.587	1030.75
480.796	967.78
481.004	960.03
481.213	958.1
481.422	964.3
481.63	1001.5
481.839	1020.29
482.048	1022.61
482.256	1008.08
482.465	1012.73
482.674	1041.99
482.882	1069.11
483.091	1097.98
483.299	1014.28
483.508	1078.99
483.716	1076.48
483.925	1032.88
484.134	1034.43
484.342	1046.64
484.551	1094.69
484.759	1060.78
484.967	1105.34
485.176	1090.62
485.384	1099.73
485.593	1100.89
485.801	1058.26
486.01	1002.66
486.218	995.3
486.426	935.04
486.635	934.65
486.843	941.05
487.051	995.49
487.26	997.62
487.468	1029.59
487.676	1054.19
487.885	1052.45
488.093	1080.74
488.301	1134.99
488.509	1136.34
488.717	1145.64
488.926	1148.74
489.134	1124.91
489.342	1187.49
489.55	1112.9
489.758	1162.11
489.967	1186.52
490.175	1282.24
490.383	1242.71
490.591	1334.93
490.799	1212.87
491.007	1290.57
491.215	1235.35
491.423	1259.95
491.631	1249.49
491.839	1274.1
492.047	1249.69
492.255	1196.6
492.463	1189.24
492.671	1205.71
492.879	1297.35
493.087	1236.51
493.295	1284.95
493.503	1289.99
493.711	1351.6
493.919	1327.38
494.127	1329.9
494.334	1346.75
494.542	1317.5
494.75	1358.77
494.958	1336.68
495.166	1428.9
495.374	1413.01
495.581	1427.55
495.789	1418.05
495.997	1446.53
496.205	1369.23
496.412	1392.48
496.62	1426.38
496.828	1391.9
497.035	1406.43
497.243	1433.75
497.451	1422.31
497.658	1425.8
497.866	1435.3
498.074	1514.15
498.281	1411.85
498.489	1512.79
498.696	1425.03
498.904	1430.65
499.112	1396.55
499.319	1518.61
499.527	1485.86
499.734	1531.39
499.942	1418.44
500.149	1484.89
500.357	1531.2
500.564	1484.51
500.771	1486.83
500.979	1467.26
501.186	1447.5
501.394	1494.19
501.601	1482.38
501.808	1500.59
502.016	1495.74
502.223	1495.16
502.43	1530.81
502.638	1546.7
502.845	1540.5
503.052	1621.87
503.26	1545.93
503.467	1615.48
503.674	1575.76
503.881	1584.87
504.089	1630.59
504.296	1580.8
504.503	1544.18
504.71	1585.26
504.917	1573.63
505.125	1620.91
505.332	1611.02
505.539	1663.34
505.746	1727.47
505.953	1752.85
506.16	1738.51
506.367	1792.37
506.574	1761.37
506.781	1786.17
506.988	1719.14
507.195	1749.94
507.402	1769.51
507.609	1793.53
507.816	1714.1
508.023	1733.67
508.23	1746.26
508.437	1716.62
508.644	1782.68
508.851	1810.58
509.058	1862.12
509.265	1831.12
509.472	1842.55
509.679	1967.52
509.885	1857.66
510.092	1878.2
510.299	1859.41
510.506	1866
510.713	1892.73
510.92	1916.56
511.126	1965.97
511.333	1976.82
511.54	1978.37
511.746	1998.71
511.953	2051.22
512.16	2055.48
512.367	1993.68
512.573	2044.44
512.78	1991.16
512.987	2009.56
513.193	2056.06
513.4	1969.07
513.606	2026.61
513.813	2081.44
514.02	2031.26
514.226	2073.31
514.433	2109.15
514.639	2024.87
514.846	2068.27
515.052	2052.96
515.259	2100.62
515.465	2120.39
515.672	2126
515.878	2209.7
516.085	2180.83
516.291	2227.72
516.497	2175.99
516.704	2097.72
516.91	2029.91
517.117	1999.88
517.323	1934.58
517.529	1982.24
517.736	1965.97
517.942	2015.96
518.148	2065.94
518.354	2105.66
518.561	2133.95
518.767	2111.09
518.973	2147.51
519.179	2220.75
519.386	2239.15
519.592	2216.29
519.798	2177.35
520.004	2350.56
520.21	2363.73
520.417	2405.97
520.623	2416.24
520.829	2461.77
521.035	2451.5
521.241	2467.97
521.447	2512.53
521.653	2617.15
521.859	2519.7
522.065	2559.61
522.271	2622.58
522.477	2621.22
522.683	2636.72
522.889	2585.77
523.095	2591.19
523.301	2577.63
523.507	2593.32
523.713	2590.22
523.919	2595.07
524.125	2719.84
524.331	2724.68
524.537	2789.98
524.742	2786.88
524.948	2795.21
525.154	2826.4
525.36	2896.73
525.566	2807.03
525.772	2869.41
525.977	2826.59
526.183	2805.09
526.389	2861.66
526.595	2781.84
526.8	2730.88
527.006	2638.66
527.212	2624.32
527.417	2607.66
527.623	2616.38
527.829	2672.18
528.034	2758.59
528.24	2731.46
528.446	2842.09
528.651	2960.09
528.857	2945.94
529.062	3016.08
529.268	2988.95
529.473	3029.64
529.679	3103.65
529.884	3115.86
530.09	3105.01
530.295	3066.45
530.501	3076.92
530.706	3108.3
530.912	3102.88
531.117	3106.17
531.323	3137.56
531.528	3192.97
531.733	3153.45
531.939	3206.34
532.144	3182.51
532.35	3151.51
532.555	3205.76
532.76	3150.15
532.966	3136.01
533.171	3107.14
533.376	3029.84
533.581	3051.34
533.787	3105.4
533.992	3181.93
534.197	3145.5
534.402	3179.41
534.607	3202.27
534.813	3216.03
535.018	3241.02
535.223	3215.45
535.428	3245.09
535.633	3325.49
535.838	3320.07
536.043	3356.88
536.249	3452.01
536.454	3334.02
536.659	3351.65
536.864	3321.42
537.069	3306.89
537.274	3333.24
537.479	3319.1
537.684	3345.26
537.889	3240.24
538.094	3423.53
538.299	3372.77
538.504	3403.38
538.708	3375.29
538.913	3427.6
539.118	3396.02
539.323	3389.24
539.528	3330.34
539.733	3340.02
539.938	3388.07
540.142	3380.32
540.347	3340.02
540.552	3258.84
540.757	3237.14
540.962	3308.25
541.166	3254.19
541.371	3233.08
541.576	3283.45
541.781	3239.86
541.985	3357.85
542.19	3338.47
542.395	3473.32
542.599	3477
542.804	3446.97
543.008	3466.35
543.213	3408.03
543.418	3365.41
543.622	3434.19
543.827	3353.97
544.031	3471.77
544.236	3495.22
544.44	3471
544.645	3572.52
544.849	3483.79
545.054	3498.32
545.258	3552.18
545.463	3552.76
545.667	3470.61
545.872	3514.98
546.076	3539.97
546.281	3558.18
546.485	3489.21
546.689	3527.96
546.894	3535.52
547.098	3553.34
547.302	3537.26
547.507	3537.65
547.711	3541.13
547.915	3552.95
548.119	3473.71
548.324	3479.72
548.528	3537.84
548.732	3487.08
548.936	3567.1
549.141	3624.45
549.345	3513.43
549.549	3607.2
549.753	3582.79
549.957	3665.13
550.161	3661.06
550.366	3608.56
550.57	3608.17
550.774	3605.07
550.978	3610.69
551.182	3613.98
551.386	3585.89
551.59	3580.08
551.794	3624.45
551.998	3658.74
552.202	3604.1
552.406	3601.39
552.61	3645.76
552.814	3626.96
553.018	3680.24
553.222	3616.11
553.426	3574.27
553.63	3676.95
553.833	3667.84
554.037	3587.83
554.241	3589.38
554.445	3640.14
554.649	3637.62
554.853	3604.88
555.056	3670.17
555.26	3673.85
555.464	3632.39
555.668	3637.23
555.871	3679.66
556.075	3694.19
556.279	3565.93
556.483	3522.15
556.686	3536.87
556.89	3590.93
557.094	3580.08
557.297	3501.22
557.501	3589.76
557.704	3473.52
557.908	3541.13
558.112	3509.17
558.315	3582.4
558.519	3503.16
558.722	3464.02
558.926	3451.82
559.129	3318.13
559.333	3416.75
559.536	3363.86
559.74	3336.73
559.943	3309.03
560.147	3351.26
560.35	3329.95
560.553	3432.44
560.757	3345.84
560.96	3487.85
561.164	3446.97
561.367	3462.28
561.57	3442.13
561.774	3454.34
561.977	3384.97
562.18	3364.05
562.384	3438.06
562.587	3388.07
562.79	3395.05
562.993	3359.4
563.197	3411.9
563.4	3431.09
563.603	3434.38
563.806	3375.29
564.009	3305.93
564.212	3385.36
564.416	3229.59
564.619	3340.22
564.822	3246.44
565.025	3345.26
565.228	3286.55
565.431	3270.86
565.634	3211.18
565.837	3260.39
566.04	3181.93
566.243	3179.6
566.446	3081.37
566.649	3184.45
566.852	3109.85
567.055	3149.38
567.258	3138.91
567.461	3214.48
567.664	3229.01
567.867	3186.58
568.07	3168.95
568.273	3147.25
568.475	3195.88
568.678	3067.03
568.881	3037.39
569.084	3040.69
569.287	2945.75
569.489	3010.07
569.692	3025.57
569.895	2991.28
570.098	2983.14
570.3	2919.79
570.503	2864.76
570.706	2890.72
570.909	2886.66
571.111	2847.33
571.314	2791.33
571.516	2851.98
571.719	2829.5
571.922	2865.34
572.124	2848.88
572.327	2845.97
572.529	2830.66
572.732	2870.77
572.935	2851.01
573.137	2972.68
573.34	2865.93
573.542	2870.58
573.745	2886.27
573.947	2893.82
574.15	2887.04
574.352	2815.94
574.554	2895.37
574.757	2803.34
574.959	2769.44
575.162	2768.66
575.364	2741.15
575.566	2814.97
575.769	2701.63
575.971	2724.88
576.173	2596.81
576.376	2716.93
576.578	2758.4
576.78	2780.29
576.982	2664.04
577.185	2694.65
577.387	2680.51
577.589	2668.69
577.791	2726.43
577.993	2682.25
578.196	2710.73
578.398	2656.48
578.6	2653.19
578.802	2598.94
579.004	2582.47
579.206	2625.1
579.408	2660.36
579.61	2623.16
579.812	2756.26
580.014	2607.85
580.216	2636.72
580.418	2645.63
580.62	2639.82
580.822	2641.95
581.024	2665.2
581.226	2739.99
581.428	2691.17
581.63	2772.54
581.832	2703.56
582.034	2732.82
582.236	2689.42
582.438	2722.16
582.64	2729.53
582.841	2799.28
583.043	2786.68
583.245	2731.46
583.447	2730.88
583.649	2731.46
583.85	2693.88
584.052	2718.87
584.254	2683.42
584.456	2742.7
584.657	2667.72
584.859	2729.53
585.061	2708.99
585.262	2689.62
585.464	2629.17
585.666	2715.19
585.867	2627.81
586.069	2658.81
586.27	2620.06
586.472	2645.83
586.674	2593.13
586.875	2621.61
587.077	2610.18
587.278	2630.72
587.48	2597.78
587.681	2740.57
587.883	2618.32
588.084	2534.23
588.285	2584.02
588.487	2504.59
588.688	2528.22
588.89	2408.88
589.091	2355.01
589.292	2331.38
589.494	2239.15
589.695	2264.15
589.896	2163.98
590.098	2174.44
590.299	2231.6
590.5	2238.57
590.702	2275
590.903	2312.97
591.104	2384.27
591.305	2384.85
591.507	2408.1
591.708	2394.93
591.909	2386.98
592.11	2425.73
592.311	2419.73
592.512	2337.58
592.714	2300.38
592.915	2354.82
593.116	2363.34
593.317	2394.54
593.518	2389.11
593.719	2372.84
593.92	2428.25
594.121	2437.36
594.322	2418.18
594.523	2333.31
594.724	2318.2
594.925	2308.71
595.126	2353.27
595.327	2340.68
595.528	2355.4
595.729	2392.79
595.929	2340.1
596.13	2359.08
596.331	2402.87
596.532	2375.74
596.733	2473.59
596.934	2392.02
597.135	2385.82
597.335	2405.19
597.536	2357.14
597.737	2388.34
597.938	2322.27
598.138	2413.72
598.339	2388.34
598.54	2395.51
598.74	2358.89
598.941	2415.85
599.142	2429.99
599.342	2386.98
599.543	2388.14
599.744	2344.94
599.944	2383.11
600.145	2397.25
600.345	2402.48
600.546	2466.42
600.746	2392.99
600.947	2488.31
601.147	2364.89
601.348	2388.34
601.548	2366.64
601.749	2375.74
601.949	2351.14
602.15	2355.98
602.35	2346.1
602.551	2381.36
602.751	2328.28
602.951	2319.75
603.152	2286.23
603.352	2364.7
603.552	2315.88
603.753	2365.67
603.953	2367.61
604.153	2366.06
604.354	2355.01
604.554	2341.26
604.754	2377.29
604.954	2308.9
605.155	2377.88
605.355	2304.83
605.555	2353.85
605.755	2422.83
605.955	2344.94
606.155	2387.18
606.356	2359.66
606.556	2364.89
606.756	2348.23
606.956	2301.15
607.156	2337
607.356	2343
607.556	2361.02
607.756	2358.11
607.956	2392.99
608.156	2358.5
608.356	2284.3
608.556	2356.37
608.756	2303.28
608.956	2281.39
609.156	2314.71
609.356	2285.26
609.556	2264.92
609.755	2308.51
609.955	2230.24
610.155	2281.78
610.355	2276.16
610.555	2206.6
610.755	2210.09
610.954	2167.27
611.154	2237.8
611.354	2283.33
611.554	2198.08
611.753	2232.37
611.953	2168.05
612.153	2246.71
612.352	2250.78
612.552	2167.66
612.752	2120.39
612.951	2202.15
613.151	2174.64
613.351	2146.74
613.55	2157.2
613.75	2163.4
613.949	2115.35
614.149	2182.58
614.348	2142.67
614.548	2074.27
614.747	2092.87
614.947	2086.87
615.146	2077.96
615.346	2165.92
615.545	2147.9
615.745	2123.68
615.944	2123.1
