Data from gum_young_FLMT105791__70__17-39-28-043.txt Node

Date: Mon Mar 20 17:39:28 GMT 2023
User: antho
Spectrometer: FLMT10579
Trigger mode: 0
Integration Time (sec): 1.000000E-1
Scans to average: 10
Electric dark correction enabled: true
Nonlinearity correction enabled: false
Boxcar width: 0
XAxis mode: Wavelengths
Number of Pixels in Spectrum: 3648
>>>>>Begin Spectral Data<<<<<
345.248	-144.26
345.464	-144.26
345.681	-144.26
345.898	-152.98
346.114	-146.2
346.331	-47.58
346.548	24.11
346.764	-8.44
346.981	-3.99
347.197	-18.13
347.414	21.2
347.631	-6.12
347.847	81.07
348.064	-7.67
348.28	35.92
348.497	-46.81
348.713	-23.56
348.93	27.59
349.146	29.53
349.363	8.02
349.579	18.29
349.796	17.52
350.012	4.73
350.229	23.91
350.445	15.97
350.661	-47.19
350.878	5.89
351.094	10.16
351.311	42.9
351.527	3.18
351.743	-7.28
351.96	23.52
352.176	48.91
352.392	-4.96
352.609	0.27
352.825	-2.63
353.041	22.94
353.257	-18.71
353.474	1.82
353.69	15.97
353.906	5.7
354.122	-15.42
354.339	45.61
354.555	5.31
354.771	18.68
354.987	39.61
355.203	46.77
355.42	-27.63
355.636	5.51
355.852	0.27
356.068	6.67
356.284	-12.51
356.5	61.5
356.716	5.7
356.932	-12.9
357.148	50.65
357.364	10.74
357.58	48.71
357.796	33.21
358.012	44.84
358.228	3.18
358.444	-35.38
358.66	19.26
358.876	5.51
359.092	-30.53
359.308	20.42
359.524	14.22
359.74	-17.36
359.956	2.99
360.172	-5.73
360.388	40.96
360.604	-7.86
360.819	74.48
361.035	11.32
361.251	24.69
361.467	-18.52
361.683	60.34
361.898	23.14
362.114	27.4
362.33	-1.66
362.546	66.54
362.762	-0.5
362.977	25.27
363.193	-8.25
363.409	45.61
363.624	-17.94
363.84	9.77
364.056	-9.03
364.271	10.93
364.487	17.32
364.703	-0.11
364.918	-0.69
365.134	10.16
365.35	6.09
365.565	81.65
365.781	18.29
365.996	26.24
366.212	49.87
366.427	17.91
366.643	2.99
366.858	21.01
367.074	-15.23
367.289	55.3
367.505	113.42
367.72	-9.99
367.936	8.41
368.151	47.16
368.367	0.47
368.582	46.58
368.798	-2.05
369.013	64.79
369.228	16.36
369.444	20.04
369.659	73.9
369.874	38.06
370.09	59.95
370.305	-52.62
370.52	11.51
370.736	61.11
370.951	11.12
371.166	40.96
371.381	72.74
371.597	46.58
371.812	3.96
372.027	0.27
372.242	18.68
372.458	52.78
372.673	5.31
372.888	9.19
373.103	22.36
373.318	91.92
373.533	51.04
373.749	22.36
373.964	-41.19
374.179	45.61
374.394	-6.51
374.609	90.95
374.824	-17.16
375.039	41.93
375.254	15.97
375.469	61.11
375.684	15.97
375.899	35.54
376.114	42.12
376.329	26.43
376.544	48.91
376.759	72.35
376.974	-1.66
377.189	0.66
377.404	-8.64
377.619	44.26
377.834	-56.11
378.049	-46.03
378.264	-16.78
378.478	23.14
378.693	7.44
378.908	46
379.123	3.18
379.338	53.75
379.553	35.54
379.767	16.55
379.982	43.09
380.197	53.36
380.412	37.86
380.626	64.02
380.841	95.21
381.056	35.92
381.271	55.88
381.485	7.25
381.7	23.33
381.915	15.19
382.129	14.61
382.344	17.91
382.559	33.41
382.773	72.15
382.988	-28.59
383.202	3.96
383.417	21.97
383.632	101.41
383.846	28.37
384.061	43.09
384.275	5.7
384.49	34.96
384.704	31.86
384.919	32.82
385.133	5.7
385.348	42.12
385.562	-12.51
385.777	50.26
385.991	28.56
386.206	19.26
386.42	29.53
386.634	59.95
386.849	21.2
387.063	40.57
387.277	-16
387.492	31.08
387.706	8.41
387.92	13.06
388.135	50.46
388.349	43.87
388.563	18.1
388.778	29.92
388.992	48.71
389.206	67.7
389.42	103.74
389.635	40.19
389.849	53.55
390.063	47.36
390.277	43.29
390.491	92.5
390.706	56.46
390.92	59.56
391.134	47.36
391.348	64.21
391.562	-20.26
391.776	32.24
391.99	29.72
392.205	65.95
392.419	12.29
392.633	23.91
392.847	66.54
393.061	18.29
393.275	61.89
393.489	25.46
393.703	32.24
393.917	89.79
394.131	3.18
394.345	53.75
394.559	91.14
394.773	31.86
394.986	20.81
395.2	43.09
395.414	77.97
395.628	14.22
395.842	53.94
396.056	39.02
396.27	-7.48
396.484	54.14
396.697	15
396.911	52
397.125	58.2
397.339	76.61
397.553	26.04
397.766	119.82
397.98	85.91
398.194	75.45
398.408	45.61
398.621	75.84
398.835	64.79
399.049	53.94
399.262	83
399.476	71.57
399.69	81.26
399.903	120.4
400.117	75.06
400.331	64.99
400.544	40.96
400.758	157.79
400.971	64.21
401.185	114
401.398	34.37
401.612	119.43
401.826	72.54
402.039	100.25
402.253	52.97
402.466	90.17
402.68	65.76
402.893	92.69
403.106	64.02
403.32	74.29
403.533	101.22
403.747	82.23
403.96	84.55
404.174	69.83
404.387	42.32
404.6	96.95
404.814	101.41
405.027	75.45
405.24	80.87
405.454	64.02
405.667	126.6
405.88	27.98
406.094	106.64
406.307	120.98
406.52	102.96
406.733	57.62
406.947	54.33
407.16	129.12
407.373	100.64
407.586	63.63
407.799	60.53
408.012	108
408.226	90.56
408.439	121.95
408.652	46.58
408.865	77.77
409.078	93.66
409.291	112.65
409.504	48.52
409.717	96.95
409.93	101.6
410.143	114
410.357	57.24
410.57	42.32
410.783	90.95
410.996	91.53
411.209	73.32
411.421	125.24
411.634	96.37
411.847	55.1
412.06	90.95
412.273	97.92
412.486	88.62
412.699	176.97
412.912	91.53
413.125	109.74
413.338	96.18
413.55	130.47
413.763	115.75
413.976	115.94
414.189	82.23
414.402	100.44
414.615	140.74
414.827	103.74
415.04	125.24
415.253	113.42
415.466	133.38
415.678	180.27
415.891	119.62
416.104	94.63
416.316	102.38
416.529	108.77
416.742	153.92
416.954	139.77
417.167	94.24
417.38	87.85
417.592	146.94
417.805	100.44
418.017	62.47
418.23	97.73
418.442	110.13
418.655	95.21
418.868	129.5
419.08	134.93
419.293	120.4
419.505	116.33
419.718	134.74
419.93	133.38
420.142	110.9
420.355	154.88
420.567	149.85
420.78	152.17
420.992	114.59
421.205	145.97
421.417	92.11
421.629	96.57
421.842	93.85
422.054	63.63
422.266	136.87
422.479	174.26
422.691	93.47
422.903	169.61
423.115	96.76
423.328	132.99
423.54	144.81
423.752	134.35
423.964	92.5
424.177	154.88
424.389	125.63
424.601	239.94
424.813	152.56
425.025	172.32
425.238	141.13
425.45	130.28
425.662	129.7
425.874	381.96
426.086	131.25
426.298	135.32
426.51	137.25
426.722	104.7
426.934	118.85
427.146	157.4
427.358	123.5
427.57	177.55
427.782	135.9
427.994	142.48
428.206	126.99
428.418	90.56
428.63	158.95
428.842	165.73
429.054	133.77
429.266	173.68
429.478	129.31
429.69	140.74
429.902	99.47
430.114	153.14
430.325	153.72
430.537	105.87
430.749	131.05
430.961	79.13
431.173	134.54
431.384	141.13
431.596	75.64
431.808	92.11
432.02	149.27
432.231	159.73
432.443	182.98
432.655	161.08
432.867	126.4
433.078	156.05
433.29	209.72
433.502	181.23
433.713	191.89
433.925	153.72
434.136	195.96
434.348	139
434.56	81.07
434.771	239.55
434.983	117.49
435.194	144.23
435.406	147.13
435.617	186.08
435.829	235.87
436.04	201.38
436.252	182.01
436.463	226.76
436.675	202.16
436.886	165.73
437.098	187.24
437.309	234.51
437.521	185.88
437.732	188.4
437.943	187.24
438.155	179.1
438.366	150.04
438.578	218.24
438.789	176.97
439	215.14
439.211	177.94
439.423	208.55
439.634	208.17
439.845	216.88
440.057	207.39
440.268	237.03
440.479	177.94
440.69	195.57
440.902	200.03
441.113	170.58
441.324	176.97
441.535	220.76
441.746	268.81
441.957	174.07
442.168	184.72
442.38	221.92
442.591	233.16
442.802	152.75
443.013	161.86
443.224	228.9
443.435	169.8
443.646	201
443.857	211.07
444.068	185.3
444.279	185.5
444.49	258.93
444.701	209.52
444.912	299.23
445.123	239.94
445.334	215.14
445.545	227.54
445.756	246.33
445.967	209.13
446.178	216.69
446.388	245.75
446.599	247.3
446.81	262.61
447.021	203.71
447.232	270.16
447.443	277.14
447.653	221.53
447.864	269.58
448.075	243.23
448.286	256.8
448.496	236.26
448.707	293.22
448.918	229.28
449.129	309.69
449.339	219.02
449.55	269
449.761	244.78
449.971	299.23
450.182	263.77
450.393	262.41
450.603	238.78
450.814	288.57
451.024	277.91
451.235	294.58
451.446	315.11
451.656	334.88
451.867	253.31
452.077	306.98
452.288	321.12
452.498	333.33
452.709	258.54
452.919	281.21
453.13	255.25
453.34	297.1
453.55	207.2
453.761	280.24
453.971	274.81
454.182	293.41
454.392	293.8
454.602	330.81
454.813	292.64
455.023	297.68
455.233	267.26
455.444	278.5
455.654	206.81
455.864	283.15
456.075	280.24
456.285	256.02
456.495	289.54
456.705	293.22
456.916	315.11
457.126	343.79
457.336	302.13
457.546	240.13
457.756	266.29
457.967	311.63
458.177	276.17
458.387	293.8
458.597	269.78
458.807	294.58
459.017	292.45
459.227	279.46
459.437	277.33
459.647	330.81
459.857	330.81
460.068	298.45
460.278	338.36
460.488	326.93
460.698	355.8
460.908	298.26
461.117	237.23
461.327	283.73
461.537	318.6
461.747	285.47
461.957	312.6
462.167	377.89
462.377	332.36
462.587	325.58
462.797	357.54
463.007	331.97
463.216	330.81
463.426	369.75
463.636	343.01
463.846	292.06
464.056	308.14
464.265	342.04
464.475	311.24
464.685	341.08
464.895	351.15
465.104	297.48
465.314	345.53
465.524	311.63
465.733	317.05
465.943	374.98
466.153	384.48
466.362	344.95
466.572	334.1
466.782	321.51
466.991	323.83
467.201	382.15
467.41	303.49
467.62	344.37
467.829	358.51
468.039	369.36
468.249	319.38
468.458	350.18
468.668	355.22
468.877	362.39
469.086	397.65
469.296	371.11
469.505	336.81
469.715	404.24
469.924	363.55
470.134	400.94
470.343	418.96
470.552	354.44
470.762	339.72
470.971	346.31
471.18	378.28
471.39	381.38
471.599	333.33
471.808	399.01
472.018	343.4
472.227	416.83
472.436	423.81
472.645	390.48
472.855	376.34
473.064	428.65
473.273	407.34
473.482	423.42
473.691	442.6
473.901	409.08
474.11	388.16
474.319	494.72
474.528	431.36
474.737	476.7
474.946	443.96
475.155	433.3
475.364	475.73
475.573	424.77
475.783	452.67
475.992	440.66
476.201	457.71
476.41	430.59
476.619	417.61
476.828	461.97
477.037	414.51
477.245	453.84
477.454	477.86
477.663	472.82
477.872	442.99
478.081	526.69
478.29	444.34
478.499	535.99
478.708	494.72
478.917	504.99
479.125	487.55
479.334	524.75
479.543	476.89
479.752	501.69
479.961	518.94
480.169	539.47
480.378	501.3
480.587	612.32
480.796	525.72
481.004	523.39
481.213	532.11
481.422	530.37
481.63	527.07
481.839	570.09
482.048	584.62
482.256	574.35
482.465	567.95
482.674	585
482.882	588.68
483.091	625.69
483.299	565.05
483.508	589.46
483.716	575.7
483.925	569.31
484.134	560.4
484.342	562.34
484.551	608.25
484.759	602.25
484.967	606.7
485.176	624.92
485.384	631.7
485.593	630.34
485.801	603.6
486.01	572.99
486.218	566.21
486.426	529.59
486.635	556.33
486.843	537.73
487.051	565.44
487.26	555.94
487.468	566.02
487.676	612.52
487.885	559.24
488.093	634.6
488.301	618.72
488.509	633.44
488.717	624.92
488.926	643.32
489.134	623.17
489.342	629.95
489.55	592.17
489.758	650.49
489.967	633.44
490.175	715.2
490.383	649.72
490.591	726.63
490.799	635.57
491.007	711.71
491.215	672.96
491.423	689.82
491.631	692.15
491.839	703.96
492.047	711.71
492.255	657.27
492.463	650.68
492.671	657.08
492.879	729.54
493.087	680.13
493.295	727.99
493.503	721.98
493.711	737.1
493.919	748.53
494.127	754.34
494.334	754.14
494.542	709
494.75	747.56
494.958	700.09
495.166	804.52
495.374	762.67
495.581	772.55
495.789	776.23
495.997	811.3
496.205	768.87
496.412	746.2
496.62	784.76
496.828	780.69
497.035	768.48
497.243	815.95
497.451	815.37
497.658	821.38
497.866	823.31
498.074	847.53
498.281	783.01
498.489	886.09
498.696	801.03
498.904	790.38
499.112	798.13
499.319	850.63
499.527	804.91
499.734	884.34
499.942	798.9
500.149	813.63
500.357	856.64
500.564	783.21
500.771	826.22
500.979	819.24
501.186	823.89
501.394	816.92
501.601	836.68
501.808	832.42
502.016	827.77
502.223	843.27
502.43	858.57
502.638	845.79
502.845	831.45
503.052	936.46
503.26	851.6
503.467	919.41
503.674	879.5
503.881	895.77
504.089	963.39
504.296	881.63
504.503	861.09
504.71	904.49
504.917	877.76
505.125	885.51
505.332	936.65
505.539	919.99
505.746	979.86
505.953	984.9
506.16	953.9
506.367	1008.92
506.574	1043.41
506.781	1011.25
506.988	981.6
507.195	1026.55
507.402	992.45
507.609	1027.52
507.816	985.67
508.023	987.61
508.23	985.67
508.437	977.54
508.644	1010.28
508.851	1063.37
509.058	1087.39
509.265	1067.82
509.472	1070.15
509.679	1166.25
509.885	1074.41
510.092	1084.48
510.299	1109.48
510.506	1109.86
510.713	1107.93
510.92	1096.5
511.126	1139.51
511.333	1184.07
511.54	1169.15
511.746	1222.24
511.953	1211.78
512.16	1226.89
512.367	1166.83
512.573	1199.38
512.78	1217.78
512.987	1189.49
513.193	1209.45
513.4	1139.31
513.606	1201.7
513.813	1200.93
514.02	1246.26
514.226	1274.94
514.433	1256.53
514.639	1188.33
514.846	1237.74
515.052	1217.98
515.259	1254.4
515.465	1292.37
515.672	1264.48
515.878	1362.51
516.085	1296.64
516.291	1347.4
516.497	1292.37
516.704	1264.67
516.91	1266.22
517.117	1211.58
517.323	1186.2
517.529	1219.14
517.736	1225.53
517.942	1268.35
518.148	1270.68
518.354	1291.79
518.561	1301.87
518.767	1303.03
518.973	1367.55
519.179	1373.36
519.386	1401.45
519.592	1354.37
519.798	1346.62
520.004	1485.15
520.21	1471.59
520.417	1518.87
520.623	1544.44
520.829	1557.23
521.035	1586.29
521.241	1607.41
521.447	1593.46
521.653	1675.22
521.859	1600.43
522.065	1678.32
522.271	1702.93
522.477	1663.4
522.683	1729.66
522.889	1648.29
523.095	1685.29
523.301	1691.11
523.507	1636.08
523.713	1682.97
523.919	1653.71
524.125	1773.45
524.331	1725.79
524.537	1853.66
524.742	1808.9
524.948	1883.69
525.154	1848.24
525.36	1901.32
525.566	1866.06
525.772	1902.29
525.977	1813.17
526.183	1853.47
526.389	1900.16
526.595	1814.91
526.8	1812
527.006	1748.07
527.212	1711.64
527.417	1693.63
527.623	1708.93
527.829	1812
528.034	1829.05
528.24	1838.55
528.446	1865.48
528.651	1958.48
528.857	1922.05
529.062	2013.31
529.268	1990.64
529.473	2015.44
529.679	2078.02
529.884	2092.55
530.09	2038.3
530.295	2085.96
530.501	2068.14
530.706	2081.31
530.912	2044.5
531.117	2071.24
531.323	2060.58
531.528	2152.61
531.733	2146.03
531.939	2161.52
532.144	2138.47
532.35	2132.66
532.555	2150.29
532.76	2123.55
532.966	2124.52
533.171	2119.09
533.376	2050.31
533.581	2076.28
533.787	2111.34
533.992	2141.96
534.197	2179.93
534.402	2168.31
534.607	2180.71
534.813	2248.71
535.018	2189.23
535.223	2237.28
535.428	2215.97
535.633	2253.55
535.838	2292.11
536.043	2253.17
536.249	2367.09
536.454	2292.89
536.659	2326.6
536.864	2303.74
537.069	2265.57
537.274	2257.24
537.479	2279.9
537.684	2260.34
537.889	2221.39
538.094	2378.91
538.299	2313.23
538.504	2328.53
538.708	2307.22
538.913	2388.02
539.118	2345.39
539.323	2325.05
539.528	2315.55
539.733	2264.4
539.938	2310.71
540.142	2276.8
540.347	2264.6
540.552	2292.69
540.757	2268.28
540.962	2251.23
541.166	2203.76
541.371	2204.54
541.576	2257.24
541.781	2189.62
541.985	2346.75
542.19	2335.12
542.395	2391.7
542.599	2427.73
542.804	2364.18
543.008	2384.72
543.213	2362.44
543.418	2328.73
543.622	2423.08
543.827	2312.84
544.031	2390.34
544.236	2453.5
544.44	2439.55
544.645	2499.23
544.849	2390.15
545.054	2453.31
545.258	2522.09
545.463	2491.67
545.667	2405.26
545.872	2443.62
546.076	2454.08
546.281	2460.67
546.485	2439.16
546.689	2481.79
546.894	2485.47
547.098	2490.31
547.302	2417.46
547.507	2463.19
547.711	2453.7
547.915	2502.13
548.119	2388.4
548.324	2446.53
548.528	2496.51
548.732	2484.31
548.936	2534.49
549.141	2505.81
549.345	2491.28
549.549	2482.37
549.753	2537.98
549.957	2622.06
550.161	2573.63
550.366	2537.78
550.57	2493.41
550.774	2532.16
550.978	2514.92
551.182	2562.97
551.386	2478.3
551.59	2491.86
551.794	2535.65
551.998	2567.62
552.202	2512.21
552.406	2467.26
552.61	2543.79
552.814	2532.74
553.018	2616.44
553.222	2531.97
553.426	2520.93
553.63	2604.24
553.833	2517.44
554.037	2456.8
554.241	2544.95
554.445	2555.22
554.649	2591.64
554.853	2511.82
555.056	2554.64
555.26	2586.02
555.464	2559.29
555.668	2584.67
555.871	2572.46
556.075	2583.12
556.279	2502.52
556.483	2502.91
556.686	2477.33
556.89	2514.92
557.094	2500.19
557.297	2411.26
557.501	2498.06
557.704	2442.85
557.908	2489.35
558.112	2424.25
558.315	2505.62
558.519	2432
558.722	2420.18
558.926	2388.21
559.129	2312.84
559.333	2357.6
559.536	2360.31
559.74	2359.15
559.943	2284.75
560.147	2308.77
560.35	2358.57
560.553	2343.26
560.757	2305.09
560.96	2401.77
561.164	2361.28
561.367	2398.48
561.57	2370.97
561.774	2365.73
561.977	2352.17
562.18	2322.14
562.384	2493.22
562.587	2359.15
562.79	2326.4
562.993	2317.49
563.197	2310.71
563.4	2358.57
563.603	2396.73
563.806	2397.51
564.009	2320.98
564.212	2317.3
564.416	2265.18
564.619	2294.24
564.822	2236.31
565.025	2342.68
565.228	2289.4
565.431	2299.86
565.634	2175.86
565.837	2218.68
566.04	2196.79
566.243	2212.67
566.446	2120.06
566.649	2228.37
566.852	2133.43
567.055	2140.41
567.258	2164.04
567.461	2252.59
567.664	2184.19
567.867	2131.49
568.07	2141.38
568.273	2183.42
568.475	2189.62
568.678	2125.29
568.881	2099.14
569.084	2093.91
569.287	2000.52
569.489	2062.91
569.692	2094.1
569.895	2066.01
570.098	1973.2
570.3	2003.04
570.503	1974.17
570.706	1945.11
570.909	1992.19
571.111	1908.49
571.314	1886.79
571.516	1914.69
571.719	1940.07
571.922	1915.47
572.124	1931.55
572.327	1958.28
572.529	1931.16
572.732	1902.48
572.935	1947.82
573.137	2013.5
573.34	1877.1
573.542	1944.33
573.745	1920.7
573.947	1928.25
574.15	1903.45
574.352	1850.95
574.554	1929.8
574.757	1866.45
574.959	1833.9
575.162	1841.07
575.364	1825.76
575.566	1914.3
575.769	1776.36
575.971	1834.67
576.173	1726.37
576.376	1761.44
576.578	1829.05
576.78	1837.39
576.982	1744.58
577.185	1752.91
577.387	1784.3
577.589	1750.01
577.791	1792.24
577.993	1790.5
578.196	1760.86
578.398	1756.4
578.6	1751.17
578.802	1666.89
579.004	1696.73
579.206	1702.34
579.408	1733.15
579.61	1698.66
579.812	1754.46
580.014	1694.59
580.216	1703.31
580.418	1700.21
580.62	1715.71
580.822	1673.28
581.024	1727.14
581.226	1737.99
581.428	1710.09
581.63	1816.65
581.832	1710.29
582.034	1801.74
582.236	1727.14
582.438	1755.24
582.64	1786.62
582.841	1803.09
583.043	1855.02
583.245	1767.44
583.447	1773.84
583.649	1745.55
583.85	1762.6
584.052	1790.5
584.254	1701.96
584.456	1786.43
584.657	1691.69
584.859	1766.09
585.061	1745.74
585.262	1723.66
585.464	1673.67
585.666	1745.74
585.867	1675.41
586.069	1752.52
586.27	1700.41
586.472	1683.36
586.674	1688.98
586.875	1705.25
587.077	1670.38
587.278	1693.63
587.48	1650.03
587.681	1744.97
587.883	1674.83
588.084	1598.11
588.285	1616.32
588.487	1599.08
588.688	1649.26
588.89	1558.58
589.091	1464.62
589.292	1494.65
589.494	1435.17
589.695	1460.93
589.896	1352.82
590.098	1376.27
590.299	1441.56
590.5	1407.85
590.702	1415.02
590.903	1455.9
591.104	1518.48
591.305	1510.15
591.507	1533.01
591.708	1483.22
591.909	1502.4
592.11	1570.21
592.311	1530.68
592.512	1502.98
592.714	1475.08
592.915	1486.51
593.116	1490.58
593.317	1531.65
593.518	1520.42
593.719	1503.75
593.92	1510.92
594.121	1575.63
594.322	1522.35
594.523	1496.78
594.724	1443.69
594.925	1490.97
595.126	1457.64
595.327	1531.27
595.528	1459.77
595.729	1508.6
595.929	1514.6
596.13	1481.28
596.331	1535.92
596.532	1517.7
596.733	1548.51
596.934	1558.58
597.135	1509.76
597.335	1515.77
597.536	1477.4
597.737	1475.85
597.938	1485.35
598.138	1485.54
598.339	1474.88
598.54	1490
598.74	1473.92
598.941	1471.78
599.142	1550.45
599.342	1516.15
599.543	1470.82
599.744	1493.68
599.944	1493.48
600.145	1515.96
600.345	1518.09
600.546	1546.57
600.746	1497.75
600.947	1566.53
601.147	1510.15
601.348	1536.5
601.548	1470.62
601.749	1492.71
601.949	1435.36
602.15	1461.71
602.35	1433.42
602.551	1481.28
602.751	1466.36
602.951	1441.37
603.152	1427.03
603.352	1474.69
603.552	1471.59
603.753	1496
603.953	1518.28
604.153	1480.7
604.354	1459
604.554	1467.13
604.754	1476.63
604.954	1473.92
605.155	1465.39
605.355	1475.08
605.555	1508.02
605.755	1489.8
605.955	1496.58
606.155	1478.57
606.356	1452.99
606.556	1481.67
606.756	1463.45
606.956	1433.81
607.156	1485.15
607.356	1434.2
607.556	1461.13
607.756	1434.97
607.956	1508.4
608.156	1466.17
608.356	1406.69
608.556	1459.77
608.756	1391.19
608.956	1409.98
609.156	1425.29
609.356	1345.85
609.556	1389.64
609.755	1417.73
609.955	1390.6
610.155	1401.07
610.355	1404.75
610.555	1371.23
610.755	1393.7
610.954	1316.01
611.154	1381.3
611.354	1413.66
611.554	1351.86
611.753	1352.44
611.953	1333.45
612.153	1369.1
612.352	1357.86
612.552	1300.71
612.752	1296.06
612.951	1326.47
613.151	1350.5
613.351	1323.76
613.55	1299.93
613.75	1341.39
613.949	1286.56
614.149	1299.35
614.348	1308.65
614.548	1276.87
614.747	1256.34
614.947	1285.59
615.146	1216.23
615.346	1309.23
615.545	1281.33
615.745	1283.46
615.944	1288.89
616.144	1244.71
616.343	1301.48
616.542	1242
616.742	1249.94
616.941	1239.68
617.14	1206.35
617.34	1232.89
617.539	1237.74
617.738	1201.31
617.938	1277.65
618.137	1246.65
618.336	1212.74
618.535	1245.88
