Data from gum_young_FLMT105791__74__17-39-32-043.txt Node

Date: Mon Mar 20 17:39:32 GMT 2023
User: antho
Spectrometer: FLMT10579
Trigger mode: 0
Integration Time (sec): 1.000000E-1
Scans to average: 10
Electric dark correction enabled: true
Nonlinearity correction enabled: false
Boxcar width: 0
XAxis mode: Wavelengths
Number of Pixels in Spectrum: 3648
>>>>>Begin Spectral Data<<<<<
345.248	-152.64
345.464	-152.64
345.681	-152.64
345.898	-157.68
346.114	-136.75
346.331	-30.77
346.548	23.48
346.764	-6.56
346.981	5.07
347.197	-16.24
347.414	13.21
347.631	-21.47
347.847	60.68
348.064	-21.28
348.28	37.62
348.497	-28.25
348.713	-15.47
348.93	12.63
349.146	40.14
349.363	7.59
349.579	21.15
349.796	-9.07
350.012	-12.56
350.229	13.98
350.445	-19.15
350.661	-35.42
350.878	7.98
351.094	18.44
351.311	-2.1
351.527	16.31
351.743	-18.76
351.96	9.53
352.176	35.68
352.392	16.11
352.609	32
352.825	-11.59
353.041	-9.07
353.257	-13.34
353.474	20.18
353.69	-0.16
353.906	-7.52
354.122	-24.96
354.339	37.23
354.555	4.68
354.771	-9.27
354.987	40.53
355.203	50.02
355.42	8.56
355.636	-14.89
355.852	-21.28
356.068	-11.98
356.284	-38.91
356.5	40.33
356.716	20.57
356.932	-10.04
357.148	25.61
357.364	7.01
357.58	45.76
357.796	56.61
358.012	58.54
358.228	6.23
358.444	-61.97
358.66	38.78
358.876	8.36
359.092	-8.3
359.308	4.88
359.524	33.16
359.74	-8.69
359.956	-22.05
360.172	-1.13
360.388	46.14
360.604	-6.94
360.819	65.91
361.035	1.97
361.251	11.27
361.467	-9.66
361.683	37.04
361.898	16.31
362.114	31.81
362.33	-2.68
362.546	32.97
362.762	-25.15
362.977	19.02
363.193	-14.31
363.409	38.78
363.624	-29.61
363.84	-26.51
364.056	6.81
364.271	27.54
364.487	17.47
364.703	-16.82
364.918	-19.92
365.134	-11.01
365.35	7.39
365.565	107.37
365.781	26.38
365.996	15.92
366.212	34.52
366.427	4.1
366.643	12.82
366.858	11.66
367.074	-8.69
367.289	54.67
367.505	90.32
367.72	-13.14
367.936	26.38
368.151	30.26
368.367	12.24
368.582	19.21
368.798	1
369.013	71.91
369.228	-5.2
369.444	13.21
369.659	61.45
369.874	39.75
370.09	70.36
370.305	-33.87
370.52	10.69
370.736	57.38
370.951	-2.29
371.166	64.55
371.381	50.79
371.597	13.98
371.812	-31.74
372.027	-4.62
372.242	20.57
372.458	29.29
372.673	-1.13
372.888	-8.49
373.103	17.66
373.318	72.3
373.533	39.75
373.749	51.18
373.964	-43.75
374.179	85.47
374.394	-15.85
374.609	65.91
374.824	-4.04
375.039	45.76
375.254	-10.04
375.469	34.33
375.684	29.29
375.899	58.93
376.114	22.12
376.329	44.21
376.544	39.36
376.759	38.01
376.974	-2.29
377.189	-1.71
377.404	-1.91
377.619	43.82
377.834	-41.43
378.049	-4.81
378.264	-27.29
378.478	25.8
378.693	33.16
378.908	50.41
379.123	3.91
379.338	68.62
379.553	49.24
379.767	14.37
379.982	36.07
380.197	49.24
380.412	38.98
380.626	57.38
380.841	95.55
381.056	55.25
381.271	62.23
381.485	4.68
381.7	0.81
381.915	41.49
382.129	29.87
382.344	46.53
382.559	17.66
382.773	37.04
382.988	-22.64
383.202	21.93
383.417	-19.73
383.632	83.15
383.846	13.01
384.061	30.84
384.275	19.79
384.49	34.91
384.704	47.31
384.919	31.03
385.133	-1.32
385.348	45.76
385.562	8.75
385.777	63.58
385.991	14.95
386.206	-8.3
386.42	21.54
386.634	42.85
386.849	49.63
387.063	50.41
387.277	6.04
387.492	13.79
387.706	-3.65
387.92	12.04
388.135	65.33
388.349	44.98
388.563	34.91
388.778	34.33
388.992	49.44
389.206	75.79
389.42	78.89
389.635	14.76
389.849	57.19
390.063	50.41
390.277	62.61
390.491	90.9
390.706	57.58
390.92	53.51
391.134	23.48
391.348	44.21
391.562	-11.01
391.776	26.19
391.99	3.91
392.205	66.49
392.419	24.64
392.633	25.03
392.847	61.64
393.061	8.36
393.275	77.14
393.489	24.44
393.703	27.74
393.917	76.17
394.131	0.03
394.345	42.46
394.559	89.16
394.773	42.08
394.986	33.94
395.2	48.47
395.414	74.24
395.628	9.91
395.842	32.58
396.056	31.23
396.27	-13.72
396.484	56.22
396.697	36.46
396.911	79.86
397.125	56.99
397.339	89.74
397.553	37.43
397.766	95.74
397.98	57.19
398.194	61.64
398.408	19.41
398.621	55.25
398.835	73.66
399.049	69.01
399.262	98.26
399.476	77.72
399.69	63.97
399.903	90.32
400.117	44.21
400.331	86.44
400.544	30.26
400.758	143.79
400.971	64.36
401.185	98.07
401.398	7.59
401.612	115.31
401.826	91.87
402.039	87.41
402.253	49.05
402.466	66.68
402.68	56.61
402.893	100.59
403.106	72.88
403.32	104.27
403.533	91.48
403.747	69.01
403.96	82.96
404.174	92.06
404.387	43.82
404.6	72.3
404.814	123.84
405.027	73.66
405.24	71.33
405.454	69.39
405.667	108.53
405.88	15.92
406.094	76.56
406.307	99.42
406.52	94.58
406.733	56.61
406.947	64.74
407.16	113.18
407.373	114.15
407.586	25.61
407.799	34.91
408.012	99.62
408.226	80.82
408.439	110.86
408.652	48.47
408.865	125
409.078	92.26
409.291	92.84
409.504	43.43
409.717	75.21
409.93	114.92
410.143	89.74
410.357	34.91
410.57	27.54
410.783	77.72
410.996	75.79
411.209	81.41
411.421	128.49
411.634	74.24
411.847	69.01
412.06	74.62
412.273	110.47
412.486	93.81
412.699	180.02
412.912	87.41
413.125	106.59
413.338	91.09
413.55	112.79
413.763	77.14
413.976	92.06
414.189	73.46
414.402	82.57
414.615	137.98
414.827	76.17
415.04	115.12
415.253	101.36
415.466	137.21
415.678	135.85
415.891	74.43
416.104	101.94
416.316	92.26
416.529	78.31
416.742	146.89
416.954	135.46
417.167	129.84
417.38	110.08
417.592	140.89
417.805	70.94
418.017	42.85
418.23	119.96
418.442	78.31
418.655	113.37
418.868	100.59
419.08	146.12
419.293	139.72
419.505	106.98
419.718	128.29
419.93	145.92
420.142	89.35
420.355	137.01
420.567	142.82
420.78	122.87
420.992	109.5
421.205	172.85
421.417	87.61
421.629	79.27
421.842	79.86
422.054	67.46
422.266	129.07
422.479	153.48
422.691	88.57
422.903	157.36
423.115	81.41
423.328	102.33
423.54	124.81
423.752	125.97
423.964	85.28
424.177	151.74
424.389	102.72
424.601	226.33
424.813	122.29
425.025	164.91
425.238	178.67
425.45	107.95
425.662	118.22
425.874	387.72
426.086	136.43
426.298	149.22
426.51	146.12
426.722	125.97
426.934	108.34
427.146	153.09
427.358	102.52
427.57	153.48
427.782	112.41
427.994	127.32
428.206	63.97
428.418	91.09
428.63	148.44
428.842	154.84
429.054	152.32
429.266	166.27
429.478	97.68
429.69	132.75
429.902	66.29
430.114	165.88
430.325	121.12
430.537	86.64
430.749	104.46
430.961	70.94
431.173	111.82
431.384	142.63
431.596	40.14
431.808	119.38
432.02	144.37
432.231	149.41
432.443	167.04
432.655	150.38
432.867	112.02
433.078	143.79
433.29	208.31
433.502	175.37
433.713	200.75
433.925	160.84
434.136	165.3
434.348	115.7
434.56	113.57
434.771	230.59
434.983	115.51
435.194	128.1
435.406	149.41
435.617	200.95
435.829	211.22
436.04	197.46
436.252	185.84
436.463	208.31
436.675	208.7
436.886	162.39
437.098	182.93
437.309	219.55
437.521	185.06
437.732	175.57
437.943	176.15
438.155	172.27
438.366	144.18
438.578	230.01
438.789	178.67
439	195.14
439.211	184.87
439.423	185.45
439.634	193.97
439.845	191.26
440.057	153.29
440.268	207.15
440.479	165.3
440.69	183.32
440.902	177.12
441.113	188.16
441.324	174.4
441.535	213.74
441.746	245.9
441.957	176.73
442.168	158.32
442.38	234.85
442.591	233.69
442.802	158.91
443.013	182.15
443.224	212.38
443.435	205.21
443.646	192.81
443.857	168.4
444.068	193.59
444.279	201.14
444.49	267.21
444.701	193
444.912	271.28
445.123	234.47
445.334	220.32
445.545	226.52
445.756	192.62
445.967	210.44
446.178	214.9
446.388	260.82
446.599	244.54
446.81	247.25
447.021	190.87
447.232	235.24
447.443	273.02
447.653	231.37
447.864	263.53
448.075	235.44
448.286	256.75
448.496	226.14
448.707	280.19
448.918	212.19
449.129	323.59
449.339	220.32
449.55	263.53
449.761	222.65
449.971	291.23
450.182	238.54
450.393	283.29
450.603	231.17
450.814	260.82
451.024	263.92
451.235	268.95
451.446	314.87
451.656	339.67
451.867	251.9
452.077	304.41
452.288	319.52
452.498	315.07
452.709	264.3
452.919	280.77
453.13	243.19
453.34	278.83
453.55	223.62
453.761	269.53
453.971	260.62
454.182	270.31
454.392	281.55
454.602	326.69
454.813	269.92
455.023	284.65
455.233	219.74
455.444	285.42
455.654	223.62
455.864	252.48
456.075	269.92
456.285	239.7
456.495	270.12
456.705	302.28
456.916	295.69
457.126	321.65
457.336	277.28
457.546	232.92
457.756	262.95
457.967	324.17
458.177	264.11
458.387	289.88
458.597	260.82
458.807	283.87
459.017	241.83
459.227	271.08
459.437	280.19
459.647	337.15
459.857	306.93
460.068	260.43
460.278	308.28
460.488	311
460.698	315.84
460.908	287.75
461.117	269.53
461.327	278.06
461.537	299.37
461.747	327.85
461.957	307.12
462.167	422.79
462.377	336.57
462.587	288.72
462.797	360.6
463.007	309.45
463.216	307.51
463.426	367.38
463.636	348.78
463.846	267.21
464.056	294.72
464.265	335.99
464.475	283.87
464.685	301.12
464.895	333.47
465.104	315.65
465.314	343.74
465.524	302.67
465.733	263.14
465.943	418.72
466.153	388.69
466.362	343.93
466.572	352.65
466.782	330.37
466.991	344.32
467.201	376.1
467.41	263.33
467.62	340.25
467.829	349.36
468.039	385.4
468.249	319.52
468.458	321.65
468.668	354.78
468.877	345.29
469.086	405.35
469.296	379.58
469.505	309.45
469.715	404.96
469.924	376.29
470.134	380.36
470.343	418.33
470.552	351.68
470.762	338.7
470.971	353.62
471.18	364.86
471.39	375.71
471.599	332.89
471.808	393.92
472.018	366.21
472.227	417.17
472.436	380.55
472.645	405.35
472.855	351.68
473.064	445.46
473.273	411.94
473.482	402.45
473.691	399.93
473.901	444.1
474.11	377.65
474.319	477.43
474.528	414.85
474.737	484.4
474.946	416.01
475.155	443.91
475.364	466.77
475.573	437.13
475.783	458.05
475.992	429.18
476.201	449.33
476.41	429.76
476.619	385.01
476.828	443.13
477.037	391.6
477.245	422.79
477.454	509.2
477.663	459.41
477.872	431.7
478.081	522.37
478.29	412.13
478.499	525.09
478.708	490.99
478.917	542.14
479.125	482.27
479.334	489.24
479.543	463.67
479.752	477.43
479.961	485.76
480.169	534.19
480.378	486.92
480.587	610.72
480.796	528.38
481.004	490.99
481.213	520.05
481.422	542.91
481.63	506.29
481.839	563.26
482.048	576.04
482.256	554.54
482.465	550.66
482.674	551.05
482.882	529.35
483.091	616.54
483.299	570.42
483.508	577.21
483.716	575.66
483.925	577.59
484.134	543.88
484.342	538.46
484.551	605.69
484.759	583.21
484.967	600.45
485.176	615.95
485.384	607.24
485.593	601.62
485.801	608.4
486.01	557.83
486.218	540.78
486.426	498.54
486.635	532.26
486.843	517.53
487.051	559.38
487.26	553.18
487.468	558.8
487.676	597.16
487.885	565.39
488.093	614.79
488.301	610.53
488.509	626.42
488.717	641.34
488.926	637.85
489.134	630.68
489.342	618.67
489.55	584.37
489.758	630.68
489.967	638.62
490.175	728.13
490.383	655.87
490.591	707.02
490.799	628.16
491.007	700.43
491.215	675.05
491.423	667.69
491.631	679.31
491.839	665.75
492.047	691.52
492.255	644.63
492.463	638.43
492.671	627.58
492.879	712.05
493.087	672.53
493.295	695.78
493.503	720.19
493.711	735.5
493.919	734.92
494.127	761.46
494.334	732.78
494.542	672.14
494.75	726.97
494.958	728.52
495.166	792.65
495.374	759.52
495.581	771.15
495.789	742.67
495.997	811.83
496.205	738.02
496.412	745.57
496.62	751.97
496.828	798.85
497.035	787.61
497.243	794.4
497.451	757.2
497.658	766.11
497.866	778.51
498.074	846.71
498.281	779.48
498.489	866.08
498.696	782.19
498.904	730.85
499.112	747.9
499.319	837.41
499.527	785.1
499.734	842.06
499.942	786.26
500.149	800.6
500.357	804.86
500.564	798.27
500.771	814.74
500.979	764.75
501.186	784.9
501.394	814.93
501.601	800.79
501.808	845.35
502.016	815.51
502.223	809.7
502.43	825.78
502.638	807.96
502.845	822.1
503.052	902.51
503.26	852.71
503.467	936.03
503.674	871.51
503.881	868.99
504.089	948.62
504.296	906.38
504.503	845.16
504.71	850.58
504.917	842.06
505.125	909.87
505.332	934.09
505.539	897.28
505.746	1005.77
505.953	963.54
506.16	991.63
506.367	1011.39
506.574	1044.52
506.781	997.83
506.988	968.19
507.195	1004.61
507.402	981.94
507.609	1015.66
507.816	956.56
508.023	991.24
508.23	985.04
508.437	959.08
508.644	1026.31
508.851	1062.15
509.058	1037.94
509.265	1070.29
509.472	1085.02
509.679	1152.05
509.885	1060.02
510.092	1038.32
510.299	1092.19
510.506	1093.54
510.713	1134.42
510.92	1118.92
511.126	1095.09
511.333	1138.1
511.54	1185.96
511.746	1195.45
511.953	1206.3
512.16	1222
512.367	1160.58
512.573	1174.92
512.78	1195.84
512.987	1237.88
513.193	1170.85
513.4	1152.44
513.606	1197.58
513.813	1205.33
514.02	1204.75
514.226	1258.81
514.433	1255.32
514.639	1240.21
514.846	1252.22
515.052	1240.6
515.259	1257.84
515.465	1280.7
515.672	1274.89
515.878	1384.74
516.085	1300.46
516.291	1366.34
516.497	1300.85
516.704	1289.61
516.91	1250.09
517.117	1212.89
517.323	1170.07
517.529	1203.4
517.736	1222
517.942	1245.44
518.148	1256.68
518.354	1360.53
518.561	1312.09
518.767	1317.51
518.973	1350.06
519.179	1370.41
519.386	1341.54
519.592	1362.08
519.798	1395.21
520.004	1501.38
520.21	1473.48
520.417	1492.47
520.623	1558.53
520.829	1574.42
521.035	1539.74
521.241	1546.52
521.447	1580.23
521.653	1697.65
521.859	1563.38
522.065	1645.91
522.271	1737.75
522.477	1643.2
522.683	1687.38
522.889	1643.2
523.095	1644.17
523.301	1680.98
523.507	1669.36
523.713	1688.93
523.919	1648.82
524.125	1758.87
524.331	1741.43
524.537	1828.81
524.742	1818.35
524.948	1839.08
525.154	1850.9
525.36	1912.9
525.566	1842.57
525.772	1854.97
525.977	1838.31
526.183	1896.62
526.389	1861.75
526.595	1839.27
526.8	1773.4
527.006	1728.26
527.212	1737.17
527.417	1696.48
527.623	1728.06
527.829	1784.25
528.034	1818.35
528.24	1885
528.446	1853.42
528.651	1972.77
528.857	1984.59
529.062	2016.36
529.268	1965.6
529.473	2033.99
529.679	2043.68
529.884	2098.7
530.09	2017.72
530.295	2050.46
530.501	2072.16
530.706	2074.87
530.912	2034.57
531.117	2094.63
531.323	2057.63
531.528	2170.58
531.733	2155.86
531.939	2133.38
532.144	2151.98
532.35	2124.86
532.555	2144.62
532.76	2118.85
532.966	2115.17
533.171	2100.83
533.376	2054.14
533.581	2064.8
533.787	2096.18
533.992	2127.18
534.197	2186.08
534.402	2124.47
534.607	2211.08
534.813	2246.53
535.018	2165.16
535.223	2208.94
535.428	2233.94
535.633	2245.95
535.838	2282.18
536.043	2264.94
536.249	2373.05
536.454	2277.92
536.659	2311.05
536.864	2290.12
537.069	2249.44
537.274	2264.36
537.479	2232
537.684	2279.66
537.889	2245.56
538.094	2393.59
538.299	2280.05
538.504	2380.22
538.708	2340.11
538.913	2384.67
539.118	2325.58
539.323	2357.55
539.528	2318.8
539.733	2315.12
539.938	2320.93
540.142	2299.62
540.347	2340.89
540.552	2269.2
540.757	2260.29
540.962	2286.25
541.166	2202.55
541.371	2197.9
541.576	2268.62
541.781	2208.56
541.985	2344.76
542.19	2325.39
542.395	2389.52
542.599	2432.33
542.804	2383.51
543.008	2447.64
543.213	2352.9
543.418	2330.04
543.622	2365.69
543.827	2332.36
544.031	2415.29
544.236	2399.79
544.44	2379.44
544.645	2448.42
544.849	2430.2
545.054	2468.95
545.258	2498.02
545.463	2477.28
545.667	2435.05
545.872	2475.73
546.076	2434.08
546.281	2413.54
546.485	2408.7
546.689	2467.4
546.894	2511
547.098	2459.46
547.302	2427.69
547.507	2449.77
547.711	2470.31
547.915	2546.65
548.119	2424.78
548.324	2446.28
548.528	2521.85
548.732	2428.85
548.936	2506.93
549.141	2502.28
549.345	2465.47
549.549	2483.48
549.753	2513.71
549.957	2560.01
550.161	2568.15
550.366	2564.28
550.57	2508.87
550.774	2534.05
550.978	2506.73
551.182	2529.6
551.386	2503.44
551.59	2490.07
551.794	2464.3
551.998	2543.55
552.202	2548.2
552.406	2507.12
552.61	2546.06
552.814	2502.47
553.018	2565.63
553.222	2516.23
553.426	2509.25
553.63	2608.84
553.833	2504.99
554.037	2472.05
554.241	2589.08
554.445	2552.85
554.649	2554.59
554.853	2510.8
555.056	2549.75
555.26	2580.75
555.464	2544.51
555.668	2567.76
555.871	2558.66
556.075	2574.93
556.279	2452.29
556.483	2473.6
556.686	2493.56
556.89	2511.19
557.094	2537.54
557.297	2436.21
557.501	2508.28
557.704	2398.24
557.908	2466.24
558.112	2431.75
558.315	2507.51
558.519	2440.86
558.722	2413.74
558.926	2437.57
559.129	2346.7
559.333	2316.09
559.536	2361.42
559.74	2332.17
559.943	2344.37
560.147	2318.22
560.35	2359.1
560.553	2356.58
560.757	2317.64
560.96	2427.49
561.164	2353.67
561.367	2437.76
561.57	2362.59
561.774	2367.24
561.977	2373.24
562.18	2329.46
562.384	2398.82
562.587	2334.11
562.79	2319.19
562.993	2329.84
563.197	2345.73
563.4	2362
563.603	2392.42
563.806	2391.26
564.009	2304.27
564.212	2337.59
564.416	2256.41
564.619	2298.84
564.822	2242.66
565.025	2349.22
565.228	2276.37
565.431	2268.23
565.634	2186.47
565.837	2221.93
566.04	2200.03
566.243	2225.03
566.446	2084.56
566.649	2217.08
566.852	2092.7
567.055	2166.13
567.258	2176.78
567.461	2223.09
567.664	2247.11
567.867	2132.61
568.07	2188.02
568.273	2174.46
568.475	2193.25
568.678	2141.91
568.881	2102.96
569.084	2084.75
569.287	2012.68
569.489	2029.15
569.692	2090.56
569.895	2049.1
570.098	2011.52
570.3	2020.62
570.503	1954.55
570.706	1957.46
570.909	1970.64
571.111	1905.73
571.314	1907.47
571.516	1926.46
571.719	1946.8
571.922	1900.5
572.124	1942.15
572.327	1957.27
572.529	1870.27
572.732	1894.69
572.935	1957.07
573.137	1984.78
573.34	1863.69
573.542	1930.92
573.745	1895.46
573.947	1932.66
574.15	1890.62
574.352	1867.76
574.554	1932.27
574.757	1836.95
574.959	1823.97
575.162	1833.07
575.364	1803.82
575.566	1903.02
575.769	1806.92
575.971	1829.78
576.173	1745.31
576.376	1810.41
576.578	1819.51
576.78	1846.06
576.982	1718.57
577.185	1774.56
577.387	1740.46
577.589	1764.1
577.791	1752.67
577.993	1804.01
578.196	1754.41
578.398	1781.73
578.6	1780.96
578.802	1659.86
579.004	1687.18
579.206	1683.89
579.408	1735.62
579.61	1722.45
579.812	1794.71
580.014	1727.48
580.216	1724.96
580.418	1770.88
580.62	1696.1
580.822	1663.93
581.024	1759.84
581.226	1795.29
581.428	1716.63
581.63	1810.79
581.832	1714.11
582.034	1821.06
582.236	1713.34
582.438	1786.77
582.64	1821.26
582.841	1793.36
583.043	1831.91
583.245	1789.09
583.447	1796.46
583.649	1737.36
583.85	1753.25
584.052	1790.64
584.254	1716.25
584.456	1770.11
584.657	1703.65
584.859	1742.01
585.061	1731.36
585.262	1708.69
585.464	1684.66
585.666	1736.39
585.867	1680.21
586.069	1724.96
586.27	1705.2
586.472	1691.25
586.674	1649.4
586.875	1648.63
587.077	1654.05
587.278	1681.95
587.48	1626.93
587.681	1763.13
587.883	1693.77
588.084	1625.18
588.285	1624.22
588.487	1595.35
588.688	1624.22
588.89	1510.29
589.091	1529.28
589.292	1463.41
589.494	1443.45
589.695	1430.27
589.896	1385.71
590.098	1348.51
590.299	1421.56
590.5	1374.86
590.702	1465.73
590.903	1451.01
591.104	1531.41
591.305	1498.86
591.507	1571.71
591.708	1538
591.909	1520.95
592.11	1556.02
592.311	1545.94
592.512	1477.35
592.714	1471.15
592.915	1485.3
593.116	1493.63
593.317	1517.46
593.518	1466.51
593.719	1498.47
593.92	1552.14
594.121	1535.48
594.322	1484.33
594.523	1500.41
594.724	1464.57
594.925	1477.94
595.126	1476.97
595.327	1510.49
595.528	1510.1
595.729	1475.42
595.929	1465.34
596.13	1510.1
596.331	1498.47
596.532	1492.47
596.733	1533.54
596.934	1538.19
597.135	1540.32
597.335	1532.38
597.536	1447.71
597.737	1499.05
597.938	1476.97
598.138	1509.9
598.339	1475.42
598.54	1489.56
598.74	1495.95
598.941	1473.87
599.142	1546.14
599.342	1488.98
599.543	1475.03
599.744	1469.61
599.944	1459.72
600.145	1484.14
600.345	1459.53
600.546	1572.87
600.746	1531.22
600.947	1571.71
601.147	1487.04
601.348	1525.79
601.548	1470.77
601.749	1517.85
601.949	1455.27
602.15	1445.58
602.35	1491.89
602.551	1481.23
602.751	1450.04
602.951	1477.35
603.152	1373.7
603.352	1501.19
603.552	1449.65
603.753	1497.31
603.953	1517.07
604.153	1480.45
604.354	1470.77
604.554	1442.87
604.754	1472.51
604.954	1445.77
605.155	1489.75
605.355	1475.8
605.555	1528.5
605.755	1512.04
605.955	1430.08
606.155	1493.24
606.356	1444.61
606.556	1497.31
606.756	1458.95
606.956	1407.02
607.156	1514.17
607.356	1450.23
607.556	1488.2
607.756	1452.36
607.956	1485.49
608.156	1439.96
608.356	1431.82
608.556	1473.48
608.756	1443.64
608.956	1394.43
609.156	1420.39
609.356	1372.34
609.556	1396.56
609.755	1432.79
609.955	1366.53
610.155	1455.27
610.355	1403.92
610.555	1389.97
610.755	1351.61
610.954	1304.92
611.154	1414.58
611.354	1423.69
611.554	1389.01
611.753	1356.07
611.953	1315.77
612.153	1402.57
612.352	1377.58
612.552	1315.38
612.752	1274.89
612.951	1364.4
613.151	1351.03
613.351	1267.33
613.55	1362.08
613.75	1323.71
613.949	1290.97
614.149	1327.98
614.348	1305.5
614.548	1274.7
614.747	1228.58
614.947	1292.91
615.146	1215.8
615.346	1307.24
615.545	1302.59
615.745	1299.3
615.944	1324.1
616.144	1290
616.343	1278.18
616.542	1268.69
616.742	1256.87
616.941	1226.45
617.14	1202.23
617.34	1234.98
617.539	1254.74
617.738	1223.55
617.938	1283.8
