Data from gum_young_FLMT105791__73__17-39-31-043.txt Node

Date: Mon Mar 20 17:39:31 GMT 2023
User: antho
Spectrometer: FLMT10579
Trigger mode: 0
Integration Time (sec): 1.000000E-1
Scans to average: 10
Electric dark correction enabled: true
Nonlinearity correction enabled: false
Boxcar width: 0
XAxis mode: Wavelengths
Number of Pixels in Spectrum: 3648
>>>>>Begin Spectral Data<<<<<
345.248	-168.82
345.464	-168.82
345.681	-168.82
345.898	-164.75
346.114	-139.37
346.331	-15.95
346.548	23.96
346.764	7.88
346.981	-3.55
347.197	-26.22
347.414	-4.52
347.631	-6.07
347.847	53.8
348.064	-22.93
348.28	26.67
348.497	-32.42
348.713	-0.65
348.93	15.05
349.146	12.34
349.363	-18.28
349.579	5.94
349.796	-9.56
350.012	0.13
350.229	20.86
350.445	5.17
350.661	-22.73
350.878	-27.58
351.094	22.99
351.311	11.17
351.527	12.72
351.743	-28.35
351.96	35.39
352.176	27.06
352.392	17.95
352.609	43.14
352.825	-8.4
353.041	-12.27
353.257	22.6
353.474	4.78
353.69	16.6
353.906	-1.42
354.122	-33.97
354.339	37.72
354.555	22.99
354.771	-12.27
354.987	62.9
355.203	46.43
355.42	-11.69
355.636	-19.05
355.852	-3.16
356.068	-1.81
356.284	-21.38
356.5	47.02
356.716	14.47
356.932	-9.36
357.148	-0.26
357.364	23.96
357.58	34.23
357.796	54.96
358.012	22.8
358.228	7.69
358.444	-50.25
358.66	33.65
358.876	29.38
359.092	-30.87
359.308	13.89
359.524	20.47
359.74	-9.75
359.956	5.94
360.172	11.37
360.388	50.5
360.604	8.07
360.819	54.77
361.035	37.13
361.251	28.8
361.467	-17.11
361.683	17.37
361.898	6.91
362.114	43.53
362.33	4
362.546	50.5
362.762	27.45
362.977	2.07
363.193	-19.25
363.409	17.37
363.624	-2.78
363.84	-1.61
364.056	4.2
364.271	4.59
364.487	-4.91
364.703	-14.21
364.918	5.17
365.134	-6.07
365.35	28.42
365.565	92.93
365.781	15.24
365.996	46.24
366.212	79.95
366.427	-6.65
366.643	-1.03
366.858	-21.96
367.074	-32.03
367.289	55.54
367.505	87.7
367.72	-6.26
367.936	9.24
368.151	48.37
368.367	36.55
368.582	21.83
368.798	1.49
369.013	35.97
369.228	12.14
369.444	8.27
369.659	75.3
369.874	19.7
370.09	59.22
370.305	-27.38
370.52	11.17
370.736	58.45
370.951	14.08
371.166	80.73
371.381	54.57
371.597	10.4
371.812	-13.05
372.027	-13.24
372.242	14.27
372.458	64.84
372.673	-7.23
372.888	8.27
373.103	21.05
373.318	96.62
373.533	42.17
373.749	5.94
373.964	-5.88
374.179	74.53
374.394	-18.86
374.609	78.79
374.824	-10.33
375.039	46.43
375.254	-14.79
375.469	83.25
375.684	33.26
375.899	47.02
376.114	16.6
376.329	17.95
376.544	39.85
376.759	15.82
376.974	-4.33
377.189	8.85
377.404	17.95
377.619	35
377.834	-26.41
378.049	-0.45
378.264	-4.91
378.478	34.81
378.693	5.55
378.908	49.73
379.123	-6.26
379.338	56.32
379.553	8.46
379.767	38.49
379.982	39.65
380.197	36.55
380.412	25.9
380.626	73.75
380.841	88.28
381.056	60.97
381.271	84.99
381.485	-2.39
381.7	-3.75
381.915	39.85
382.129	-8.4
382.344	15.63
382.559	3.81
382.773	60.19
382.988	-10.53
383.202	23.19
383.417	7.88
383.632	113.08
383.846	2.65
384.061	17.37
384.275	19.12
384.49	51.67
384.704	47.98
384.919	52.44
385.133	32.68
385.348	35.58
385.562	-4.91
385.777	73.75
385.991	32.48
386.206	6.91
386.42	20.09
386.634	57.87
386.849	35.39
387.063	64.26
387.277	10.4
387.492	20.86
387.706	5.94
387.92	-14.79
388.135	28.61
388.349	44.5
388.563	49.53
388.778	46.63
388.992	48.95
389.206	32.29
389.42	93.71
389.635	16.6
389.849	42.95
390.063	67.36
390.277	35.58
390.491	92.55
390.706	52.63
390.92	79.57
391.134	31.13
391.348	78.79
391.562	-4.13
391.776	39.46
391.99	7.88
392.205	43.53
392.419	5.17
392.633	30.16
392.847	88.67
393.061	9.43
393.275	75.11
393.489	32.29
393.703	44.3
393.917	70.27
394.131	22.99
394.345	38.49
394.559	61.74
394.773	21.64
394.986	36.75
395.2	65.81
395.414	42.17
395.628	9.82
395.842	40.82
396.056	52.44
396.27	-3.16
396.484	51.67
396.697	41.01
396.911	85.96
397.125	44.3
397.339	70.65
397.553	54.38
397.766	95.26
397.98	78.6
398.194	74.14
398.408	37.13
398.621	78.02
398.835	73.95
399.049	75.5
399.262	90.22
399.476	71.04
399.69	83.05
399.903	118.7
400.117	55.73
400.331	96.62
400.544	36.94
400.758	171.79
400.971	67.94
401.185	113.47
401.398	33.84
401.612	108.05
401.826	99.13
402.039	103.2
402.253	76.08
402.466	96.23
402.68	71.43
402.893	73.56
403.106	66.2
403.32	90.03
403.533	103.98
403.747	66.97
403.96	80.73
404.174	103.2
404.387	48.18
404.6	72.59
404.814	84.22
405.027	71.23
405.24	81.7
405.454	69.88
405.667	99.91
405.88	6.33
406.094	78.6
406.307	132.26
406.52	97.58
406.733	64.65
406.947	16.4
407.16	118.7
407.373	106.5
407.586	55.54
407.799	45.47
408.012	106.11
408.226	67.17
408.439	130.13
408.652	44.88
408.865	99.91
409.078	129.94
409.291	90.61
409.504	57.67
409.717	89.64
409.93	91.58
410.143	63.48
410.357	35.2
410.57	48.57
410.783	89.25
410.996	100.1
411.209	67.55
411.421	123.16
411.634	76.66
411.847	74.92
412.06	111.92
412.273	113.86
412.486	94.1
412.699	169.66
412.912	107.66
413.125	152.03
413.338	72.78
413.55	115.6
413.763	102.82
413.976	125.48
414.189	62.32
414.402	71.62
414.615	134.59
414.827	58.06
415.04	109.4
415.253	112.31
415.466	140.4
415.678	166.75
415.891	120.06
416.104	93.52
416.316	97.39
416.529	103.78
416.742	109.21
416.954	143.7
417.167	112.5
417.38	103.4
417.592	130.52
417.805	99.72
418.017	47.98
418.23	143.5
418.442	94.1
418.655	99.91
418.868	113.28
419.08	120.25
419.293	160.16
419.505	116.96
419.718	95.84
419.93	150.48
420.142	108.24
420.355	144.86
420.567	166.17
420.78	145.25
420.992	111.15
421.205	149.9
421.417	96.62
421.629	115.6
421.842	97
422.054	99.52
422.266	130.13
422.479	157.65
422.691	109.6
422.903	156.29
423.115	113.28
423.328	100.3
423.54	139.05
423.752	133.81
423.964	86.54
424.177	134.98
424.389	109.6
424.601	194.07
424.813	128.39
425.025	143.89
425.238	156.29
425.45	119.86
425.662	114.25
425.874	392.85
426.086	121.8
426.298	156.29
426.51	128.39
426.722	132.65
426.934	109.79
427.146	160.55
427.358	121.22
427.57	164.81
427.782	146.6
427.994	150.67
428.206	108.63
428.418	77.43
428.63	139.63
428.842	170.63
429.054	145.44
429.266	148.54
429.478	101.85
429.69	129.55
429.902	96.62
430.114	113.47
430.325	154.35
430.537	105.14
430.749	104.17
430.961	64.07
431.173	125.29
431.384	130.52
431.596	66.58
431.808	119.67
432.02	138.08
432.231	164.62
432.443	177.8
432.655	154.55
432.867	123.93
433.078	161.71
433.29	210.54
433.502	187.87
433.713	165.98
433.925	154.55
434.136	208.6
434.348	120.83
434.56	85.57
434.771	231.27
434.983	132.85
435.194	111.53
435.406	164.62
435.617	206.47
435.829	211.51
436.04	184
436.252	195.43
436.463	201.24
436.675	206.28
436.886	181.67
437.098	175.08
437.309	212.86
437.521	154.55
437.732	217.9
437.943	182.64
438.155	173.53
438.366	136.33
438.578	227.2
438.789	171.79
439	195.81
439.211	166.17
439.423	198.53
439.634	198.72
439.845	193.3
440.057	210.34
440.268	209.57
440.479	149.9
440.69	200.66
440.902	186.13
441.113	170.24
441.324	181.48
441.535	222.94
441.746	241.93
441.957	155.32
442.168	202.98
442.38	203.18
442.591	214.22
442.802	184.77
443.013	174.11
443.224	196.78
443.435	192.71
443.646	196.2
443.857	199.69
444.068	191.75
444.279	195.81
444.49	261.88
444.701	218.68
444.912	307.22
445.123	235.53
445.334	230.11
445.545	217.9
445.756	224.88
445.967	186.51
446.178	229.33
446.388	241.34
446.599	253.94
446.81	253.16
447.021	204.92
447.232	255.29
447.443	273.89
447.653	199.11
447.864	269.24
448.075	240.38
448.286	264.21
448.496	227.59
448.707	265.56
448.918	242.51
449.129	337.64
449.339	209.76
449.55	262.08
449.761	227.78
449.971	291.52
450.182	219.84
450.393	278.74
450.603	229.14
450.814	318.26
451.024	305.09
451.235	278.54
451.446	308.57
451.656	305.67
451.867	228.75
452.077	241.93
452.288	316.13
452.498	325.04
452.709	250.84
452.919	268.08
453.13	261.69
453.34	283.97
453.55	234.76
453.761	313.81
453.971	282.03
454.182	311.67
454.392	287.65
454.602	337.44
454.813	294.04
455.023	307.02
455.233	239.41
455.444	288.62
455.654	213.83
455.864	278.35
456.075	247.16
456.285	253.94
456.495	282.61
456.705	282.03
456.916	322.33
457.126	317.87
457.336	252.58
457.546	252.19
457.756	247.74
457.967	328.72
458.177	287.07
458.387	260.14
458.597	279.71
458.807	286.88
459.017	275.25
459.227	275.06
459.437	287.65
459.647	313.81
459.857	331.63
460.068	266.14
460.278	347.71
460.488	318.65
460.698	338.61
460.908	306.25
461.117	267.69
461.327	256.46
461.537	310.9
461.747	319.62
461.957	317.29
462.167	406.03
462.377	342.87
462.587	306.25
462.797	341.71
463.007	329.69
463.216	331.82
463.426	363.99
463.636	344.42
463.846	271.18
464.056	294.82
464.265	343.84
464.475	273.89
464.685	322.14
464.895	334.54
465.104	313.61
465.314	364.96
465.524	317.68
465.733	297.72
465.943	392.47
466.153	371.54
466.362	354.49
466.572	328.14
466.782	313.22
466.991	316.52
467.201	360.5
467.41	294.82
467.62	338.99
467.829	338.61
468.039	367.09
468.249	347.13
468.458	344.22
468.668	345.77
468.877	370.57
469.086	388.59
469.296	394.6
469.505	328.92
469.715	397.31
469.924	352.75
470.134	384.14
470.343	393.63
470.552	357.98
470.762	381.23
470.971	321.36
471.18	392.08
471.39	359.72
471.599	332.79
471.808	386.07
472.018	324.85
472.227	439.35
472.436	408.55
472.645	381.42
472.855	356.43
473.064	429.86
473.273	400.99
473.482	435.67
473.691	446.52
473.901	428.12
474.11	385.69
474.319	503.48
474.528	406.8
474.737	474.81
474.946	404.67
475.155	429.47
475.364	477.52
475.573	438.39
475.783	461.83
475.992	434.12
476.201	481.01
476.41	412.81
476.619	384.33
476.828	435.09
477.037	436.25
477.245	431.6
477.454	505.23
477.663	423.85
477.872	442.26
478.081	510.46
478.29	426.18
478.499	531.97
478.708	475
478.917	534.29
479.125	477.72
479.334	479.27
479.543	437.03
479.752	489.15
479.961	487.79
480.169	509.88
480.378	491.86
480.587	602.49
480.796	546.3
481.004	541.07
481.213	556.96
481.422	515.5
481.63	511.62
481.839	539.72
482.048	603.26
482.256	520.34
482.465	582.15
482.674	542.23
482.882	578.46
483.091	627.48
483.299	579.82
483.508	601.71
483.716	547.85
483.925	577.69
484.134	509.49
484.342	541.07
484.551	576.91
484.759	581.95
484.967	597.06
485.176	601.71
485.384	604.43
485.593	631.55
485.801	602.68
486.01	573.62
486.218	576.14
486.426	513.95
486.635	537.58
486.843	545.72
487.051	567.42
487.26	547.27
487.468	594.35
487.676	621.09
487.885	599
488.093	592.8
488.301	623.61
488.509	621.28
488.717	649.38
488.926	612.37
489.134	583.11
489.342	646.28
489.55	605.01
489.758	650.54
489.967	604.43
490.175	688.13
490.383	642.98
490.591	713.12
490.799	617.6
491.007	716.03
491.215	676.89
491.423	659.64
491.631	655.19
491.839	675.73
492.047	704.59
492.255	654.22
492.463	613.53
492.671	636.59
492.879	716.61
493.087	655.77
493.295	683.86
493.503	712.15
493.711	722.42
493.919	734.62
494.127	712.54
494.334	742.37
494.542	682.7
494.75	750.71
494.958	689.48
495.166	763.11
495.374	730.36
495.581	740.24
495.789	760.01
495.997	792.94
496.205	766.79
496.412	741.21
496.62	744.7
496.828	808.44
497.035	760.01
497.243	796.82
497.451	772.99
497.658	766.79
497.866	768.72
498.074	843.7
498.281	734.24
498.489	857.85
498.696	806.7
498.904	777.44
499.112	783.06
499.319	871.99
499.527	806.89
499.734	828.59
499.942	754.19
500.149	777.25
500.357	811.35
500.564	808.83
500.771	825.1
500.979	771.24
501.186	762.33
501.394	787.91
501.601	789.07
501.808	856.88
502.016	820.07
502.223	830.53
502.43	828.98
502.638	816.58
502.845	822.2
503.052	862.5
503.26	826.65
503.467	921.59
503.674	864.05
503.881	848.74
504.089	950.85
504.296	915
504.503	819.87
504.71	893.3
504.917	842.93
505.125	881.87
505.332	915.78
505.539	889.43
505.746	973.71
505.953	973.32
506.16	948.13
506.367	1027.96
506.574	1003.16
506.781	1034.16
506.988	962.47
507.195	988.82
507.402	997.93
507.609	1037.84
507.816	941.16
508.023	969.64
508.23	1000.45
508.437	946.58
508.644	1021.18
508.851	1052.56
509.058	1071.55
509.265	1025.05
509.472	1052.76
509.679	1163.97
509.885	1057.02
510.092	1080.66
510.299	1107.01
510.506	1082.79
510.713	1128.9
510.92	1103.52
511.126	1118.24
511.333	1151.96
511.54	1155.44
511.746	1200.39
511.953	1204.85
512.16	1167.65
512.367	1159.71
512.573	1170.17
512.78	1177.34
512.987	1191.09
513.193	1182.18
513.4	1139.36
513.606	1173.07
513.813	1234.11
514.02	1221.9
514.226	1255.22
514.433	1258.32
514.639	1189.16
514.846	1208.92
515.052	1225
515.259	1228.1
515.465	1279.44
515.672	1277.31
515.878	1335.44
516.085	1295.72
516.291	1346.87
516.497	1293.97
516.704	1297.46
516.91	1261.62
517.117	1206.4
517.323	1167.07
517.529	1201.56
517.736	1188.77
517.942	1236.43
518.148	1266.46
518.354	1285.25
518.561	1289.13
518.767	1305.02
518.973	1355.58
519.179	1388.52
519.386	1349.77
519.592	1346.87
519.798	1397.82
520.004	1439.48
520.21	1450.33
520.417	1479.78
520.623	1529.38
520.829	1534.99
521.035	1531.7
521.241	1531.12
521.447	1574.33
521.653	1674.3
521.859	1578.78
522.065	1598.74
522.271	1698.13
522.477	1684.76
522.683	1697.35
522.889	1659.57
523.095	1648.72
523.301	1665.19
523.507	1602.03
523.713	1689.22
523.919	1647.76
524.125	1776.79
524.331	1752.19
524.537	1848.09
524.742	1801.78
524.948	1828.72
525.154	1805.27
525.36	1893.43
525.566	1843.25
525.772	1910.48
525.977	1816.7
526.183	1845.57
526.389	1890.52
526.595	1792.1
526.8	1813.99
527.006	1728.74
527.212	1693.48
527.417	1729.52
527.623	1695.22
527.829	1823.87
528.034	1832.98
528.24	1861.27
528.446	1863.01
528.651	1937.41
528.857	1939.15
529.062	1997.86
529.268	1979.45
529.473	2017.81
529.679	2007.35
529.884	2076.71
530.09	2046.49
530.295	2057.72
530.501	2061.41
530.706	2056.76
530.912	2028.28
531.117	2100.35
531.323	2091.44
531.528	2146.07
531.733	2154.6
531.939	2100.54
532.144	2120.89
532.35	2142.97
532.555	2171.84
532.76	2140.26
532.966	2132.32
533.171	2065.09
533.376	2062.96
533.581	2056.76
533.787	2084.85
533.992	2135.8
534.197	2130.19
534.402	2141.23
534.607	2156.34
534.813	2237.72
535.018	2136
535.223	2206.52
535.428	2225.32
535.633	2227.06
535.838	2299.91
536.043	2277.63
536.249	2341.18
536.454	2276.66
536.659	2299.33
536.864	2263.68
537.069	2269.1
537.274	2247.79
537.479	2304.95
537.684	2285.57
537.889	2202.26
538.094	2379.54
538.299	2266.39
538.504	2348.15
538.708	2317.35
538.913	2359.97
539.118	2314.83
539.323	2353.38
539.528	2273.17
539.733	2305.72
539.938	2315.21
540.142	2329.16
540.347	2309.79
540.552	2279.18
540.757	2285.96
540.962	2286.15
541.166	2217.18
541.371	2231.13
541.576	2283.25
541.781	2203.62
541.985	2327.81
542.19	2303.78
542.395	2421.97
542.599	2413.44
542.804	2339.82
543.008	2407.24
543.213	2356.87
543.418	2302.23
543.622	2407.83
543.827	2328
544.031	2433.4
544.236	2430.11
544.44	2439.02
544.645	2503.73
544.849	2379.73
545.054	2445.8
545.258	2509.93
545.463	2442.31
545.667	2432.63
545.872	2463.82
546.076	2425.07
546.281	2501.99
546.485	2394.07
546.689	2468.28
546.894	2468.86
547.098	2479.9
547.302	2405.5
547.507	2450.84
547.711	2487.26
547.915	2493.07
548.119	2466.14
548.324	2436.31
548.528	2517.68
548.732	2459.94
548.936	2489.78
549.141	2512.26
549.345	2495.01
549.549	2502.18
549.753	2539.57
549.957	2570.77
550.161	2572.12
550.366	2546.16
550.57	2501.41
550.774	2522.52
550.978	2510.51
551.182	2571.15
551.386	2524.27
551.59	2543.26
551.794	2484.55
551.998	2551.78
552.202	2477.96
552.406	2471.38
552.61	2564.57
552.814	2544.03
553.018	2583.55
553.222	2484.16
553.426	2528.72
553.63	2630.25
553.833	2541.32
554.037	2460.91
554.241	2565.34
554.445	2533.57
554.649	2541.32
554.853	2526.01
555.056	2555.07
555.26	2586.46
555.464	2552.36
555.668	2568.64
555.871	2595.18
556.075	2561.86
556.279	2522.72
556.483	2478.74
556.686	2525.04
556.89	2534.15
557.094	2543.84
557.297	2419.26
557.501	2517.29
557.704	2412.28
557.908	2482.81
558.112	2395.23
558.315	2544.03
558.519	2453.16
558.722	2442.89
558.926	2428.75
559.129	2357.26
559.333	2381.28
559.536	2349.9
559.74	2353.38
559.943	2340.01
560.147	2323.35
560.35	2309.6
560.553	2376.63
560.757	2322.38
560.96	2434.37
561.164	2389.61
561.367	2444.44
561.57	2352.03
561.774	2427.59
561.977	2356.48
562.18	2342.53
562.384	2426.81
562.587	2345.44
562.79	2358.23
562.993	2325.48
563.197	2362.49
563.4	2414.99
563.603	2360.36
563.806	2404.73
564.009	2328.58
564.212	2355.51
564.416	2277.05
564.619	2310.76
564.822	2241.98
565.025	2330.52
565.228	2247.6
565.431	2298.17
565.634	2181.34
565.837	2200.9
566.04	2219.7
566.243	2153.24
566.446	2156.73
566.649	2228.61
566.852	2133.48
567.055	2130.19
567.258	2208.07
567.461	2249.92
567.664	2259.03
567.867	2102.29
568.07	2141.62
568.273	2179.59
568.475	2207.49
568.678	2128.64
568.881	2099.57
569.084	2083.88
569.287	2021.11
569.489	2053.27
569.692	2068.38
569.895	2066.06
570.098	1995.53
570.3	2024.79
570.503	1954.26
570.706	1993.4
570.909	1960.27
571.111	1904.47
571.314	1907.18
571.516	1912.03
571.719	1933.53
571.922	1900.01
572.124	1943.41
572.327	1968.02
572.529	1899.63
572.732	1933.53
572.935	1936.44
573.137	1981.78
573.34	1890.33
573.542	1947.48
573.745	1931.4
573.947	1934.5
574.15	1905.25
574.352	1847.9
574.554	1945.55
574.757	1839.95
574.959	1859.33
575.162	1851.19
575.364	1853.9
575.566	1934.11
575.769	1782.22
575.971	1812.44
576.173	1720.02
576.376	1808.18
576.578	1837.82
576.78	1891.68
576.982	1728.16
577.185	1786.48
577.387	1735.72
577.589	1762.26
577.791	1809.73
577.993	1796.94
578.196	1745.6
578.398	1771.17
578.6	1773.89
578.802	1733.78
579.004	1695.8
579.206	1690.77
579.408	1771.75
579.61	1710.53
579.812	1750.25
580.014	1716.54
580.216	1736.3
580.418	1730.1
580.62	1705.49
580.822	1682.82
581.024	1740.37
581.226	1731.65
581.428	1696.97
581.63	1828.33
581.832	1704.33
582.034	1784.35
582.236	1740.95
582.438	1780.86
582.64	1785.12
582.841	1807.4
583.043	1837.24
583.245	1780.67
583.447	1763.62
583.649	1767.49
583.85	1769.24
584.052	1820.77
584.254	1717.12
584.456	1796.17
584.657	1694.64
584.859	1768.46
585.061	1731.45
585.262	1723.12
585.464	1672.56
585.666	1707.04
585.867	1674.88
586.069	1751.8
586.27	1664.42
586.472	1698.52
586.674	1649.69
586.875	1672.94
587.077	1698.32
587.278	1686.89
587.48	1655.51
587.681	1745.4
587.883	1694.45
588.084	1601.45
588.285	1636.13
588.487	1571.81
588.688	1664.61
588.89	1557.86
589.091	1496.63
589.292	1520.27
589.494	1476.29
589.695	1421.46
589.896	1399.37
590.098	1368.95
590.299	1467.57
590.5	1418.36
590.702	1456.91
590.903	1474.74
591.104	1530.73
591.305	1499.54
591.507	1555.92
591.708	1504.96
591.909	1499.15
592.11	1557.08
592.311	1538.09
592.512	1495.47
592.714	1472.41
592.915	1491.98
593.116	1500.31
593.317	1529.38
593.518	1489.85
593.719	1464.08
593.92	1531.89
594.121	1542.55
594.322	1513.49
594.523	1517.36
594.724	1446.06
594.925	1466.99
595.126	1478.23
595.327	1495.47
595.528	1485.59
595.729	1486.75
595.929	1469.12
596.13	1471.06
596.331	1509.23
596.532	1499.15
596.733	1542.36
596.934	1534.99
597.135	1538.48
597.335	1537.51
597.536	1515.62
597.737	1479.78
597.938	1489.27
598.138	1526.86
598.339	1497.02
598.54	1509.61
598.74	1486.17
598.941	1477.65
599.142	1562.31
599.342	1526.28
599.543	1496.83
599.744	1499.73
599.944	1492.18
600.145	1518.53
600.345	1478.61
600.546	1560.96
600.746	1508.06
600.947	1573.74
601.147	1478.23
601.348	1524.53
601.548	1461.37
601.749	1487.33
601.949	1412.74
602.15	1477.26
602.35	1467.96
602.551	1525.89
602.751	1454.4
602.951	1464.08
603.152	1443.35
603.352	1496.83
603.552	1487.91
603.753	1550.49
603.953	1507.87
604.153	1503.61
604.354	1477.06
604.554	1501.09
604.754	1470.28
604.954	1451.68
605.155	1513.88
605.355	1498.18
605.555	1500.12
605.755	1532.67
605.955	1470.09
606.155	1505.55
606.356	1481.52
606.556	1494.89
606.756	1480.94
606.956	1426.3
607.156	1492.18
607.356	1432.5
607.556	1451.49
607.756	1462.15
607.956	1486.17
608.156	1471.06
608.356	1404.02
608.556	1448.58
608.756	1408.28
608.956	1417.97
609.156	1451.49
609.356	1399.37
609.556	1375.54
609.755	1446.45
609.955	1358.1
610.155	1416.03
610.355	1430.37
610.555	1380.19
610.755	1374.77
610.954	1324
611.154	1397.43
611.354	1412.16
611.554	1338.34
611.753	1402.67
611.953	1328.65
612.153	1376.9
612.352	1373.02
612.552	1309.09
612.752	1285.64
612.951	1349.97
613.151	1330.59
613.351	1299.98
613.55	1321.49
613.75	1343.38
613.949	1307.15
614.149	1319.74
614.348	1306.37
614.548	1293.2
614.747	1244.76
614.947	1286.8
615.146	1225
615.346	1315.29
615.545	1300.95
615.745	1288.55
615.944	1326.33
616.144	1288.55
616.343	1288.16
616.542	1240.11
616.742	1265.3
616.941	1273.44
617.14	1192.06
617.34	1228.1
617.539	1220.74
617.738	1232.17
617.938	1304.44
618.137	1275.95
