Data from gum_young_FLMT105791__147__17-41-15-039.txt Node

Date: Mon Mar 20 17:41:15 GMT 2023
User: antho
Spectrometer: FLMT10579
Trigger mode: 0
Integration Time (sec): 1.000000E-1
Scans to average: 10
Electric dark correction enabled: true
Nonlinearity correction enabled: false
Boxcar width: 0
XAxis mode: Wavelengths
Number of Pixels in Spectrum: 3648
>>>>>Begin Spectral Data<<<<<
345.248	-131.12
345.464	-131.12
345.681	-131.12
345.898	-151.85
346.114	-162.51
346.331	-43.93
346.548	39.77
346.764	2.57
346.981	7.02
347.197	-15.26
347.414	25.62
347.631	-31.92
347.847	39.96
348.064	-0.73
348.28	33.95
348.497	-53.04
348.713	-4.02
348.93	19.81
349.146	3.92
349.363	11.29
349.579	-19.91
349.796	-5.96
350.012	34.54
350.229	46.16
350.445	-2.28
350.661	-27.66
350.878	18.07
351.094	33.18
351.311	36.47
351.527	33.57
351.743	1.6
351.96	35.89
352.176	49.26
352.392	31.44
352.609	36.47
352.825	21.17
353.041	42.09
353.257	-9.06
353.474	27.95
353.69	37.25
353.906	18.07
354.122	-31.34
354.339	38.8
354.555	8.96
354.771	9.93
354.987	59.72
355.203	64.76
355.42	-21.26
355.636	10.51
355.852	3.15
356.068	9.35
356.284	-28.04
356.5	64.37
356.716	23.69
356.932	19.81
357.148	49.07
357.364	15.55
357.58	35.31
357.796	62.82
358.012	46.94
358.228	38.8
358.444	-42.19
358.66	51
358.876	3.73
359.092	-8.28
359.308	2.37
359.524	24.46
359.74	7.99
359.956	23.1
360.172	28.34
360.388	37.44
360.604	-36.18
360.819	96.73
361.035	47.32
361.251	47.13
361.467	-18.75
361.683	46.16
361.898	22.14
362.114	45.97
362.33	18.45
362.546	56.24
362.762	25.43
362.977	13.8
363.193	-17.97
363.409	45.39
363.624	-17
363.84	-29.01
364.056	-13.13
364.271	43.84
364.487	16.52
364.703	3.92
364.918	4.89
365.134	1.4
365.35	20.39
365.565	120.56
365.781	18.65
365.996	49.45
366.212	82
366.427	34.34
366.643	4.7
366.858	9.15
367.074	15.16
367.289	70.38
367.505	105.64
367.72	-17.97
367.936	18.65
368.151	71.35
368.367	43.84
368.582	40.35
368.798	1.79
369.013	47.13
369.228	36.09
369.444	27.75
369.659	74.06
369.874	50.62
370.09	79.1
370.305	-17
370.52	3.54
370.736	81.23
370.951	8.57
371.166	40.74
371.381	93.82
371.597	45.19
371.812	-12.35
372.027	-0.34
372.242	52.94
372.458	87.62
372.673	0.05
372.888	51.97
373.103	45.77
373.318	104.48
373.533	54.69
373.749	50.42
373.964	-16.81
374.179	52.17
374.394	-11.96
374.609	62.05
374.824	-3.44
375.039	81.23
375.254	19.04
375.469	65.53
375.684	69.22
375.899	71.15
376.114	37.64
376.329	29.5
376.544	61.08
376.759	38.6
376.974	-1.31
377.189	29.3
377.404	8.77
377.619	76.38
377.834	-5.18
378.049	-13.13
378.264	3.73
378.478	31.63
378.693	2.18
378.908	60.89
379.123	9.54
379.338	48.49
379.553	39.96
379.767	42.29
379.982	60.69
380.197	60.3
380.412	22.72
380.626	52.36
380.841	109.52
381.056	42.67
381.271	68.05
381.485	2.37
381.7	3.54
381.915	63.79
382.129	16.52
382.344	72.12
382.559	27.75
382.773	49.26
382.988	3.15
383.202	68.05
383.417	-13.9
383.632	98.08
383.846	47.13
384.061	20.2
384.275	20.39
384.49	46.16
384.704	63.99
384.919	37.64
385.133	25.24
385.348	61.66
385.562	20.39
385.777	67.47
385.991	38.02
386.206	32.21
386.42	18.07
386.634	78.9
386.849	53.14
387.063	43.64
387.277	28.14
387.492	28.72
387.706	10.7
387.92	45.58
388.135	76.58
388.349	67.67
388.563	60.3
388.778	37.44
388.992	56.24
389.206	45.77
389.42	114.94
389.635	55.46
389.849	65.73
390.063	69.99
390.277	40.35
390.491	109.13
390.706	68.83
390.92	92.66
391.134	54.69
391.348	99.63
391.562	4.12
391.776	45.58
391.99	25.04
392.205	87.04
392.419	21.55
392.633	52.94
392.847	108.93
393.061	18.84
393.275	115.72
393.489	30.85
393.703	44.22
393.917	78.71
394.131	25.04
394.345	69.99
394.559	79.87
394.773	56.43
394.986	75.03
395.2	53.33
395.414	88.59
395.628	38.6
395.842	73.67
396.056	69.02
396.27	17.1
396.484	69.02
396.697	60.5
396.911	94.4
397.125	56.82
397.339	105.25
397.553	41.51
397.766	102.15
397.98	95.95
398.194	93.82
398.408	70.96
398.621	96.92
398.835	109.9
399.049	76
399.262	129.67
399.476	117.65
399.69	112.62
399.903	158.53
400.117	77.74
400.331	104.48
400.544	50.42
400.758	174.03
400.971	117.85
401.185	124.24
401.398	82.78
401.612	127.92
401.826	102.73
402.039	96.53
402.253	100.02
402.466	140.52
402.68	77.74
402.893	107.58
403.106	106.22
403.32	94.6
403.533	105.45
403.747	100.99
403.96	134.12
404.174	134.7
404.387	78.71
404.6	96.53
404.814	149.04
405.027	133.93
405.24	126.57
405.454	98.08
405.667	153.11
405.88	74.45
406.094	112.42
406.307	138.19
406.52	112.42
406.733	80.65
406.947	53.33
407.16	172.1
407.373	149.62
407.586	113.58
407.799	80.65
408.012	130.25
408.226	109.71
408.439	165.9
408.652	72.7
408.865	127.15
409.078	157.76
409.291	135.48
409.504	97.5
409.717	150.01
409.93	120.95
410.143	112.81
410.357	71.73
410.57	87.62
410.783	107.19
410.996	109.71
411.209	141.68
411.421	182.36
411.634	128.12
411.847	111.07
412.06	131.99
412.273	130.63
412.486	132.38
412.699	245.53
412.912	156.79
413.125	152.91
413.338	131.41
413.55	164.54
413.763	140.52
413.976	138.97
414.189	127.92
414.402	132.77
414.615	194.18
414.827	93.43
415.04	207.16
415.253	182.75
415.466	181.78
415.678	248.63
415.891	143.03
416.104	159.11
416.316	166.28
416.529	142.45
416.742	189.34
416.954	183.72
417.167	140.13
417.38	144.39
417.592	181.4
417.805	123.85
418.017	111.26
418.23	206
418.442	152.14
418.655	144.2
418.868	177.52
419.08	188.18
419.293	206.58
419.505	201.74
419.718	193.6
419.93	200
420.142	168.03
420.355	201.35
420.567	203.87
420.78	179.46
420.992	181.78
421.205	223.63
421.417	138.58
421.629	165.31
421.842	122.69
422.054	137.8
422.266	199.41
422.479	216.85
422.691	138.38
422.903	217.82
423.115	166.48
423.328	163.38
423.54	183.33
423.752	180.04
423.964	139.74
424.177	193.41
424.389	179.65
424.601	290.09
424.813	218.01
425.025	204.06
425.238	206
425.45	167.45
425.662	158.53
425.874	466.79
426.086	200
426.298	206.2
426.51	219.37
426.722	190.11
426.934	199.8
427.146	196.31
427.358	152.33
427.57	222.86
427.782	185.46
427.994	180.23
428.206	173.84
428.418	147.1
428.63	211.81
428.842	245.14
429.054	193.21
429.266	223.83
429.478	188.37
429.69	176.16
429.902	150.98
430.114	205.81
430.325	196.9
430.537	178.1
430.749	165.31
430.961	131.6
431.173	145.36
431.384	195.35
431.596	96.53
431.808	160.47
432.02	213.17
432.231	239.13
432.443	268
432.655	218.01
432.867	181.78
433.078	237.78
433.29	253.86
433.502	279.63
433.713	207.94
433.925	234.29
434.136	270.52
434.348	170.74
434.56	169.58
434.771	302.88
434.983	199.61
435.194	199.8
435.406	219.37
435.617	256.96
435.829	273.62
436.04	260.06
436.252	258.89
436.463	297.06
436.675	289.7
436.886	255.6
437.098	273.23
437.309	304.23
437.521	256.76
437.732	253.28
437.943	243.78
438.155	256.57
438.366	225.76
438.578	319.73
438.789	278.66
439	269.55
439.211	244.36
439.423	250.37
439.634	272.07
439.845	265.29
440.057	263.54
440.268	290.86
440.479	248.82
440.69	274.59
440.902	239.71
441.113	228.67
441.324	264.32
441.535	321.28
441.746	329.42
441.957	267.81
442.168	277.3
442.38	307.33
442.591	328.45
442.802	261.22
443.013	265.68
443.224	297.45
443.435	290.09
443.646	303.26
443.857	286.79
444.068	272.65
444.279	264.71
444.49	371.46
444.701	294.74
444.912	419.7
445.123	341.43
445.334	337.17
445.545	309.46
445.756	302.88
445.967	294.16
446.178	301.91
446.388	340.85
446.599	316.83
446.81	368.56
447.021	295.13
447.232	349.57
447.443	381.34
447.653	315.86
447.864	364.1
448.075	319.34
448.286	384.64
448.496	358.09
448.707	366.04
448.918	308.49
449.129	431.72
449.339	312.18
449.55	336.59
449.761	352.28
449.971	400.33
450.182	328.26
450.393	374.37
450.603	357.51
450.814	401.11
451.024	384.25
451.235	394.52
451.446	417.96
451.656	438.89
451.867	362.74
452.077	381.92
452.288	405.37
452.498	412.34
452.709	359.84
452.919	391.81
453.13	347.24
453.34	420.87
453.55	322.44
453.761	410.6
453.971	355.96
454.182	379.41
454.392	385.41
454.602	464.27
454.813	406.14
455.023	427.65
455.233	344.92
455.444	410.21
455.654	329.81
455.864	385.61
456.075	387.54
456.285	376.11
456.495	412.54
456.705	401.69
456.916	410.02
457.126	462.52
457.336	414.09
457.546	351.31
457.756	376.89
457.967	443.34
458.177	381.15
458.387	418.54
458.597	373.59
458.807	395.87
459.017	399.36
459.227	411.57
459.437	408.66
459.647	453.61
459.857	403.24
460.068	399.17
460.278	469.3
460.488	443.54
460.698	482.48
460.908	415.83
461.117	385.22
461.327	385.61
461.537	435.98
461.747	459.81
461.957	432.3
462.167	544.87
462.377	483.84
462.587	449.54
462.797	467.95
463.007	452.25
463.216	476.86
463.426	490.42
463.636	486.35
463.846	423.77
464.056	453.61
464.265	465.24
464.475	440.24
464.685	463.49
464.895	458.84
465.104	452.84
465.314	504.76
465.524	454
465.733	463.1
465.943	533.43
466.153	499.72
466.362	499.14
466.572	469.3
466.782	454.39
466.991	473.37
467.201	511.54
467.41	411.18
467.62	491.78
467.829	473.57
468.039	504.76
468.249	469.11
468.458	491.97
468.668	495.46
468.877	512.32
469.086	558.82
469.296	516.97
469.505	468.92
469.715	541.38
469.924	529.37
470.134	537.5
470.343	544.09
470.552	499.72
470.762	484.22
470.971	497.4
471.18	518.52
471.39	530.72
471.599	492.17
471.808	574.12
472.018	496.82
472.227	582.07
472.436	583.42
472.645	516.19
472.855	536.73
473.064	602.6
473.273	578
473.482	563.85
473.691	585.17
473.901	594.46
474.11	562.11
474.319	636.9
474.528	554.75
474.737	634.18
474.946	605.12
475.155	581.29
475.364	618.49
475.573	605.7
475.783	609.58
475.992	631.08
476.201	635.93
476.41	608.03
476.619	571.99
476.828	620.23
477.037	574.9
477.245	618.3
477.454	674.48
477.663	601.05
477.872	646
478.081	715.94
478.29	658.21
478.499	732.8
478.708	663.05
478.917	730.48
479.125	666.54
479.334	700.83
479.543	670.22
479.752	706.45
479.961	722.73
480.169	704.51
480.378	701.99
480.587	815.72
480.796	741.13
481.004	700.06
481.213	734.74
481.422	768.45
481.63	724.66
481.839	761.86
482.048	815.14
482.256	742.49
482.465	780.46
482.674	801.58
482.882	807.97
483.091	841.49
483.299	782.79
483.508	844.01
483.716	823.67
483.925	826.19
484.134	783.56
484.342	780.66
484.551	832.77
484.759	846.34
484.967	845.56
485.176	861.25
485.384	861.06
485.593	868.23
485.801	849.24
486.01	822.31
486.218	775.81
486.426	726.79
486.635	749.46
486.843	731.06
487.051	759.73
487.26	733.77
487.468	783.37
487.676	822.7
487.885	823.47
488.093	847.31
488.301	864.35
488.509	872.49
488.717	889.54
488.926	899.23
489.134	868.62
489.342	874.04
489.55	899.04
489.758	885.09
489.967	910.85
490.175	1027.3
490.383	920.93
490.591	1002.69
490.799	897.49
491.007	993.78
491.215	944.95
491.423	942.05
491.631	959.29
491.839	958.71
492.047	998.04
492.255	931.97
492.463	898.65
492.671	898.84
492.879	992.42
493.087	965.3
493.295	979.05
493.503	993
493.711	1031.36
493.919	1021.29
494.127	1022.65
494.334	1046.28
494.542	977.12
494.75	1046.86
494.958	1012.96
495.166	1049.19
495.374	1047.25
495.581	1062.36
495.789	1079.8
495.997	1125.53
496.205	1037.18
496.412	1039.7
496.62	1041.25
496.828	1094.33
497.035	1065.08
497.243	1094.14
497.451	1077.86
497.658	1096.46
497.866	1100.73
498.074	1131.53
498.281	1093.95
498.489	1173.19
498.696	1107.51
498.904	1071.86
499.112	1094.53
499.319	1160.21
499.527	1147.61
499.734	1210
499.942	1081.35
500.149	1131.53
500.357	1174.35
500.564	1145.68
500.771	1169.31
500.979	1120.29
501.186	1094.72
501.394	1141.99
501.601	1127.66
501.808	1148.58
502.016	1135.41
502.223	1138.31
502.43	1146.45
502.638	1137.34
502.845	1134.24
503.052	1222.4
503.26	1193.73
503.467	1268.12
503.674	1220.85
503.881	1215.42
504.089	1276.07
504.296	1251.07
504.503	1180.36
504.71	1193.53
504.917	1182.1
505.125	1263.47
505.332	1218.72
505.539	1259.02
505.746	1321.02
505.953	1312.49
506.16	1346.79
506.367	1362.67
506.574	1398.71
506.781	1389.6
506.988	1325.67
507.195	1382.43
507.402	1366.35
507.609	1382.82
507.816	1339.62
508.023	1340.78
508.23	1339.04
508.437	1306.1
508.644	1389.6
508.851	1434.36
509.058	1431.45
509.265	1402.2
509.472	1465.75
509.679	1543.83
509.885	1501.78
510.092	1461.29
510.299	1461.29
510.506	1470.4
510.713	1480.28
510.92	1501.59
511.126	1517.09
511.333	1543.05
511.54	1579.86
511.746	1577.34
511.953	1622.29
512.16	1607.76
512.367	1617.84
512.573	1591.29
512.78	1607.57
512.987	1593.43
513.193	1621.91
513.4	1522.71
513.606	1590.33
513.813	1612.8
514.02	1629.66
514.226	1654.46
514.433	1694.37
514.639	1570.18
514.846	1698.24
515.052	1617.64
515.259	1706.77
515.465	1719.94
515.672	1690.69
515.878	1807.52
516.085	1731.57
516.291	1823.6
516.497	1792.21
516.704	1719.56
516.91	1730.99
517.117	1623.84
517.323	1597.69
517.529	1634.31
517.736	1638.18
517.942	1656.78
518.148	1692.82
518.354	1689.14
518.561	1731.18
518.767	1734.47
518.973	1774.77
519.179	1800.74
519.386	1780
519.592	1816.43
519.798	1825.15
520.004	1933.45
520.21	1933.65
520.417	1972.2
520.623	2025.29
520.829	2014.44
521.035	1992.93
521.241	2048.93
521.447	2031.49
521.653	2173.89
521.859	2057.64
522.065	2115.77
522.271	2176.8
522.477	2219.23
522.683	2243.45
522.889	2196.37
523.095	2161.69
523.301	2193.27
523.507	2153.16
523.713	2233.18
523.919	2171.95
524.125	2262.24
524.331	2266.7
524.537	2398.06
524.742	2335.48
524.948	2368.41
525.154	2407.75
525.36	2491.25
525.566	2399.8
525.772	2474.39
525.977	2370.55
526.183	2393.02
526.389	2519.54
526.595	2338.19
526.8	2373.84
527.006	2262.82
527.212	2238.99
527.417	2201.79
527.623	2209.15
527.829	2303.7
528.034	2354.46
528.24	2376.94
528.446	2389.92
528.651	2502.1
528.857	2512.17
529.062	2594.71
529.268	2560.81
529.473	2585.8
529.679	2611.57
529.884	2683.25
530.09	2620.09
530.295	2665.04
530.501	2667.17
530.706	2622.61
530.912	2643.15
531.117	2655.94
531.323	2721.81
531.528	2713.28
531.733	2723.17
531.939	2722.39
532.144	2757.85
532.35	2772.77
532.555	2778.96
532.76	2697.98
532.966	2739.63
533.171	2697.59
533.376	2637.92
533.581	2643.54
533.787	2647.41
533.992	2763.47
534.197	2727.23
534.402	2754.17
534.607	2784.97
534.813	2869.25
535.018	2770.63
535.223	2820.23
535.428	2810.55
535.633	2852.59
535.838	2926.21
536.043	2955.27
536.249	2996.54
536.454	2949.27
536.659	2954.89
536.864	2916.14
537.069	2886.3
537.274	2911.68
537.479	2883.01
537.684	2912.65
537.889	2870.41
538.094	2997.9
538.299	2939.97
538.504	2990.54
538.708	2985.5
538.913	3026.38
539.118	3010.49
539.323	3004.29
539.528	2934.93
539.733	2895.99
539.938	2955.86
540.142	2936.87
540.347	2950.43
540.552	2932.61
540.757	2839.61
540.962	2897.73
541.166	2822.36
541.371	2849.68
541.576	2917.49
541.781	2848.91
541.985	2926.02
542.19	2941.71
542.395	3028.32
542.599	3023.67
542.804	2984.53
543.008	3057.57
543.213	3009.91
543.418	2947.14
543.622	3052.73
543.827	2998.48
544.031	3035.87
544.236	3079.08
544.44	3080.82
544.645	3123.83
544.849	3048.08
545.054	3116.09
545.258	3139.72
545.463	3109.89
545.667	3032.58
545.872	3106.79
546.076	3142.05
546.281	3118.6
546.485	3101.75
546.689	3127.52
546.894	3143.98
547.098	3147.86
547.302	3051.95
547.507	3115.12
547.711	3079.08
547.915	3175.18
548.119	3085.67
548.324	3089.54
548.528	3132.36
548.732	3115.7
548.936	3156.58
549.141	3145.53
549.345	3137.4
549.549	3148.63
549.753	3165.68
549.957	3234.08
550.161	3217.03
550.366	3191.65
550.57	3163.36
550.774	3149.8
550.978	3171.11
551.182	3155.8
551.386	3156.97
551.59	3142.82
551.794	3173.82
551.998	3201.92
552.202	3209.67
552.406	3131.2
552.61	3200.56
552.814	3206.37
553.018	3242.99
553.222	3172.47
553.426	3175.76
553.63	3220.32
553.833	3192.03
554.037	3141.85
554.241	3222.65
554.445	3190.29
554.649	3180.6
554.853	3121.51
555.056	3198.04
555.26	3199.98
555.464	3178.47
555.668	3185.25
555.871	3195.72
556.075	3223.42
556.279	3165.49
556.483	3113.76
556.686	3141.85
556.89	3118.02
557.094	3156.58
557.297	3069.78
557.501	3141.08
557.704	3034.13
557.908	3135.85
558.112	3072.49
558.315	3159.29
558.519	3063.19
558.722	3062.22
558.926	3019.02
559.129	2922.73
559.333	2925.83
559.536	2930.48
559.74	2944.43
559.943	2937.84
560.147	2924.28
560.35	2957.6
560.553	2966.51
560.757	2934.35
560.96	3023.67
561.164	2959.34
561.367	3039.94
561.57	2973.68
561.774	2984.34
561.977	2946.56
562.18	2920.79
562.384	3022.51
562.587	2939.39
562.79	2947.91
562.993	2929.89
563.197	2977.94
563.4	2994.8
563.603	2996.54
563.806	3014.95
564.009	2896.18
564.212	2964.19
564.416	2864.6
564.619	2880.1
564.822	2828.56
565.025	2918.08
565.228	2844.45
565.431	2823.72
565.634	2774.12
565.837	2806.28
566.04	2727.43
566.243	2752.81
566.446	2653.42
566.649	2733.05
566.852	2666.79
567.055	2751.65
567.258	2719.29
567.461	2802.6
567.664	2800.47
567.867	2742.93
568.07	2748.74
568.273	2757.85
568.475	2790.01
568.678	2666.4
568.881	2651.87
569.084	2654
569.287	2546.47
569.489	2559.64
569.692	2602.27
569.895	2594.71
570.098	2552.09
570.3	2564.87
570.503	2454.05
570.706	2485.63
570.909	2471.88
571.111	2414.53
571.314	2410.85
571.516	2423.83
571.719	2418.4
571.922	2430.03
572.124	2406.97
572.327	2408.13
572.529	2375.97
572.732	2384.88
572.935	2447.85
573.137	2511.4
573.34	2398.64
573.542	2460.44
573.745	2405.23
573.947	2431.77
574.15	2401.74
574.352	2363.38
574.554	2432.74
574.757	2333.54
574.959	2294.6
575.162	2329.28
575.364	2272.9
575.566	2362.8
575.769	2256.23
575.971	2298.47
576.173	2184.55
576.376	2245.97
576.578	2280.45
576.78	2264.18
576.982	2173.5
577.185	2226.4
577.387	2162.27
577.589	2215.35
577.791	2266.89
577.993	2250.23
578.196	2227.95
578.398	2238.99
578.6	2216.9
578.802	2154.32
579.004	2146.77
579.206	2136.11
579.408	2194.43
579.61	2180.67
579.812	2189
580.014	2135.34
580.216	2108.02
580.418	2183.77
580.62	2153.16
580.822	2141.73
581.024	2182.42
581.226	2223.1
581.428	2212.45
581.63	2222.72
581.832	2173.7
582.034	2235.7
582.236	2211.48
582.438	2279.87
582.64	2252.55
582.841	2285.3
583.043	2310.48
583.245	2234.15
583.447	2243.06
583.649	2228.92
583.85	2242.87
584.052	2277.35
584.254	2170.79
584.456	2223.1
584.657	2151.81
584.859	2197.53
585.061	2188.04
585.262	2186.49
585.464	2137.47
585.666	2173.89
585.867	2143.67
586.069	2207.8
586.27	2151.42
586.472	2160.14
586.674	2119.45
586.875	2112.09
587.077	2101.82
587.278	2131.27
587.48	2133.01
587.681	2207.6
587.883	2144.25
588.084	2022.38
588.285	2044.86
588.487	1990.61
588.688	2023.35
588.89	1953.6
589.091	1901.29
589.292	1857.5
589.494	1841.42
589.695	1756.95
589.896	1748.23
590.098	1744.94
590.299	1806.94
590.5	1759.27
590.702	1813.72
590.903	1881.72
591.104	1901.68
591.305	1908.85
591.507	1987.9
591.708	1903.42
591.909	1885.02
592.11	1977.63
592.311	1939.85
592.512	1911.95
592.714	1889.67
592.915	1881.33
593.116	1870.48
593.317	1949.53
593.518	1966.58
593.719	1927.64
593.92	1940.23
594.121	1943.33
594.322	1919.5
594.523	1949.73
594.724	1861.77
594.925	1894.9
595.126	1872.03
595.327	1887.34
595.528	1913.88
595.729	1912.72
595.929	1905.16
596.13	1939.07
596.331	1931.71
596.532	1913.11
596.733	1972.98
596.934	1963.1
597.135	1952.05
597.335	1921.44
597.536	1862.15
597.737	1914.66
597.938	1907.49
598.138	1941.78
598.339	1876.49
598.54	1917.95
598.74	1904.39
598.941	1892.18
599.142	1956.51
599.342	1930.55
599.543	1898.77
599.744	1937.71
599.944	1900.9
600.145	1921.05
600.345	1912.14
600.546	1967.94
600.746	1935.78
600.947	1979.37
601.147	1894.51
601.348	1949.73
601.548	1866.22
601.749	1891.99
601.949	1866.61
602.15	1847.62
602.35	1844.72
602.551	1891.8
602.751	1852.27
602.951	1875.72
603.152	1800.74
603.352	1897.61
603.552	1890.63
603.753	1900.32
603.953	1928.8
604.153	1926.28
604.354	1882.11
604.554	1861.96
604.754	1918.73
604.954	1867.97
605.155	1882.69
605.355	1870.48
605.555	1896.83
605.755	1931.13
605.955	1865.25
606.155	1889.08
606.356	1875.52
606.556	1924.93
606.756	1876.1
606.956	1819.53
607.156	1913.69
607.356	1840.07
607.556	1852.85
607.756	1879.59
607.956	1866.22
608.156	1842
608.356	1784.85
608.556	1857.12
608.756	1805.58
608.956	1808.87
609.156	1836
609.356	1787.95
609.556	1767.02
609.755	1849.95
609.955	1771.67
610.155	1784.65
610.355	1784.07
610.555	1771.48
610.755	1764.31
610.954	1719.56
611.154	1735.64
611.354	1813.91
611.554	1709.48
611.753	1734.28
611.953	1704.44
612.153	1774.19
612.352	1733.31
612.552	1690.88
612.752	1685.26
612.951	1737.19
613.151	1728.85
613.351	1695.92
613.55	1698.05
613.75	1684.1
613.949	1683.13
614.149	1677.32
614.348	1705.61
614.548	1665.11
614.747	1648.64
614.947	1646.12
615.146	1614.35
615.346	1725.95
615.545	1693.4
615.745	1656.39
615.944	1677.32
616.144	1662.01
616.343	1668.6
616.542	1628.88
616.742	1591.88
616.941	1618.42
617.14	1552.74
