Data from gum_young_FLMT105791__55__17-39-13-043.txt Node

Date: Mon Mar 20 17:39:13 GMT 2023
User: antho
Spectrometer: FLMT10579
Trigger mode: 0
Integration Time (sec): 1.000000E-1
Scans to average: 10
Electric dark correction enabled: true
Nonlinearity correction enabled: false
Boxcar width: 0
XAxis mode: Wavelengths
Number of Pixels in Spectrum: 3648
>>>>>Begin Spectral Data<<<<<
345.248	-144.71
345.464	-144.71
345.681	-144.71
345.898	-130.76
346.114	-161.18
346.331	-18.78
346.548	25.01
346.764	0.02
346.981	9.9
347.197	-14.9
347.414	2.15
347.631	-1.73
347.847	40.51
348.064	12.03
348.28	40.51
348.497	-50.94
348.713	-43.77
348.93	47.87
349.146	28.11
349.363	2.34
349.579	-12.58
349.796	0.6
350.012	9.7
350.229	21.91
350.445	7.38
350.661	-9.86
350.878	6.8
351.094	-9.28
351.311	45.35
351.527	25.59
351.743	0.02
351.96	34.5
352.176	36.25
352.392	43.03
352.609	40.7
352.825	-9.09
353.041	1.95
353.257	-15.48
353.474	24.43
353.69	29.85
353.906	10.87
354.122	-12.77
354.339	40.7
354.555	-18.97
354.771	24.82
354.987	45.35
355.203	35.47
355.42	-4.05
355.636	-7.73
355.852	-5.02
356.068	1.37
356.284	-14.13
356.5	60.85
356.716	16.68
356.932	13.38
357.148	13.97
357.364	-13.55
357.58	30.24
357.796	71.7
358.012	40.32
358.228	16.1
358.444	-55.78
358.66	62.02
358.876	33.34
359.092	-11.22
359.308	20.55
359.524	54.27
359.74	15.13
359.956	9.9
360.172	25.4
360.388	56.98
360.604	-8.7
360.819	91.46
361.035	29.27
361.251	41.09
361.467	-4.44
361.683	39.15
361.898	27.14
362.114	48.07
362.33	23.85
362.546	46.9
362.762	-9.28
362.977	24.23
363.193	-1.15
363.409	27.14
363.624	-30.4
363.84	-23.23
364.056	3.5
364.271	23.27
364.487	43.42
364.703	-7.93
364.918	-10.64
365.134	7.38
365.35	10.09
365.565	107.93
365.781	21.91
365.996	28.11
366.212	73.83
366.427	33.53
366.643	13.97
366.858	19.97
367.074	-7.54
367.289	67.44
367.505	64.73
367.72	-18.58
367.936	1.18
368.151	15.9
368.367	41.48
368.582	29.08
368.798	5.44
369.013	61.82
369.228	31.02
369.444	32.37
369.659	52.91
369.874	51.94
370.09	73.45
370.305	-41.83
370.52	-11.8
370.736	75.77
370.951	29.47
371.166	72.87
371.381	71.9
371.597	50.39
371.812	1.95
372.027	-6.96
372.242	31.98
372.458	76.93
372.673	31.02
372.888	41.09
373.103	32.57
373.318	87.98
373.533	28.3
373.749	41.28
373.964	-17.42
374.179	82.75
374.394	-7.35
374.609	55.82
374.824	-6.96
375.039	60.66
375.254	5.63
375.469	85.26
375.684	41.48
375.899	62.21
376.114	37.6
376.329	34.5
376.544	69.77
376.759	54.07
376.974	-0.95
377.189	7.96
377.404	12.8
377.619	42.06
377.834	-32.34
378.049	-8.51
378.264	3.89
378.478	85.07
378.693	21.33
378.908	45.16
379.123	18.03
379.338	70.15
379.553	24.62
379.767	49.81
379.982	45.55
380.197	51.17
380.412	-5.22
380.626	32.57
380.841	113.55
381.056	59.3
381.271	75
381.485	4.08
381.7	-10.64
381.915	13.77
382.129	4.86
382.344	42.25
382.559	33.34
382.773	54.27
382.988	-1.73
383.202	24.43
383.417	-22.46
383.632	100.18
383.846	6.22
384.061	40.32
384.275	9.7
384.49	41.48
384.704	52.13
384.919	48.65
385.133	36.44
385.348	32.37
385.562	13.97
385.777	52.52
385.991	42.06
386.206	43.61
386.42	6.8
386.634	80.23
386.849	57.37
387.063	54.46
387.277	15.32
387.492	9.51
387.706	27.72
387.92	-32.92
388.135	55.04
388.349	26.75
388.563	39.93
388.778	40.32
388.992	68.8
389.206	53.1
389.42	94.37
389.635	20.75
389.849	51.94
390.063	66.67
390.277	30.82
390.491	88.95
390.706	39.93
390.92	65.7
391.134	30.24
391.348	67.63
391.562	-8.7
391.776	15.9
391.99	-0.95
392.205	76.93
392.419	17.07
392.633	42.83
392.847	102.51
393.061	3.31
393.275	90.69
393.489	34.5
393.703	24.62
393.917	50.78
394.131	-11.8
394.345	55.82
394.559	55.43
394.773	50.97
394.986	50.39
395.2	30.82
395.414	74.42
395.628	31.02
395.842	63.76
396.056	14.16
396.27	-10.06
396.484	67.44
396.697	51.94
396.911	79.84
397.125	70.93
397.339	74.8
397.553	49.23
397.766	92.05
397.98	64.15
398.194	83.91
398.408	42.64
398.621	78.29
398.835	56.4
399.049	74.22
399.262	110.84
399.476	87.98
399.69	86.43
399.903	123.82
400.117	49.81
400.331	93.79
400.544	44.19
400.758	156.76
400.971	79.45
401.185	109.87
401.398	39.35
401.612	91.85
401.826	86.81
402.039	96.89
402.253	91.46
402.466	90.5
402.68	52.13
402.893	99.41
403.106	82.75
403.32	75.77
403.533	87.98
403.747	72.67
403.96	97.28
404.174	85.85
404.387	28.88
404.6	103.28
404.814	126.53
405.027	92.63
405.24	84.68
405.454	57.75
405.667	115.1
405.88	44
406.094	109.29
406.307	118.98
406.52	95.53
406.733	53.3
406.947	38.38
407.16	137
407.373	97.08
407.586	56.78
407.799	53.88
408.012	104.25
408.226	77.32
408.439	145.33
408.652	39.73
408.865	87.78
409.078	106.58
409.291	105.22
409.504	64.34
409.717	96.31
409.93	91.85
410.143	102.9
410.357	64.34
410.57	37.22
410.783	70.93
410.996	98.05
411.209	74.03
411.421	142.03
411.634	94.56
411.847	55.82
412.06	100.38
412.273	105.61
412.486	78.48
412.699	190.08
412.912	114.71
413.125	116.65
413.338	88.17
413.55	106.58
413.763	72.48
413.976	119.75
414.189	78.87
414.402	55.23
414.615	153.27
414.827	70.35
415.04	140.87
415.253	101.54
415.466	97.47
415.678	164.7
415.891	104.25
416.104	97.08
416.316	75.97
416.529	98.83
416.742	147.46
416.954	151.72
417.167	106
417.38	110.26
417.592	122.66
417.805	78.48
418.017	63.57
418.23	125.18
418.442	110.45
418.655	86.62
418.868	135.45
419.08	138.93
419.293	169.93
419.505	93.79
419.718	128.28
419.93	155.98
420.142	103.09
420.355	158.7
420.567	145.71
420.78	160.44
420.992	124.01
421.205	155.79
421.417	69.77
421.629	92.43
421.842	88.95
422.054	78.29
422.266	146.1
422.479	163.93
422.691	107.55
422.903	142.42
423.115	102.9
423.328	132.73
423.54	140.48
423.752	100.96
423.964	102.31
424.177	161.02
424.389	126.15
424.601	221.28
424.813	126.73
425.025	162.18
425.238	162.18
425.45	114.33
425.662	111.42
425.874	375.11
426.086	113.94
426.298	134.67
426.51	119.56
426.722	134.86
426.934	119.17
427.146	161.8
427.358	100.57
427.57	171.48
427.782	121.11
427.994	157.34
428.206	136.03
428.418	93.01
428.63	142.81
428.842	156.56
429.054	141.84
429.266	151.53
429.478	73.06
429.69	138.74
429.902	88.17
430.114	120.53
430.325	146.88
430.537	87.01
430.749	108.13
430.961	57.37
431.173	118.4
431.384	118.59
431.596	59.69
431.808	120.14
432.02	137.77
432.231	159.66
432.443	184.08
432.655	141.26
432.867	113.75
433.078	157.92
433.29	195.12
433.502	164.7
433.713	190.66
433.925	164.51
434.136	178.46
434.348	117.81
434.56	78.48
434.771	239.29
434.983	110.45
435.194	154.63
435.406	148.43
435.617	183.69
435.829	220.11
436.04	165.48
436.252	175.94
436.463	233.48
436.675	186.59
436.886	188.73
437.098	197.64
437.309	230.19
437.521	158.7
437.732	163.73
437.943	183.69
438.155	168.38
438.366	113.36
438.578	223.21
438.789	166.06
439	194.93
439.211	170.13
439.423	180.2
439.634	192.21
439.845	183.49
440.057	210.62
440.268	205.78
440.479	136.03
440.69	184.85
440.902	182.53
441.113	190.47
441.324	209.07
441.535	220.89
441.746	269.13
441.957	169.93
442.168	178.84
442.38	213.33
442.591	222.83
442.802	198.8
443.013	199.19
443.224	215.46
443.435	201.13
443.646	201.32
443.857	213.53
444.068	186.98
444.279	187.95
444.49	255.96
444.701	237.74
444.912	265.84
445.123	250.14
445.334	248.98
445.545	202.29
445.756	221.86
445.967	165.28
446.178	229.8
446.388	250.73
446.599	257.31
446.81	249.76
447.021	206.94
447.232	262.16
447.443	277.66
447.653	193.18
447.864	254.6
448.075	268.16
448.286	244.72
448.496	255.37
448.707	260.22
448.918	219.92
449.129	296.64
449.339	221.28
449.55	276.3
449.761	244.91
449.971	289.09
450.182	245.69
450.393	269.71
450.603	224.76
450.814	297.61
451.024	250.53
451.235	303.62
451.446	296.26
451.656	325.51
451.867	273.78
452.077	273.97
452.288	323.77
452.498	312.92
452.709	260.99
452.919	291.8
453.13	244.53
453.34	298.19
453.55	242.2
453.761	288.12
453.971	277.27
454.182	314.47
454.392	291.99
454.602	334.04
454.813	299.94
455.023	332.1
455.233	223.21
455.444	291.41
455.654	223.41
455.864	243.56
456.075	272.23
456.285	274.17
456.495	287.92
456.705	295.09
456.916	316.79
457.126	344.11
457.336	299.36
457.546	243.56
457.756	251.31
457.967	325.12
458.177	290.25
458.387	314.47
458.597	267.39
458.807	283.86
459.017	287.54
459.227	287.73
459.437	281.53
459.647	321.44
459.857	301.87
460.068	281.72
460.278	342.37
460.488	287.73
460.698	355.15
460.908	302.26
461.117	256.73
461.327	287.92
461.537	323.96
461.747	308.85
461.957	332.49
462.167	388.67
462.377	350.5
462.587	312.92
462.797	346.24
463.007	301.87
463.216	344.89
463.426	365.62
463.636	360.19
463.846	296.26
464.056	293.35
464.265	338.49
464.475	302.46
464.685	321.44
464.895	340.24
465.104	312.92
465.314	349.34
465.524	328.42
465.733	293.74
465.943	375.3
466.153	373.17
466.362	387.7
466.572	344.11
466.782	322.41
466.991	347.79
467.201	385.38
467.41	294.71
467.62	368.72
467.829	347.4
468.039	356.12
468.249	310.21
468.458	341.98
468.668	378.4
468.877	381.7
469.086	409.21
469.296	411.34
469.505	343.14
469.715	441.76
469.924	375.5
470.134	423.74
470.343	419.09
470.552	349.15
470.762	367.17
470.971	328.81
471.18	373.37
471.39	365.81
471.599	319.31
471.808	398.17
472.018	362.52
472.227	397.59
472.436	418.12
472.645	385.77
472.855	349.54
473.064	434.4
473.273	410.95
473.482	440.4
473.691	451.64
473.901	427.81
474.11	418.32
474.319	503.76
474.528	443.12
474.737	471.6
474.946	443.89
475.155	440.6
475.364	473.92
475.573	433.23
475.783	444.28
475.992	444.67
476.201	475.28
476.41	444.47
476.619	401.27
476.828	462.68
477.037	448.15
477.245	436.33
477.454	468.5
477.663	452.22
477.872	460.75
478.081	517.13
478.29	455.9
478.499	542.31
478.708	477.8
478.917	527.98
479.125	462.1
479.334	495.43
479.543	476.83
479.752	522.16
479.961	519.65
480.169	544.64
480.378	495.04
480.587	606.64
480.796	538.05
481.004	553.94
481.213	551.03
481.422	516.35
481.63	508.22
481.839	539.99
482.048	592.88
482.256	558.2
482.465	578.16
482.674	585.33
482.882	600.83
483.091	649.65
483.299	562.85
483.508	583.58
483.716	561.11
483.925	578.35
484.134	557.62
484.342	539.41
484.551	602.38
484.759	605.28
484.967	589.78
485.176	600.44
485.384	636.28
485.593	632.02
485.801	584.16
486.01	566.15
486.218	571.57
486.426	496.59
486.635	535.34
486.843	528.95
487.051	562.08
487.26	528.36
487.468	571.57
487.676	634.15
487.885	568.08
488.093	620.59
488.301	608.96
488.509	623.88
488.717	652.56
488.926	623.49
489.134	632.79
489.342	645.58
489.55	594.05
489.758	652.56
489.967	637.44
490.175	733.54
490.383	649.84
490.591	731.99
490.799	637.06
491.007	694.02
491.215	688.01
491.423	647.52
491.631	701.77
491.839	696.34
492.047	708.74
492.255	632.02
492.463	612.84
492.671	653.14
492.879	754.08
493.087	691.69
493.295	694.21
493.503	721.34
493.711	739.74
493.919	768.81
494.127	722.31
494.334	753.31
494.542	695.18
494.75	733.16
494.958	713.01
495.166	790.89
495.374	780.43
495.581	762.99
495.789	786.82
495.997	826.93
496.205	759.89
496.412	742.26
496.62	764.54
496.828	775.78
497.035	763.96
497.243	818.6
497.451	784.69
497.658	804.65
497.866	789.73
498.074	856.96
498.281	737.42
498.489	874.01
498.696	800
498.904	775.39
499.112	767.26
499.319	856.77
499.527	838.94
499.734	856.77
499.942	782.75
500.149	806.78
500.357	804.26
500.564	822.28
500.771	818.4
500.979	801.35
501.186	793.99
501.394	812.2
501.601	818.79
501.808	845.34
502.016	831.19
502.223	793.99
502.43	844.17
502.638	861.22
502.845	797.29
503.052	878.27
503.26	828.48
503.467	917.22
503.674	865.87
503.881	906.17
504.089	944.73
504.296	916.44
504.503	854.44
504.71	865.29
504.917	886.02
505.125	916.83
505.332	912.18
505.539	933.68
505.746	974.18
505.953	962.16
506.16	959.06
506.367	997.23
506.574	1033.08
506.781	1031.14
506.988	974.18
507.195	989.1
507.402	1004.21
507.609	1037.34
507.816	954.22
508.023	1010.02
508.23	986.96
508.437	989.48
508.644	1020.29
508.851	1057.29
509.058	1065.43
509.265	1055.94
509.472	1077.44
509.679	1129.95
509.885	1063.3
510.092	1109.03
510.299	1072.6
510.506	1100.11
510.713	1102.24
510.92	1110.38
511.126	1091.98
511.333	1142.74
511.54	1109.99
511.746	1202.22
511.953	1166.96
512.16	1202.02
512.367	1143.51
512.573	1161.72
512.78	1157.46
512.987	1184.97
513.193	1155.72
513.4	1101.47
513.606	1167.92
513.813	1188.07
514.02	1172.19
514.226	1264.22
514.433	1240.77
514.639	1189.04
514.846	1234.19
515.052	1193.89
515.259	1233.6
515.465	1262.28
515.672	1241.16
515.878	1366.9
516.085	1277.59
516.291	1313.04
516.497	1249.1
516.704	1250.27
516.91	1226.63
517.117	1155.72
517.323	1143.9
517.529	1182.26
517.736	1184.01
517.942	1243.29
518.148	1234.19
518.354	1254.53
518.561	1283.59
518.767	1298.7
518.973	1299.29
519.179	1345.2
519.386	1329.7
519.592	1333
519.798	1349.66
520.004	1440.53
520.21	1397.71
520.417	1457.77
520.623	1517.25
520.829	1518.03
521.035	1497.68
521.241	1494
521.447	1548.44
521.653	1618.58
521.859	1527.71
522.065	1547.86
522.271	1613.54
522.477	1614.12
522.683	1644.16
522.889	1581.77
523.095	1596.11
523.301	1598.24
523.507	1584.67
523.713	1648.81
523.919	1589.52
524.125	1688.33
524.331	1627.3
524.537	1772.8
524.742	1732.89
524.948	1727.85
525.154	1730.18
525.36	1836.55
525.566	1761.95
525.772	1842.55
525.977	1758.27
526.183	1770.48
526.389	1794.89
526.595	1712.55
526.8	1725.14
527.006	1658.1
527.212	1632.72
527.417	1589.91
527.623	1630.4
527.829	1698.6
528.034	1741.22
528.24	1751.88
528.446	1769.9
528.651	1857.86
528.857	1848.95
529.062	1892.54
529.268	1887.5
529.473	1915.98
529.679	1887.11
529.884	1986.51
530.09	1953.38
530.295	1978.18
530.501	2005.3
530.706	1926.64
530.912	1945.24
531.117	1947.95
531.323	2007.24
531.528	2022.35
531.733	2011.5
531.939	1989.8
532.144	1997.74
532.35	1986.31
532.555	2021.38
532.76	1986.51
532.966	2014.99
533.171	1980.11
533.376	1905.13
533.581	1922.57
533.787	1974.49
533.992	2030.49
534.197	2003.36
534.402	2034.17
534.607	2062.46
534.813	2099.07
535.018	2046.18
535.223	2043.66
535.428	2085.9
535.633	2123.49
535.838	2152.94
536.043	2162.24
536.249	2209.51
536.454	2130.07
536.659	2166.69
536.864	2126.97
537.069	2111.67
537.274	2116.12
537.479	2137.82
537.684	2134.92
537.889	2080.86
538.094	2232.18
538.299	2155.84
538.504	2171.34
538.708	2202.34
538.913	2251.36
539.118	2206.22
539.323	2175.8
539.528	2142.09
539.733	2173.67
539.938	2206.41
540.142	2201.57
540.347	2118.84
540.552	2125.81
540.757	2105.66
540.962	2144.41
541.166	2081.44
541.371	2084.74
541.576	2121.35
541.781	2070.59
541.985	2195.56
542.19	2162.24
542.395	2236.25
542.599	2270.93
542.804	2201.37
543.008	2270.54
543.213	2190.91
543.418	2115.54
543.622	2202.15
543.827	2149.64
544.031	2245.16
544.236	2314.13
544.44	2230.05
544.645	2312.78
544.849	2243.8
545.054	2266.08
545.258	2375.16
545.463	2352.11
545.667	2262.79
545.872	2259.5
546.076	2268.99
546.281	2300.18
546.485	2260.66
546.689	2343.39
546.894	2304.64
547.098	2290.69
547.302	2228.11
547.507	2275.19
547.711	2312.39
547.915	2370.51
548.119	2251.17
548.324	2308.51
548.528	2338.35
548.732	2311.81
548.936	2342.61
549.141	2363.93
549.345	2293.01
549.549	2325.37
549.753	2324.6
549.957	2407.33
550.161	2401.9
550.366	2365.48
550.57	2335.25
550.774	2332.93
550.978	2319.95
551.182	2370.71
551.386	2311.23
551.59	2349.2
551.794	2333.31
551.998	2343.2
552.202	2323.43
552.406	2318.2
552.61	2376.91
552.814	2401.32
553.018	2384.27
553.222	2358.5
553.426	2311.03
553.63	2424.18
553.833	2319.75
554.037	2300.38
554.241	2401.51
554.445	2371.87
554.649	2326.34
554.853	2326.73
555.056	2395.89
555.26	2404.81
555.464	2359.28
555.668	2352.3
555.871	2352.49
556.075	2387.95
556.279	2339.13
556.483	2327.89
556.686	2299.6
556.89	2323.43
557.094	2300.57
557.297	2264.15
557.501	2325.56
557.704	2217.45
557.908	2306.38
558.112	2232.76
558.315	2330.02
558.519	2248.45
558.722	2256.98
558.926	2253.1
559.129	2161.46
559.333	2153.71
559.536	2180.45
559.74	2173.28
559.943	2154.1
560.147	2164.37
560.35	2199.43
560.553	2165.34
560.757	2166.89
560.96	2245.74
561.164	2156.04
561.367	2263.95
561.57	2187.23
561.774	2205.44
561.977	2200.4
562.18	2176.77
562.384	2260.27
562.587	2159.33
562.79	2162.04
562.993	2112.05
563.197	2198.85
563.4	2244.97
563.603	2206.99
563.806	2255.82
564.009	2119.8
564.212	2151.58
564.416	2102.56
564.619	2146.54
564.822	2069.04
565.025	2171.54
565.228	2122.9
565.431	2144.99
565.634	2036.69
565.837	2089.19
566.04	2035.14
566.243	2024.87
566.446	1980.11
566.649	2070.01
566.852	1977.98
567.055	2047.92
567.258	2045.6
567.461	2113.6
567.664	2082.8
567.867	1986.31
568.07	2050.64
568.273	2054.51
568.475	2080.86
568.678	2018.86
568.881	1965.19
569.084	1941.36
569.287	1853.79
569.489	1931.68
569.692	1969.65
569.895	1911.53
570.098	1879.36
570.3	1897.58
570.503	1855.15
570.706	1865.22
570.909	1868.32
571.111	1801.09
571.314	1816.2
571.516	1800.7
571.719	1790.63
571.922	1783.65
572.124	1779.39
572.327	1857.66
572.529	1784.23
572.732	1765.44
572.935	1811.17
573.137	1909.59
573.34	1770.28
573.542	1862.31
573.745	1822.79
573.947	1825.31
574.15	1807.68
574.352	1761.18
574.554	1844.49
574.757	1794.89
574.959	1731.54
575.162	1738.51
575.364	1729.99
575.566	1791.6
575.769	1718.75
575.971	1728.82
576.173	1621.29
576.376	1711.58
576.578	1737.93
576.78	1771.25
576.982	1626.52
577.185	1703.44
577.387	1641.06
577.589	1632.72
577.791	1683.1
577.993	1725.92
578.196	1670.89
578.398	1682.9
578.6	1713.52
578.802	1652.29
579.004	1620.32
579.206	1633.31
579.408	1674.57
579.61	1611.41
579.812	1670.31
580.014	1631.37
580.216	1622.84
580.418	1608.89
580.62	1653.26
580.822	1593.2
581.024	1618
581.226	1702.67
581.428	1631.56
581.63	1739.87
581.832	1637.96
582.034	1707.7
582.236	1645.9
582.438	1707.32
582.64	1730.37
582.841	1743.55
583.043	1736.38
583.245	1694.14
583.447	1700.15
583.649	1670.89
583.85	1686.59
584.052	1709.25
584.254	1660.24
584.456	1714.49
584.657	1616.45
584.859	1652.49
585.061	1653.65
585.262	1624.59
585.464	1592.04
585.666	1654.81
585.867	1631.37
586.069	1682.32
586.27	1629.82
586.472	1605.99
586.674	1585.84
586.875	1595.33
587.077	1590.1
587.278	1633.69
587.48	1596.88
587.681	1683.87
587.883	1634.08
588.084	1501.17
588.285	1570.34
588.487	1530.04
588.688	1576.15
588.89	1486.06
589.091	1486.64
589.292	1474.05
589.494	1417.86
589.695	1407.78
589.896	1323.7
590.098	1334.16
590.299	1378.92
590.5	1325.63
590.702	1357.6
590.903	1411.08
591.104	1460.1
591.305	1427.55
591.507	1482.96
591.708	1485.48
591.909	1428.32
592.11	1486.83
592.311	1486.83
592.512	1415.53
592.714	1416.7
592.915	1442.85
593.116	1431.23
593.317	1440.53
593.518	1454.28
593.719	1445.18
593.92	1503.49
594.121	1480.83
594.322	1436.85
594.523	1452.35
594.724	1382.4
594.925	1412.82
595.126	1432.39
595.327	1420.96
595.528	1436.07
595.729	1439.36
595.929	1406.43
596.13	1405.26
596.331	1442.66
596.532	1441.5
596.733	1523.45
596.934	1461.65
597.135	1461.65
597.335	1466.1
597.536	1399.06
597.737	1452.54
597.938	1396.74
598.138	1414.76
598.339	1426.19
598.54	1441.69
598.74	1443.24
598.941	1442.27
599.142	1486.44
599.342	1463.2
599.543	1428.51
599.744	1453.31
599.944	1424.83
600.145	1441.11
600.345	1448.28
600.546	1526.16
600.746	1459.51
600.947	1496.71
601.147	1419.8
601.348	1484.51
601.548	1402.36
601.749	1442.27
601.949	1381.24
602.15	1400.23
602.35	1401.97
602.551	1463.78
602.751	1406.62
602.951	1394.22
603.152	1330.09
603.352	1438.98
603.552	1409.91
603.753	1447.5
603.953	1457.19
604.153	1413.4
604.354	1400.03
604.554	1440.91
604.754	1449.63
604.954	1372.33
605.155	1476.18
605.355	1392.28
605.555	1473.85
605.755	1488.96
605.955	1414.56
606.155	1401.97
606.356	1402.16
606.556	1411.85
606.756	1400.03
606.956	1379.11
607.156	1463
607.356	1393.45
607.556	1388.8
607.756	1393.64
607.956	1407.98
608.156	1403.91
608.356	1329.51
608.556	1436.85
608.756	1380.85
608.956	1367.1
609.156	1366.9
609.356	1377.37
609.556	1323.7
609.755	1357.41
609.955	1310.91
610.155	1363.22
610.355	1320.4
610.555	1319.24
610.755	1312.46
610.954	1258.6
611.154	1337.26
611.354	1329.7
611.554	1301.61
611.753	1313.23
611.953	1288.05
612.153	1360.12
612.352	1317.3
612.552	1262.09
612.752	1259.95
612.951	1287.47
613.151	1307.62
613.351	1244.65
613.55	1274.68
613.75	1273.32
613.949	1236.9
614.149	1256.08
614.348	1259.57
614.548	1231.09
614.747	1159.21
614.947	1228.95
615.146	1186.52
615.346	1290.95
615.545	1266.15
615.745	1223.14
615.944	1272.55
616.144	1269.45
616.343	1255.69
616.542	1199.7
616.742	1195.63
616.941	1211.32
617.14	1154.17
617.34	1207.84
617.539	1204.93
617.738	1170.44
617.938	1278.75
618.137	1196.79
618.336	1199.7
618.535	1195.05
