Data from gum_young_FLMT105791__50__17-39-08-043.txt Node

Date: Mon Mar 20 17:39:08 GMT 2023
User: antho
Spectrometer: FLMT10579
Trigger mode: 0
Integration Time (sec): 1.000000E-1
Scans to average: 10
Electric dark correction enabled: true
Nonlinearity correction enabled: false
Boxcar width: 0
XAxis mode: Wavelengths
Number of Pixels in Spectrum: 3648
>>>>>Begin Spectral Data<<<<<
345.248	-124.77
345.464	-124.77
345.681	-124.77
345.898	-158.49
346.114	-140.66
346.331	-39.14
346.548	36.42
346.764	9.88
346.981	-3.29
347.197	7.75
347.414	1.74
347.631	-15.11
347.847	45.53
348.064	3.29
348.28	6.59
348.497	-33.13
348.713	-20.54
348.93	19.96
349.146	26.74
349.363	2.52
349.579	-0.77
349.796	15.89
350.012	-5.62
350.229	23.44
350.445	20.92
350.661	-15.11
350.878	-3.87
351.094	18.41
351.311	35.46
351.527	26.35
351.743	-13.17
351.96	44.76
352.176	23.44
352.392	33.32
352.609	31
352.825	-13.37
353.041	-8.33
353.257	-13.37
353.474	-3.87
353.69	20.92
353.906	27.12
354.122	-32.55
354.339	39.14
354.555	23.83
354.771	6.01
354.987	74.79
355.203	67.23
355.42	-2.32
355.636	-10.46
355.852	-30.61
356.068	-13.17
356.284	7.94
356.5	43.79
356.716	29.64
356.932	-37.59
357.148	6.39
357.364	10.85
357.58	41.66
357.796	41.46
358.012	64.71
358.228	31.39
358.444	-40.69
358.66	53.86
358.876	11.43
359.092	-25.77
359.308	18.6
359.524	-2.71
359.74	-18.41
359.956	-21.12
360.172	8.91
360.388	28.87
360.604	-13.95
360.819	61.42
361.035	33.32
361.251	39.33
361.467	-4.65
361.683	38.36
361.898	3.87
362.114	24.02
362.33	18.21
362.546	43.79
362.762	20.73
362.977	36.04
363.193	-19.96
363.409	40.11
363.624	-13.17
363.84	8.14
364.056	21.12
364.271	32.16
364.487	51.73
364.703	-5.04
364.918	-14.92
365.134	-7.56
365.35	12.01
365.565	82.92
365.781	5.04
365.996	30.61
366.212	81.76
366.427	14.14
366.643	-14.34
366.858	12.21
367.074	-33.52
367.289	54.83
367.505	79.82
367.72	-13.76
367.936	8.91
368.151	64.91
368.367	17.24
368.582	34.49
368.798	-0.97
369.013	70.33
369.228	44.56
369.444	22.86
369.659	56.96
369.874	30.03
370.09	80.41
370.305	-39.91
370.52	-2.32
370.736	40.11
370.951	24.22
371.166	77.89
371.381	102.49
371.597	63.55
371.812	-12.98
372.027	-9.3
372.242	34.1
372.458	71.49
372.673	3.1
372.888	-17.44
373.103	26.93
373.318	86.61
373.533	47.86
373.749	37.39
373.964	-14.92
374.179	77.89
374.394	15.11
374.609	55.8
374.824	3.49
375.039	46.31
375.254	3.49
375.469	56.77
375.684	9.69
375.899	68.39
376.114	-1.36
376.329	4.26
376.544	56.19
376.759	44.17
376.974	14.53
377.189	27.71
377.404	22.28
377.619	47.47
377.834	-27.32
378.049	-11.62
378.264	-6.97
378.478	11.04
378.693	-0.97
378.908	55.02
379.123	-5.81
379.338	48.82
379.553	24.61
379.767	41.07
379.982	33.91
380.197	20.92
380.412	12.79
380.626	40.3
380.841	93.97
381.056	49.79
381.271	82.92
381.485	6.2
381.7	-8.14
381.915	50.37
382.129	18.21
382.344	19.18
382.559	-14.53
382.773	51.54
382.988	5.04
383.202	40.49
383.417	-17.44
383.632	106.37
383.846	43.79
384.061	37.59
384.275	24.41
384.49	37.78
384.704	54.64
384.919	13.95
385.133	27.32
385.348	35.65
385.562	11.24
385.777	75.56
385.991	33.52
386.206	-8.14
386.42	-5.81
386.634	80.41
386.849	18.79
387.063	32.55
387.277	-1.94
387.492	14.92
387.706	-19.37
387.92	-9.49
388.135	51.34
388.349	12.4
388.563	19.37
388.778	37.01
388.992	61.61
389.206	47.27
389.42	105.98
389.635	25.38
389.849	52.51
390.063	66.46
390.277	49.02
390.491	72.07
390.706	52.31
390.92	68.01
391.134	46.69
391.348	50.96
391.562	-17.82
391.776	21.51
391.99	12.79
392.205	37.39
392.419	1.36
392.633	24.02
392.847	75.37
393.061	0.97
393.275	79.82
393.489	31.58
393.703	32.36
393.917	62.58
394.131	-5.23
394.345	60.06
394.559	66.65
394.773	38.56
394.986	47.86
395.2	35.26
395.414	51.15
395.628	18.41
395.842	44.56
396.056	25.57
396.27	-32.55
396.484	18.79
396.697	48.82
396.911	62
397.125	51.34
397.339	78.08
397.553	58.32
397.766	84.67
397.98	40.11
398.194	55.22
398.408	20.34
398.621	63.55
398.835	65.29
399.049	33.32
399.262	92.22
399.476	86.99
399.69	33.71
399.903	89.32
400.117	32.94
400.331	39.33
400.544	45.14
400.758	147.83
400.971	64.32
401.185	87.19
401.398	12.98
401.612	77.69
401.826	64.52
402.039	66.26
402.253	40.69
402.466	90.09
402.68	43.21
402.893	62.19
403.106	70.72
403.32	48.44
403.533	92.42
403.747	81.37
403.96	82.34
404.174	73.82
404.387	5.62
404.6	57.74
404.814	98.04
405.027	63.16
405.24	73.43
405.454	63.94
405.667	82.92
405.88	12.01
406.094	69.17
406.307	77.89
406.52	70.52
406.733	44.56
406.947	32.94
407.16	122.64
407.373	96.49
407.586	28.29
407.799	34.68
408.012	94.94
408.226	64.13
408.439	96.49
408.652	42.24
408.865	66.07
409.078	100.75
409.291	91.45
409.504	43.79
409.717	94.94
409.93	86.02
410.143	54.83
410.357	19.18
410.57	21.31
410.783	52.7
410.996	82.73
411.209	52.51
411.421	96.1
411.634	48.24
411.847	63.94
412.06	76.14
412.273	65.68
412.486	68.39
412.699	158.68
412.912	49.21
413.125	83.31
413.338	83.51
413.55	122.25
413.763	77.31
413.976	115.67
414.189	38.36
414.402	36.23
414.615	117.6
414.827	53.86
415.04	105.79
415.253	77.69
415.466	123.61
415.678	150.93
415.891	83.7
416.104	92.42
416.316	76.14
416.529	71.69
416.742	110.05
416.954	101.72
417.167	97.26
417.38	79.24
417.592	112.76
417.805	53.47
418.017	35.07
418.23	107.72
418.442	61.22
418.655	74.98
418.868	79.44
419.08	88.54
419.293	122.64
419.505	94.35
419.718	78.66
419.93	124.97
420.142	102.1
420.355	111.6
420.567	153.45
420.78	128.65
420.992	99
421.205	135.82
421.417	43.79
421.629	109.47
421.842	71.11
422.054	68.59
422.266	116.64
422.479	108.69
422.691	76.92
422.903	115.28
423.115	85.44
423.328	93.97
423.54	97.07
423.752	93.39
423.964	81.57
424.177	116.25
424.389	87.57
424.601	174.18
424.813	93.97
425.025	164.1
425.238	144.54
425.45	101.14
425.662	92.61
425.874	330.15
426.086	83.51
426.298	139.69
426.51	125.74
426.722	101.72
426.934	87.57
427.146	112.57
427.358	51.92
427.57	130.59
427.782	96.68
427.994	100.55
428.206	71.88
428.418	61.61
428.63	122.64
428.842	139.11
429.054	131.55
429.266	103.65
429.478	98.81
429.69	126.71
429.902	65.1
430.114	122.06
430.325	110.82
430.537	82.73
430.749	94.16
430.961	55.8
431.173	77.11
431.384	126.9
431.596	29.84
431.808	99
432.02	113.92
432.231	122.64
432.443	160.23
432.655	111.21
432.867	85.25
433.078	129.42
433.29	192.78
433.502	123.61
433.713	142.21
433.925	117.22
434.136	157.13
434.348	87.96
434.56	48.44
434.771	185.42
434.983	105.98
435.194	124
435.406	117.6
435.617	154.8
435.829	174.37
436.04	148.8
436.252	157.52
436.463	182.9
436.675	164.69
436.886	122.45
437.098	160.62
437.309	206.34
437.521	117.41
437.732	142.21
437.943	132.52
438.155	148.22
438.366	109.85
438.578	195.1
438.789	141.44
439	148.6
439.211	136.01
439.423	157.13
439.634	151.9
439.845	174.95
440.057	140.47
440.268	173.4
440.479	131.17
440.69	123.22
440.902	133.1
441.113	147.44
441.324	143.18
441.535	148.02
441.746	196.07
441.957	137.56
442.168	143.57
442.38	146.09
442.591	181.35
442.802	135.24
443.013	149.96
443.224	175.15
443.435	127.87
443.646	143.57
443.857	167.01
444.068	158.1
444.279	144.54
444.49	211.18
444.701	167.2
444.912	249.55
445.123	183.09
445.334	192.58
445.545	180.77
445.756	179.6
445.967	142.21
446.178	192.97
446.388	218.93
446.599	205.37
446.81	196.46
447.021	169.53
447.232	186.97
447.443	230.17
447.653	157.9
447.864	190.84
448.075	171.08
448.286	241.02
448.496	184.64
448.707	231.14
448.918	162.36
449.129	266.4
449.339	163.52
449.55	169.53
449.761	173.21
449.971	257.68
450.182	179.02
450.393	208.67
450.603	225.72
450.814	228.23
451.024	209.63
451.235	235.4
451.446	236.57
451.656	266.6
451.867	174.76
452.077	233.85
452.288	272.21
452.498	250.13
452.709	196.85
452.919	244.51
453.13	189.68
453.34	245.09
453.55	141.63
453.761	238.89
453.971	232.88
454.182	246.83
454.392	222.81
454.602	293.53
454.813	251.1
455.023	229.78
455.233	201.88
455.444	251.29
455.654	168.17
455.864	229.59
456.075	204.98
456.285	201.69
456.495	230.95
456.705	232.69
456.916	258.07
457.126	280.16
457.336	226.68
457.546	174.37
457.756	195.88
457.967	256.52
458.177	222.03
458.387	245.09
458.597	222.42
458.807	232.88
459.017	201.88
459.227	222.03
459.437	242.38
459.647	262.14
459.857	234.43
460.068	212.73
460.278	265.63
460.488	267.76
460.698	320.85
460.908	234.82
461.117	213.12
461.327	211.96
461.537	259.23
461.747	257.88
461.957	241.41
462.167	340.41
462.377	294.88
462.587	242.77
462.797	291.98
463.007	274.15
463.216	272.21
463.426	311.35
463.636	301.86
463.846	211.77
464.056	250.71
464.265	289.07
464.475	235.79
464.685	249.55
464.895	270.28
465.104	248.58
465.314	269.11
465.524	242.57
465.733	214.48
465.943	371.03
466.153	325.69
466.362	299.15
466.572	276.86
466.782	273.57
466.991	261.95
467.201	307.67
467.41	231.53
467.62	279.77
467.829	259.04
468.039	266.4
468.249	275.12
468.458	273.38
468.668	296.82
468.877	253.62
469.086	309.41
469.296	315.61
469.505	284.81
469.715	339.64
469.924	294.5
470.134	347.2
470.343	351.65
470.552	290.43
470.762	291.78
470.971	279.38
471.18	282.68
471.39	284.03
471.599	280.35
471.808	322.01
472.018	270.47
472.227	345.06
472.436	322.78
472.645	312.51
472.855	274.54
473.064	353.59
473.273	348.75
473.482	347.2
473.691	372.19
473.901	351.07
474.11	319.68
474.319	400.09
474.528	352.62
474.737	364.44
474.946	350.49
475.155	363.86
475.364	370.64
475.573	346.42
475.783	352.81
475.992	348.94
476.201	396.02
476.41	335.18
476.619	297.01
476.828	356.69
477.037	340.8
477.245	330.15
477.454	388.85
477.663	366.96
477.872	344.87
478.081	430.51
478.29	365.99
478.499	434.58
478.708	413.26
478.917	445.04
479.125	372.19
479.334	384.78
479.543	392.73
479.752	422.95
479.961	412.1
480.169	447.17
480.378	370.44
480.587	543.46
480.796	415.98
481.004	396.02
481.213	457.05
481.422	427.41
481.63	431.67
481.839	469.26
482.048	492.7
482.256	424.69
482.465	443.87
482.674	447.56
482.882	465.77
483.091	505.68
483.299	444.07
483.508	496.57
483.716	433.8
483.925	456.47
484.134	423.73
484.342	444.65
484.551	497.93
484.759	480.11
484.967	492.89
485.176	479.91
485.384	509.94
485.593	513.62
485.801	474.49
486.01	438.64
486.218	414.04
486.426	399.89
486.635	429.73
486.843	429.93
487.051	448.72
487.26	432.83
487.468	488.82
487.676	498.32
487.885	460.54
488.093	478.94
488.301	467.32
488.509	503.94
488.717	522.54
488.926	481.85
489.134	486.5
489.342	506.46
489.55	474.68
489.758	501.42
489.967	489.6
490.175	619.99
490.383	516.72
490.591	578.72
490.799	495.41
491.007	569.23
491.215	548.11
491.423	512.85
491.631	528.35
491.839	556.64
492.047	556.25
492.255	535.32
492.463	511.88
492.671	521.96
492.879	598.49
493.087	539.97
493.295	562.64
493.503	552.57
493.711	584.15
493.919	624.25
494.127	600.62
494.334	620.77
494.542	566.52
494.75	582.21
494.958	583.95
495.166	639.95
495.374	614.57
495.581	616.12
495.789	593.84
495.997	653.51
496.205	586.28
496.412	612.05
496.62	586.47
496.828	615.15
497.035	600.23
497.243	658.74
497.451	607.79
497.658	639.75
497.866	603.14
498.074	642.85
498.281	617.86
498.489	693.81
498.696	628.71
498.904	592.87
499.112	618.25
499.319	691.68
499.527	617.86
499.734	683.54
499.942	612.24
500.149	647.7
500.357	663.2
500.564	641.3
500.771	655.83
500.979	638.01
501.186	637.62
501.394	646.73
501.601	645.95
501.808	684.7
502.016	673.27
502.223	652.35
502.43	681.22
502.638	647.5
502.845	649.05
503.052	757.36
503.26	661.84
503.467	771.89
503.674	681.41
503.881	717.25
504.089	795.53
504.296	735.85
504.503	691.87
504.71	727.91
504.917	687.8
505.125	742.25
505.332	727.52
505.539	742.25
505.746	795.91
505.953	807.93
506.16	790.88
506.367	840.86
506.574	826.14
506.781	835.83
506.988	750.38
507.195	803.28
507.402	779.64
507.609	849.39
507.816	779.45
508.023	820.13
508.23	798.04
508.437	763.56
508.644	832.92
508.851	871.86
509.058	869.54
509.265	819.55
509.472	880.97
509.679	978.62
509.885	854.23
510.092	875.74
510.299	887.75
510.506	878.06
510.713	908.29
510.92	899.18
511.126	915.07
511.333	977.84
511.54	941.61
511.746	994.12
511.953	999.93
512.16	1009.81
512.367	965.64
512.573	955.17
512.78	975.71
512.987	959.24
513.193	1001.87
513.4	881.94
513.606	961.37
513.813	1006.32
514.02	1016.4
514.226	1033.45
514.433	1048.95
514.639	958.66
514.846	1040.42
515.052	981.52
515.259	1036.35
515.465	1024.15
515.672	1035.77
515.878	1143.88
516.085	1049.72
516.291	1104.55
516.497	1060.38
516.704	1051.47
516.91	1002.84
517.117	983.46
517.323	951.49
517.529	1008.65
517.736	991.6
517.942	1017.75
518.148	1033.06
518.354	1053.21
518.561	1060.38
518.767	1089.05
518.973	1099.52
519.179	1140.98
519.386	1119.67
519.592	1097.97
519.798	1116.76
520.004	1244.83
520.21	1189.41
520.417	1222.93
520.623	1250.64
520.829	1244.63
521.035	1295.39
521.241	1268.27
521.447	1280.28
521.653	1390.33
521.859	1290.55
522.065	1330.85
522.271	1389.75
522.477	1339.76
522.683	1384.32
522.889	1393.24
523.095	1339.37
523.301	1375.22
523.507	1307.41
523.713	1348.29
523.919	1345.19
524.125	1435.47
524.331	1435.67
524.537	1462.6
524.742	1475.39
524.948	1473.84
525.154	1496.31
525.36	1595.31
525.566	1513.75
525.772	1556.18
525.977	1489.72
526.183	1507.93
526.389	1525.95
526.595	1443.03
526.8	1458.14
527.006	1448.26
527.212	1372.31
527.417	1407.96
527.623	1390.52
527.829	1477.13
528.034	1483.33
528.24	1492.43
528.446	1491.47
528.651	1596.09
528.857	1556.57
529.062	1674.17
529.268	1601.71
529.473	1660.41
529.679	1620.7
529.884	1672.04
530.09	1642.78
530.295	1702.26
530.501	1658.86
530.706	1641.62
530.912	1655.57
531.117	1689.48
531.323	1675.91
531.528	1723.96
531.733	1728.23
531.939	1707.69
532.144	1734.23
532.35	1744.89
532.555	1766.59
532.76	1713.31
532.966	1723.77
533.171	1686.18
533.376	1681.73
533.581	1679.79
533.787	1717.38
533.992	1753.22
534.197	1788.09
534.402	1731.33
534.607	1764.26
534.813	1832.46
535.018	1753.61
535.223	1795.84
535.428	1809.99
535.633	1829.17
535.838	1830.52
536.043	1822
536.249	1921
536.454	1848.54
536.659	1899.11
536.864	1838.47
537.069	1832.66
537.274	1840.02
537.479	1828.2
537.684	1884
537.889	1816.96
538.094	1933.21
538.299	1882.84
538.504	1904.92
538.708	1916.55
538.913	1917.52
539.118	1893.3
539.323	1908.41
539.528	1854.94
539.733	1851.84
539.938	1922.17
540.142	1884.19
540.347	1894.46
540.552	1848.93
540.757	1825.68
540.962	1814.25
541.166	1837.3
541.371	1799.33
541.576	1876.83
541.781	1787.9
541.985	1904.15
542.19	1902.21
542.395	1930.5
542.599	1975.25
542.804	1908.6
543.008	1914.42
543.213	1898.53
543.418	1880.9
543.622	1939.99
543.827	1843.12
544.031	1938.63
544.236	1995.79
544.44	1965.37
544.645	2000.63
544.849	1945.8
545.054	2000.44
545.258	2032.6
545.463	2017.1
545.667	1929.92
545.872	2004.7
546.076	1977.77
546.281	1971.96
546.485	1957.62
546.689	2004.9
546.894	2040.35
547.098	1998.31
547.302	1978.55
547.507	1975.06
547.711	2006.64
547.915	2037.45
548.119	1945.42
548.324	1948.9
548.528	2034.93
548.732	1971.77
548.936	2008.38
549.141	2024.08
549.345	2002.38
549.549	2008
549.753	2025.82
549.957	2099.25
550.161	2066.31
550.366	2038.41
550.57	2008
550.774	2018.85
550.978	2024.27
551.182	2062.44
551.386	1996.37
551.59	2038.03
551.794	1988.82
551.998	2070.38
552.202	2035.12
552.406	1979.13
552.61	2045.2
552.814	2032.6
553.018	2125.02
553.222	2003.54
553.426	2042.87
553.63	2110.88
553.833	2033.76
554.037	1989.59
554.241	2043.26
554.445	2073.29
554.649	2031.63
554.853	2017.3
555.056	2062.25
555.26	2087.82
555.464	2086.66
555.668	2035.51
555.871	2078.33
556.075	2092.86
556.279	2002.38
556.483	2010.13
556.686	2021.17
556.89	2029.89
557.094	2024.85
557.297	1939.02
557.501	2026.98
557.704	1925.46
557.908	2044.42
558.112	1976.61
558.315	1989.59
558.519	1970.02
558.722	1971.18
558.926	1932.24
559.129	1861.52
559.333	1862.49
559.536	1933.21
559.74	1893.88
559.943	1886.9
560.147	1867.92
560.35	1909.57
560.553	1924.88
560.757	1832.46
560.96	1976.03
561.164	1872.57
561.367	1991.14
561.57	1905.5
561.774	1900.08
561.977	1872.76
562.18	1842.54
562.384	1972.93
562.587	1896.59
562.79	1906.86
562.993	1885.35
563.197	1873.34
563.4	1954.72
563.603	1946.58
563.806	1954.13
564.009	1888.65
564.212	1895.24
564.416	1824.52
564.619	1898.72
564.822	1797.2
565.025	1898.53
565.228	1834.4
565.431	1834.4
565.634	1757.87
565.837	1774.34
566.04	1753.99
566.243	1783.83
566.446	1714.28
566.649	1753.02
566.852	1750.12
567.055	1737.91
567.258	1764.84
567.461	1805.92
567.664	1786.54
567.867	1692.19
568.07	1752.44
568.273	1743.34
568.475	1793.71
568.678	1707.3
568.881	1743.73
569.084	1715.63
569.287	1612.95
569.489	1663.32
569.692	1687.34
569.895	1693.16
570.098	1610.23
570.3	1601.32
570.503	1577.1
570.706	1591.63
570.909	1586.98
571.111	1562.77
571.314	1503.67
571.516	1579.23
571.719	1585.63
571.922	1549.4
572.124	1553.85
572.327	1562.38
572.529	1535.45
572.732	1535.64
572.935	1550.56
573.137	1622.83
573.34	1550.56
573.542	1561.6
573.745	1564.7
573.947	1598.41
574.15	1548.62
574.352	1471.9
574.554	1574.97
574.757	1480.04
574.959	1477.9
575.162	1475
575.364	1450.97
575.566	1556.37
575.769	1459.11
575.971	1487.78
576.173	1399.82
576.376	1487.4
576.578	1502.32
576.78	1513.36
576.982	1406.02
577.185	1452.14
577.387	1424.82
577.589	1451.55
577.791	1454.65
577.993	1456.59
578.196	1387.81
578.398	1448.45
578.6	1422.1
578.802	1377.93
579.004	1383.74
579.206	1395.95
579.408	1401.57
579.61	1376.57
579.812	1443.22
580.014	1398.08
580.216	1415.32
580.418	1397.89
580.62	1407.96
580.822	1340.15
581.024	1392.66
581.226	1437.41
581.428	1404.86
581.63	1478.29
581.832	1402.73
582.034	1432.18
582.236	1415.13
582.438	1424.24
582.64	1496.12
582.841	1476.94
583.043	1516.85
583.245	1444.97
583.447	1452.52
583.649	1416.29
583.85	1479.26
584.052	1452.33
584.254	1357.2
584.456	1437.41
584.657	1367.66
584.859	1374.25
585.061	1401.95
585.262	1404.09
585.464	1360.11
585.666	1420.36
585.867	1365.34
586.069	1452.52
586.27	1380.64
586.472	1376.77
586.674	1356.81
586.875	1334.92
587.077	1341.31
587.278	1361.27
587.48	1346.74
587.681	1459.89
587.883	1368.05
588.084	1305.47
588.285	1320.58
588.487	1288.03
588.688	1338.41
588.89	1247.93
589.091	1200.46
589.292	1241.73
589.494	1189.22
589.695	1179.73
589.896	1096.61
590.098	1121.41
590.299	1165.78
590.5	1117.53
590.702	1180.31
590.903	1190.38
591.104	1265.75
591.305	1238.63
591.507	1262.07
591.708	1242.69
591.909	1227.19
592.11	1265.75
592.311	1238.43
592.512	1228.36
592.714	1204.33
592.915	1212.08
593.116	1209.95
593.317	1215.57
593.518	1213.44
593.719	1238.82
593.92	1231.84
594.121	1285.32
594.322	1250.83
594.523	1220.03
594.724	1206.46
594.925	1215.38
595.126	1197.94
595.327	1231.07
595.528	1255.48
595.729	1214.41
595.929	1214.99
596.13	1244.63
596.331	1224.48
596.532	1243.08
596.733	1284.35
596.934	1241.34
597.135	1242.31
597.335	1243.28
597.536	1173.72
597.737	1258
597.938	1191.16
598.138	1214.8
598.339	1213.83
598.54	1206.27
598.74	1214.99
598.941	1209.37
599.142	1251.99
599.342	1250.06
599.543	1207.24
599.744	1195.81
599.944	1181.08
600.145	1212.47
600.345	1210.53
600.546	1263.81
600.746	1269.63
600.947	1286.09
601.147	1259.74
601.348	1264.78
601.548	1177.4
601.749	1257.23
601.949	1160.93
602.15	1165.2
602.35	1194.26
602.551	1227.39
602.751	1194.06
602.951	1215.76
603.152	1132.26
603.352	1222.16
603.552	1184.38
603.753	1269.43
603.953	1233.39
604.153	1216.93
604.354	1199.49
604.554	1187.28
604.754	1207.24
604.954	1148.92
605.155	1207.05
605.355	1192.13
605.555	1208.21
605.755	1250.44
605.955	1207.05
606.155	1239.21
606.356	1183.99
606.556	1219.06
606.756	1199.68
606.956	1129.93
607.156	1240.76
607.356	1178.76
607.556	1179.92
607.756	1163.26
607.956	1229.71
608.156	1220.8
608.356	1176.24
608.556	1208.79
608.756	1183.8
608.956	1159.96
609.156	1158.03
609.356	1139.62
609.556	1141.36
609.755	1151.83
609.955	1120.05
610.155	1158.03
610.355	1168.3
610.555	1123.54
610.755	1128.38
610.954	1066.97
611.154	1146.4
611.354	1160.16
611.554	1110.75
611.753	1107.65
611.953	1077.43
612.153	1159.58
612.352	1131.48
612.552	1070.65
612.752	1054.37
612.951	1105.72
613.151	1101.26
613.351	1072.39
613.55	1077.43
613.75	1111.53
613.949	1049.14
614.149	1124.32
614.348	1079.56
614.548	1053.79
614.747	1029.96
614.947	1070.07
615.146	999.74
615.346	1057.86
615.545	1044.49
615.745	1067.35
615.944	1087.5
616.144	1074.33
616.343	1033.45
616.542	1009.23
616.742	1045.46
616.941	1013.69
617.14	962.15
617.34	1027.64
617.539	1037.13
617.738	1015.24
617.938	1076.65
618.137	1038.1
618.336	1006.13
618.535	1023.95
618.734	978.81
