Data from gum_young_FLMT105791__72__17-39-30-043.txt Node

Date: Mon Mar 20 17:39:30 GMT 2023
User: antho
Spectrometer: FLMT10579
Trigger mode: 0
Integration Time (sec): 1.000000E-1
Scans to average: 10
Electric dark correction enabled: true
Nonlinearity correction enabled: false
Boxcar width: 0
XAxis mode: Wavelengths
Number of Pixels in Spectrum: 3648
>>>>>Begin Spectral Data<<<<<
345.248	-127.68
345.464	-127.68
345.681	-127.68
345.898	-144.15
346.114	-147.64
346.331	-15.11
346.548	2.13
346.764	-4.07
346.981	4.84
347.197	5.42
347.414	3.1
347.631	-9.3
347.847	49.41
348.064	-10.66
348.28	22.09
348.497	-35.46
348.713	-12.4
348.93	37.01
349.146	19.37
349.363	2.71
349.579	41.46
349.796	2.71
350.012	8.52
350.229	22.28
350.445	22.86
350.661	-18.99
350.878	0
351.094	15.31
351.311	-9.11
351.527	-8.72
351.743	5.62
351.96	39.72
352.176	45.14
352.392	29.26
352.609	40.88
352.825	-19.18
353.041	-24.8
353.257	22.47
353.474	18.79
353.69	4.84
353.906	19.96
354.122	-17.44
354.339	45.92
354.555	-4.26
354.771	-16.66
354.987	62.58
355.203	53.86
355.42	-17.82
355.636	-27.32
355.852	-5.62
356.068	15.31
356.284	-38.94
356.5	67.04
356.716	-1.94
356.932	4.65
357.148	-3.49
357.364	4.65
357.58	55.8
357.796	62.97
358.012	39.72
358.228	29.45
358.444	-45.14
358.66	48.63
358.876	45.14
359.092	-4.26
359.308	23.44
359.524	34.49
359.74	27.12
359.956	-33.32
360.172	22.86
360.388	51.15
360.604	2.13
360.819	64.52
361.035	31.39
361.251	12.59
361.467	-5.23
361.683	50.57
361.898	-17.05
362.114	30.61
362.33	7.75
362.546	56.77
362.762	4.07
362.977	22.86
363.193	11.62
363.409	53.09
363.624	-14.92
363.84	21.89
364.056	11.62
364.271	23.06
364.487	-5.81
364.703	15.69
364.918	-10.46
365.134	9.69
365.35	16.47
365.565	93.19
365.781	27.51
365.996	13.56
366.212	69.75
366.427	19.96
366.643	-12.59
366.858	23.06
367.074	-12.59
367.289	74.21
367.505	101.33
367.72	-36.42
367.936	-2.91
368.151	46.31
368.367	38.56
368.582	20.73
368.798	10.46
369.013	68.97
369.228	1.36
369.444	15.69
369.659	70.33
369.874	26.35
370.09	65.1
370.305	-25.38
370.52	20.15
370.736	59.09
370.951	22.28
371.166	73.04
371.381	57.54
371.597	55.22
371.812	10.07
372.027	-1.16
372.242	10.46
372.458	80.41
372.673	2.32
372.888	25.57
373.103	41.66
373.318	79.05
373.533	31.19
373.749	62.19
373.964	-5.42
374.179	60.64
374.394	13.37
374.609	81.96
374.824	-2.91
375.039	60.45
375.254	-2.71
375.469	71.49
375.684	7.75
375.899	54.06
376.114	24.02
376.329	39.52
376.544	48.24
376.759	40.11
376.974	-9.11
377.189	15.31
377.404	-2.71
377.619	71.3
377.834	-21.7
378.049	-26.35
378.264	4.07
378.478	39.91
378.693	-25.96
378.908	17.05
379.123	17.82
379.338	51.34
379.553	33.71
379.767	18.41
379.982	39.33
380.197	68.2
380.412	3.49
380.626	44.37
380.841	94.74
381.056	27.12
381.271	76.34
381.485	20.73
381.7	-16.08
381.915	10.46
382.129	8.33
382.344	37.78
382.559	20.34
382.773	53.09
382.988	-20.34
383.202	24.8
383.417	-14.72
383.632	106.37
383.846	40.69
384.061	21.51
384.275	-1.94
384.49	31.19
384.704	56.96
384.919	44.17
385.133	26.93
385.348	58.51
385.562	1.36
385.777	79.82
385.991	18.41
386.206	26.35
386.42	2.52
386.634	75.56
386.849	50.37
387.063	50.76
387.277	12.59
387.492	5.23
387.706	-34.87
387.92	21.89
388.135	56.57
388.349	48.44
388.563	23.64
388.778	41.66
388.992	65.29
389.206	55.99
389.42	119.15
389.635	12.01
389.849	58.9
390.063	73.24
390.277	69.94
390.491	96.29
390.706	60.64
390.92	57.93
391.134	24.22
391.348	77.69
391.562	6.97
391.776	50.96
391.99	35.46
392.205	72.27
392.419	38.75
392.633	28.67
392.847	57.54
393.061	43.01
393.275	93.97
393.489	29.26
393.703	43.21
393.917	73.04
394.131	44.56
394.345	83.51
394.559	106.75
394.773	14.14
394.986	43.21
395.2	25.77
395.414	85.44
395.628	-5.42
395.842	58.12
396.056	41.46
396.27	-11.04
396.484	53.09
396.697	49.21
396.911	80.41
397.125	81.96
397.339	70.72
397.553	48.44
397.766	99.2
397.98	94.74
398.194	77.11
398.408	59.48
398.621	63.16
398.835	46.31
399.049	68.97
399.262	99.97
399.476	72.27
399.69	67.04
399.903	114.7
400.117	80.99
400.331	82.34
400.544	42.04
400.758	160.23
400.971	104.04
401.185	111.99
401.398	59.67
401.612	94.55
401.826	112.95
402.039	102.88
402.253	34.68
402.466	96.68
402.68	73.24
402.893	95.32
403.106	63.74
403.32	72.27
403.533	93.97
403.747	85.44
403.96	87.57
404.174	107.72
404.387	68.2
404.6	67.42
404.814	104.82
405.027	99
405.24	74.59
405.454	88.54
405.667	121.67
405.88	44.37
406.094	71.49
406.307	105.98
406.52	101.33
406.733	57.54
406.947	68.39
407.16	127.1
407.373	138.14
407.586	54.83
407.799	75.56
408.012	107.92
408.226	110.24
408.439	138.72
408.652	55.61
408.865	90.48
409.078	101.33
409.291	102.69
409.504	53.28
409.717	96.68
409.93	107.14
410.143	103.85
410.357	16.86
410.57	34.49
410.783	60.84
410.996	99.39
411.209	92.22
411.421	134.46
411.634	110.05
411.847	68.78
412.06	114.31
412.273	100.75
412.486	87.96
412.699	161.97
412.912	96.87
413.125	127.1
413.338	106.56
413.55	145.31
413.763	100.94
413.976	98.62
414.189	77.11
414.402	79.44
414.615	161.39
414.827	78.86
415.04	122.84
415.253	127.29
415.466	124.77
415.678	160.04
415.891	122.45
416.104	106.56
416.316	116.05
416.529	89.32
416.742	148.8
416.954	137.95
417.167	111.4
417.38	76.72
417.592	149.19
417.805	89.12
418.017	72.07
418.23	151.51
418.442	92.03
418.655	108.3
418.868	120.51
419.08	128.07
419.293	155.77
419.505	147.44
419.718	132.52
419.93	149.96
420.142	118.77
420.355	173.21
420.567	182.7
420.78	149.57
420.992	131.17
421.205	195.49
421.417	94.55
421.629	108.69
421.842	113.54
422.054	105.4
422.266	145.7
422.479	169.53
422.691	86.02
422.903	136.79
423.115	140.08
423.328	119.93
423.54	153.06
423.752	125.55
423.964	85.83
424.177	133.49
424.389	130.78
424.601	222.03
424.813	148.8
425.025	167.79
425.238	153.64
425.45	116.05
425.662	115.67
425.874	372.38
426.086	157.71
426.298	141.44
426.51	138.14
426.722	118.57
426.934	105.59
427.146	142.02
427.358	90.29
427.57	173.6
427.782	137.17
427.994	142.02
428.206	132.52
428.418	126.13
428.63	146.47
428.842	154.42
429.054	144.73
429.266	170.3
429.478	131.94
429.69	153.64
429.902	93.97
430.114	183.09
430.325	128.45
430.537	99.78
430.749	116.44
430.961	82.34
431.173	126.52
431.384	149.96
431.596	41.27
431.808	136.79
432.02	152.67
432.231	156.74
432.443	181.54
432.655	145.12
432.867	131.36
433.078	164.49
433.29	209.05
433.502	183.09
433.713	173.6
433.925	165.27
434.136	181.73
434.348	133.3
434.56	114.31
434.771	254.97
434.983	122.84
435.194	140.27
435.406	149.19
435.617	185.61
435.829	223.2
436.04	196.65
436.252	176.7
436.463	218.35
436.675	196.46
436.886	186.38
437.098	201.3
437.309	211.77
437.521	199.37
437.732	218.55
437.943	201.88
438.155	191.23
438.366	183.87
438.578	235.98
438.789	196.27
439	196.46
439.211	181.93
439.423	200.33
439.634	187.93
439.845	201.11
440.057	184.06
440.268	213.51
440.479	167.4
440.69	206.34
440.902	191.03
441.113	188.52
441.324	185.42
441.535	205.37
441.746	261.56
441.957	188.52
442.168	205.95
442.38	191.62
442.591	243.15
442.802	189.1
443.013	207.89
443.224	205.76
443.435	205.37
443.646	193.55
443.857	198.59
444.068	172.63
444.279	187.55
444.49	289.26
444.701	238.31
444.912	295.27
445.123	257.3
445.334	222.23
445.545	242.96
445.756	229.98
445.967	209.25
446.178	246.06
446.388	266.79
446.599	240.63
446.81	248.58
447.021	204.79
447.232	256.52
447.443	290.81
447.653	213.12
447.864	272.21
448.075	224.75
448.286	285.58
448.496	243.93
448.707	283.06
448.918	250.9
449.129	330.92
449.339	221.84
449.55	266.21
449.761	213.32
449.971	281.9
450.182	247.61
450.393	267.18
450.603	251.29
450.814	299.53
451.024	281.32
451.235	283.26
451.446	314.06
451.656	310.77
451.867	264.66
452.077	287.52
452.288	302.44
452.498	333.83
452.709	273.76
452.919	317.75
453.13	258.07
453.34	286.55
453.55	230.75
453.761	285
453.971	283.26
454.182	298.18
454.392	297.01
454.602	331.31
454.813	275.12
455.023	305.35
455.233	253.03
455.444	268.53
455.654	230.37
455.864	290.81
456.075	272.21
456.285	282.48
456.495	275.9
456.705	295.46
456.916	350.1
457.126	346.23
457.336	287.33
457.546	226.1
457.756	263.69
457.967	328.6
458.177	286.55
458.387	299.73
458.597	268.73
458.807	287.91
459.017	286.36
459.227	277.83
459.437	306.31
459.647	309.03
459.857	309.22
460.068	277.06
460.278	349.33
460.488	301.66
460.698	346.23
460.908	303.99
461.117	277.25
461.327	304.57
461.537	307.86
461.747	324.53
461.957	295.27
462.167	392.14
462.377	344.1
462.587	312.51
462.797	346.42
463.007	320.07
463.216	341.19
463.426	352.43
463.636	360.18
463.846	265.24
464.056	284.61
464.265	330.34
464.475	270.08
464.685	344.68
464.895	339.06
465.104	304.38
465.314	354.75
465.524	324.33
465.733	323.17
465.943	405.51
466.153	396.02
466.362	361.53
466.572	334.02
466.782	321.04
466.991	331.11
467.201	378
467.41	277.06
467.62	343.32
467.829	344.48
468.039	379.16
468.249	310.19
468.458	342.93
468.668	372.38
468.877	356.88
469.086	381.88
469.296	397.57
469.505	339.25
469.715	399.7
469.924	385.94
470.134	399.51
470.343	387.69
470.552	365.02
470.762	383.23
470.971	344.48
471.18	342.35
471.39	371.8
471.599	341.58
471.808	384.59
472.018	353.59
472.227	409.39
472.436	424.89
472.645	394.66
472.855	368.31
473.064	411.91
473.273	427.6
473.482	417.14
473.691	430.7
473.901	436.71
474.11	376.45
474.319	495.99
474.528	429.73
474.737	453.17
474.946	442.52
475.155	437.48
475.364	464.99
475.573	438.06
475.783	452.01
475.992	465.96
476.201	462.09
476.41	401.06
476.619	427.79
476.828	450.66
477.037	401.44
477.245	451.82
477.454	490.96
477.663	438.45
477.872	457.63
478.081	542.88
478.29	441.94
478.499	567.87
478.708	474.68
478.917	549.27
479.125	475.46
479.334	487.86
479.543	484.76
479.752	518.08
479.961	522.15
480.169	532.22
480.378	486.11
480.587	590.35
480.796	554.12
481.004	524.47
481.213	536.1
481.422	546.17
481.63	549.85
481.839	559.54
482.048	588.99
482.256	558.57
482.465	539.78
482.674	587.44
482.882	570
483.091	600.04
483.299	575.04
483.508	556.05
483.716	587.25
483.925	561.09
484.134	549.27
484.342	563.42
484.551	613.98
484.759	596.94
484.967	624.45
485.176	606.04
485.384	585.7
485.593	608.37
485.801	586.28
486.01	567.49
486.218	561.29
486.426	505.49
486.635	528.74
486.843	523.7
487.051	559.15
487.26	546.37
487.468	590.74
487.676	603.14
487.885	558.38
488.093	628.52
488.301	639.75
488.509	635.88
488.717	637.62
488.926	615.15
489.134	602.75
489.342	625.42
489.55	607.01
489.758	633.36
489.967	633.94
490.175	710.86
490.383	625.03
490.591	733.14
490.799	650.41
491.007	679.86
491.215	670.37
491.423	658.35
491.631	665.13
491.839	663.58
492.047	704.08
492.255	622.51
492.463	614.18
492.671	631.42
492.879	698.85
493.087	687.42
493.295	678.31
493.503	693.42
493.711	713.57
493.919	745.35
494.127	724.61
494.334	765.69
494.542	671.92
494.75	723.06
494.958	717.45
495.166	789.71
495.374	799.4
495.581	789.13
495.789	765.3
495.997	805.79
496.205	782.35
496.412	759.3
496.62	753.29
496.828	791.65
497.035	759.3
497.243	807.73
497.451	780.8
497.658	787
497.866	780.03
498.074	851.71
498.281	776.73
498.489	854.04
498.696	804.24
498.904	769.37
499.112	790.68
499.319	861.79
499.527	795.33
499.734	862.95
499.942	797.85
500.149	789.33
500.357	837.38
500.564	771.31
500.771	817.03
500.979	793.78
501.186	793.78
501.394	845.13
501.601	824.2
501.808	857.33
502.016	792.81
502.223	811.99
502.43	822.84
502.638	818.39
502.845	800.76
503.052	893.17
503.26	845.32
503.467	892.4
503.674	894.53
503.881	861.98
504.089	938.12
504.296	928.63
504.503	852.49
504.71	872.44
504.917	865.28
505.125	922.82
505.332	918.94
505.539	929.02
505.746	974.16
505.953	969.7
506.16	956.53
506.367	1017.56
506.574	1021.44
506.781	1042.55
506.988	954.79
507.195	965.64
507.402	996.25
507.609	1051.85
507.816	938.71
508.023	952.27
508.23	1019.3
508.437	964.09
508.644	1012.14
508.851	1058.63
509.058	1067.35
509.265	1048.37
509.472	1071.62
509.679	1148.34
509.885	1080.72
510.092	1073.94
510.299	1098.74
510.506	1100.87
510.713	1102.03
510.92	1086.92
511.126	1162.68
511.333	1183.41
511.54	1176.82
511.746	1210.53
511.953	1206.85
512.16	1194.84
512.367	1167.71
512.573	1167.71
512.78	1207.82
512.987	1178.18
513.193	1189.41
513.4	1147.18
513.606	1212.66
513.813	1234.75
514.02	1203.75
514.226	1321.36
514.433	1283.58
514.639	1214.8
514.846	1236.88
515.052	1263.23
515.259	1269.63
515.465	1252.96
515.672	1251.41
515.878	1334.53
516.085	1320.19
516.291	1328.91
516.497	1287.06
516.704	1297.14
516.91	1236.69
517.117	1210.53
517.323	1200.26
517.529	1199.68
517.736	1229.13
517.942	1269.63
518.148	1269.04
518.354	1316.32
518.561	1331.43
518.767	1321.16
518.973	1362.04
519.179	1369.21
519.386	1369.79
519.592	1366.5
519.798	1368.82
520.004	1515.3
520.21	1435.09
520.417	1522.27
520.623	1542.03
520.829	1548.82
521.035	1531.96
521.241	1544.36
521.447	1568.97
521.653	1662.93
521.859	1578.26
522.065	1584.66
522.271	1711.56
522.477	1667
522.683	1673.98
522.889	1692.19
523.095	1650.92
523.301	1655.57
523.507	1670.1
523.713	1688.12
523.919	1655.96
524.125	1735.01
524.331	1739.85
524.537	1811.34
524.742	1850.67
524.948	1853
525.154	1880.51
525.36	1916.74
525.566	1820.84
525.772	1882.45
525.977	1819.67
526.183	1856.87
526.389	1867.14
526.595	1817.54
526.8	1811.34
527.006	1733.26
527.212	1710.59
527.417	1667.39
527.623	1720.67
527.829	1800.88
528.034	1802.62
528.24	1847.96
528.446	1839.44
528.651	1934.57
528.857	1995.02
529.062	2012.26
529.268	2008.97
529.473	2017.68
529.679	2025.24
529.884	2070.58
530.09	2081.62
530.295	2032.02
530.501	2079.49
530.706	2039
530.912	2015.94
531.117	2062.83
531.323	2092.28
531.528	2108.16
531.733	2158.34
531.939	2094.21
532.144	2121.73
532.35	2088.6
532.555	2163.38
532.76	2080.65
532.966	2129.48
533.171	2077.55
533.376	2070.96
533.581	2032.8
533.787	2081.62
533.992	2141.1
534.197	2126.38
534.402	2162.22
534.607	2171.91
534.813	2237.97
535.018	2155.63
535.223	2192.44
535.428	2177.53
535.633	2240.49
535.838	2268.59
536.043	2263.74
536.249	2360.03
536.454	2236.23
536.659	2293.97
536.864	2238.17
537.069	2228.67
537.274	2309.85
537.479	2287.19
537.684	2271.3
537.889	2214.92
538.094	2347.25
538.299	2260.84
538.504	2342.02
538.708	2303.46
538.913	2346.67
539.118	2337.56
539.323	2299.39
539.528	2299
539.733	2272.27
539.938	2331.17
540.142	2314.5
540.347	2294.55
540.552	2320.51
540.757	2248.05
540.962	2234.87
541.166	2224.99
541.371	2208.52
541.576	2291.06
541.781	2225.38
541.985	2344.92
542.19	2332.33
542.395	2392.39
542.599	2406.34
542.804	2360.23
543.008	2384.25
543.213	2353.64
543.418	2293
543.622	2386.77
543.827	2315.86
544.031	2417.19
544.236	2443.73
544.44	2427.65
544.645	2445.87
544.849	2418.16
545.054	2457.3
545.258	2531.7
545.463	2484.61
545.667	2402.66
545.872	2461.36
546.076	2420.29
546.281	2436.18
546.485	2410.99
546.689	2442.96
546.894	2476.09
547.098	2466.21
547.302	2431.53
547.507	2472.21
547.711	2435.02
547.915	2491.01
548.119	2412.35
548.324	2424.36
548.528	2485.58
548.732	2447.8
548.936	2504.18
549.141	2510.19
549.345	2478.03
549.549	2524.33
549.753	2501.86
549.957	2584.39
550.161	2552.04
550.366	2489.07
550.57	2509.41
550.774	2505.35
550.978	2543.13
551.182	2521.62
551.386	2478.03
551.59	2485.2
551.794	2498.37
551.998	2540.03
552.202	2502.25
552.406	2491.4
552.61	2558.43
552.814	2498.76
553.018	2564.83
553.222	2484.03
553.426	2529.18
553.63	2604.54
553.833	2469.5
554.037	2477.25
554.241	2523.56
554.445	2557.27
554.649	2515.42
554.853	2528.01
555.056	2571.61
555.26	2546.42
555.464	2562.69
555.668	2523.95
555.871	2535.18
556.075	2588.66
556.279	2533.83
556.483	2440.44
556.686	2488.49
556.89	2528.4
557.094	2505.35
557.297	2445.09
557.501	2482.87
557.704	2394.33
557.908	2471.63
558.112	2431.72
558.315	2537.12
558.519	2433.47
558.722	2415.25
558.926	2419.32
559.129	2326.32
559.333	2334.85
559.536	2372.63
559.74	2310.24
559.943	2258.51
560.147	2301.72
560.35	2316.05
560.553	2369.92
560.757	2324.39
560.96	2413.51
561.164	2352.67
561.367	2420.68
561.57	2370.11
561.774	2368.37
561.977	2315.09
562.18	2306.56
562.384	2411.57
562.587	2343.18
562.79	2327.1
562.993	2329.42
563.197	2378.63
563.4	2370.69
563.603	2392.58
563.806	2393.36
564.009	2315.09
564.212	2308.5
564.416	2274.59
564.619	2295.9
564.822	2219.96
565.025	2309.27
565.228	2276.34
565.431	2278.27
565.634	2188.37
565.837	2193.8
566.04	2187.02
566.243	2191.09
566.446	2106.61
566.649	2159.89
566.852	2135.29
567.055	2159.7
567.258	2162.22
567.461	2216.86
567.664	2213.56
567.867	2131.41
568.07	2174.23
568.273	2138.58
568.475	2205.42
568.678	2103.71
568.881	2101.19
569.084	2104.68
569.287	1999.67
569.489	2013.61
569.692	2114.36
569.895	2069.03
570.098	1998.31
570.3	2016.13
570.503	1932.63
570.706	1968.86
570.909	1944.06
571.111	1892.52
571.314	1922.36
571.516	1942.12
571.719	1941.35
571.922	1921.39
572.124	1899.5
572.327	1911.32
572.529	1874.31
572.732	1916.35
572.935	1942.51
573.137	1958.01
573.34	1912.48
573.542	1951.42
573.745	1873.34
573.947	1890.2
574.15	1885.55
574.352	1847.19
574.554	1964.4
574.757	1853.97
574.959	1864.62
575.162	1830.52
575.364	1797.59
575.566	1882.64
575.769	1755.74
575.971	1796.04
576.173	1721.25
576.376	1781.12
576.578	1822.77
576.78	1841.95
576.982	1707.49
577.185	1776.08
577.387	1724.54
577.589	1722.03
577.791	1774.34
577.993	1797.2
578.196	1741.21
578.398	1780.73
578.6	1769.69
578.802	1702.46
579.004	1687.73
579.206	1693.16
579.408	1762.71
579.61	1688.51
579.812	1747.79
580.014	1736.94
580.216	1699.55
580.418	1717.38
580.62	1707.49
580.822	1688.12
581.024	1739.08
581.226	1774.53
581.428	1733.65
581.63	1811.34
581.832	1685.21
582.034	1747.79
582.236	1753.61
582.438	1763.29
582.64	1789.64
582.841	1782.67
583.043	1819.29
583.245	1757.29
583.447	1794.1
583.649	1733.84
583.85	1760.19
584.052	1793.32
584.254	1725.13
584.456	1762.52
584.657	1666.81
584.859	1715.63
585.061	1699.94
585.262	1728.03
585.464	1668.94
585.666	1731.71
585.867	1674.17
586.069	1740.43
586.27	1666.42
586.472	1672.23
586.674	1673.98
586.875	1655.96
587.077	1687.93
587.278	1675.53
587.48	1666.81
587.681	1750.12
587.883	1667.97
588.084	1612.95
588.285	1601.71
588.487	1610.43
588.688	1620.31
588.89	1514.33
589.091	1517.62
589.292	1494.76
589.494	1458.72
589.695	1426.37
589.896	1366.5
590.098	1352.74
590.299	1432.18
590.5	1399.44
590.702	1435.86
590.903	1481.39
591.104	1525.76
591.305	1513.17
591.507	1543.2
591.708	1525.95
591.909	1498.44
592.11	1564.9
592.311	1550.56
592.512	1496.89
592.714	1428.69
592.915	1481.59
593.116	1491.47
593.317	1528.08
593.518	1490.5
593.719	1517.04
593.92	1542.42
594.121	1553.66
594.322	1516.65
594.523	1483.14
594.724	1454.65
594.925	1506.97
595.126	1502.9
595.327	1486.04
595.528	1479.07
595.729	1500.96
595.929	1481.97
596.13	1506
596.331	1537.19
596.532	1490.3
596.733	1562.18
596.934	1521.69
597.135	1515.3
597.335	1553.85
597.536	1503.09
597.737	1527.7
597.938	1430.63
598.138	1489.53
598.339	1444.97
598.54	1512.39
598.74	1491.47
598.941	1497.28
599.142	1542.81
599.342	1520.92
599.543	1458.53
599.744	1491.85
599.944	1477.9
600.145	1508.13
600.345	1501.73
600.546	1565.28
600.746	1533.12
600.947	1576.13
601.147	1461.63
601.348	1488.37
601.548	1461.44
601.749	1478.49
601.949	1415.13
602.15	1438.77
602.35	1467.44
602.551	1475.19
602.751	1418.81
602.951	1445.74
603.152	1400.4
603.352	1493.79
603.552	1489.72
603.753	1503.09
603.953	1505.42
604.153	1509.87
604.354	1458.92
604.554	1494.57
604.754	1476.94
604.954	1439.74
605.155	1478.49
605.355	1488.75
605.555	1521.11
605.755	1509.87
605.955	1481.39
606.155	1475.39
606.356	1485.65
606.556	1492.82
606.756	1473.06
606.956	1428.3
607.156	1488.17
607.356	1478.68
607.556	1476.35
607.756	1459.5
607.956	1497.47
608.156	1459.3
608.356	1437.6
608.556	1431.02
608.756	1441.48
608.956	1417.07
609.156	1407.77
609.356	1370.76
609.556	1392.07
609.755	1389.36
609.955	1360.88
610.155	1394.98
610.355	1389.56
610.555	1377.16
610.755	1364.17
610.954	1315.74
611.154	1369.02
611.354	1408.54
611.554	1348.48
611.753	1332.4
611.953	1308.96
612.153	1392.27
612.352	1396.72
612.552	1331.04
612.752	1288.23
612.951	1361.46
613.151	1346.93
613.351	1305.47
613.55	1355.46
613.75	1312.64
613.949	1292.49
614.149	1338.21
614.348	1332.01
614.548	1316.12
614.747	1237.08
614.947	1266.72
615.146	1216.54
615.346	1365.72
615.545	1292.68
615.745	1271.95
615.944	1322.32
616.144	1291.33
616.343	1243.47
616.542	1262.84
616.742	1267.49
616.941	1278.73
617.14	1175.85
617.34	1227.97
617.539	1238.04
617.738	1220.41
