Data from gum_young_FLMT105791__40__17-38-39-044.txt Node

Date: Mon Mar 20 17:38:39 GMT 2023
User: antho
Spectrometer: FLMT10579
Trigger mode: 0
Integration Time (sec): 1.000000E-1
Scans to average: 10
Electric dark correction enabled: true
Nonlinearity correction enabled: false
Boxcar width: 0
XAxis mode: Wavelengths
Number of Pixels in Spectrum: 3648
>>>>>Begin Spectral Data<<<<<
345.248	-147.96
345.464	-147.96
345.681	-147.96
345.898	-150.09
346.114	-130.52
346.331	-28.61
346.548	26.8
346.764	-8.07
346.981	-9.04
347.197	-20.86
347.414	42.88
347.631	-18.73
347.847	44.43
348.064	-3.42
348.28	19.63
348.497	-37.33
348.713	-7.69
348.93	10.53
349.146	21.18
349.363	7.04
349.579	23.7
349.796	13.24
350.012	-24.54
350.229	35.71
350.445	26.03
350.661	0.26
350.878	2.2
351.094	16.92
351.311	14.4
351.527	16.92
351.743	-15.82
351.96	13.82
352.176	35.71
352.392	21.57
352.609	33
352.825	6.26
353.041	32.42
353.257	0.65
353.474	19.25
353.69	-0.32
353.906	-5.94
354.122	-25.32
354.339	65.36
354.555	39.2
354.771	-1.1
354.987	52.57
355.203	38.62
355.42	-8.27
355.636	15.95
355.852	-15.44
356.068	8.2
356.284	-9.82
356.5	63.61
356.716	22.93
356.932	8.98
357.148	27.58
357.364	25.64
357.58	56.83
357.796	59.93
358.012	51.6
358.228	15.95
358.444	-30.93
358.66	43.27
358.876	15.76
359.092	-12.72
359.308	14.01
359.524	31.06
359.74	2.97
359.956	-12.34
360.172	3.94
360.388	30.29
360.604	-4.59
360.819	72.14
361.035	26.8
361.251	30.1
361.467	4.52
361.683	50.83
361.898	18.86
362.114	31.26
362.33	19.05
362.546	41.14
362.762	6.85
362.977	30.29
363.193	-4.2
363.409	40.36
363.624	-4.2
363.84	-12.14
364.056	9.75
364.271	27.96
364.487	21.76
364.703	-0.9
364.918	6.46
365.134	17.89
365.35	16.92
365.565	116.51
365.781	32.81
365.996	26.8
366.212	62.84
366.427	51.8
366.643	-9.43
366.858	-0.52
367.074	-0.9
367.289	52.76
367.505	103.33
367.72	-7.1
367.936	6.46
368.151	36.49
368.367	66.52
368.582	16.73
368.798	4.91
369.013	71.17
369.228	32.23
369.444	28.74
369.659	69.04
369.874	31.65
370.09	77.37
370.305	-43.92
370.52	-5.36
370.736	64.39
370.951	13.24
371.166	69.62
371.381	66.33
371.597	42.3
371.812	-25.7
372.027	17.11
372.242	18.47
372.458	85.51
372.673	-11.17
372.888	14.4
373.103	30.87
373.318	106.63
373.533	18.66
373.749	13.05
373.964	-28.42
374.179	65.94
374.394	18.28
374.609	67.1
374.824	-8.07
375.039	55.48
375.254	-10.4
375.469	82.21
375.684	9.75
375.899	79.89
376.114	-3.62
376.329	20.8
376.544	50.63
376.759	73.88
376.974	3.16
377.189	45.21
377.404	6.46
377.619	78.34
377.834	-38.1
378.049	-2.45
378.264	-10.98
378.478	28.55
378.693	11.3
378.908	61.87
379.123	17.11
379.338	41.91
379.553	51.41
379.767	36.3
379.982	35.52
380.197	71.94
380.412	18.47
380.626	54.9
380.841	113.21
381.056	31.06
381.271	109.34
381.485	18.86
381.7	-13.11
381.915	48.7
382.129	16.53
382.344	43.27
382.559	-4.39
382.773	63.81
382.988	-11.17
383.202	40.56
383.417	14.79
383.632	120.77
383.846	52.38
384.061	39.4
384.275	14.6
384.49	43.46
384.704	46.18
384.919	26.61
385.133	40.56
385.348	45.98
385.562	-1.49
385.777	81.44
385.991	23.7
386.206	15.95
386.42	5.3
386.634	79.11
386.849	30.48
387.063	36.88
387.277	6.07
387.492	8.01
387.706	9.75
387.92	4.13
388.135	43.46
388.349	3.55
388.563	62.06
388.778	31.06
388.992	39.78
389.206	41.33
389.42	106.24
389.635	33.2
389.849	48.5
390.063	51.6
390.277	52.76
390.491	92.29
390.706	48.89
390.92	59.54
391.134	28.35
391.348	58.38
391.562	6.26
391.776	22.15
391.99	17.5
392.205	77.37
392.419	-19.5
392.633	31.65
392.847	55.86
393.061	23.9
393.275	69.04
393.489	19.63
393.703	42.3
393.917	64
394.131	25.45
394.345	55.28
394.559	65.94
394.773	44.82
394.986	53.15
395.2	16.92
395.414	88.99
395.628	34.16
395.842	54.51
396.056	39.59
396.27	-17.76
396.484	56.83
396.697	30.68
396.911	84.54
397.125	48.11
397.339	91.9
397.553	43.46
397.766	99.84
397.98	88.41
398.194	87.64
398.408	76.79
398.621	84.73
398.835	96.74
399.049	64.78
399.262	130.07
399.476	95.97
399.69	107.01
399.903	126.39
400.117	58.38
400.331	102.94
400.544	76.21
400.758	179.47
400.971	74.66
401.185	98.68
401.398	78.53
401.612	118.06
401.826	108.18
402.039	116.12
402.253	67.68
402.466	127.55
402.68	72.33
402.893	90.54
403.106	77.95
403.32	91.9
403.533	77.18
403.747	106.82
403.96	94.42
404.174	112.24
404.387	50.63
404.6	58.96
404.814	132.39
405.027	61.29
405.24	89.19
405.454	58.19
405.667	120.38
405.88	29.32
406.094	86.09
406.307	128.91
406.52	118.64
406.733	45.21
406.947	50.25
407.16	132.78
407.373	108.76
407.586	89.38
407.799	62.64
408.012	156.61
408.226	98.88
408.439	139.56
408.652	49.66
408.865	112.44
409.078	137.04
409.291	121.74
409.504	93.26
409.717	126
409.93	149.44
410.143	121.35
410.357	67.49
410.57	64.78
410.783	75.82
410.996	99.07
411.209	105.85
411.421	144.6
411.634	119.61
411.847	87.64
412.06	92.48
412.273	109.14
412.486	128.13
412.699	182.19
412.912	113.21
413.125	149.25
413.338	119.22
413.55	174.63
413.763	100.43
413.976	147.51
414.189	89.96
414.402	95.78
414.615	151.19
414.827	103.53
415.04	169.59
415.253	131.04
415.466	167.85
415.678	180.64
415.891	140.14
416.104	125.61
416.316	105.66
416.529	138.98
416.742	169.4
416.954	155.64
417.167	129.88
417.38	126.78
417.592	163.2
417.805	107.01
418.017	89.19
418.23	164.36
418.442	93.64
418.655	128.13
418.868	144.21
419.08	167.66
419.293	155.84
419.505	154.48
419.718	120.96
419.93	186.64
420.142	119.61
420.355	187.61
420.567	187.22
420.78	166.11
420.992	153.51
421.205	209.12
421.417	126.97
421.629	122.32
421.842	124.06
422.054	106.04
422.266	185.67
422.479	190.52
422.691	137.43
422.903	181.22
423.115	124.45
423.328	169.4
423.54	176.96
423.752	175.02
423.964	141.11
424.177	158.55
424.389	141.89
424.601	244.57
424.813	177.34
425.025	177.73
425.238	192.65
425.45	151.77
425.662	131.62
425.874	416.62
426.086	113.79
426.298	191.87
426.51	180.25
426.722	153.32
426.934	135.3
427.146	190.32
427.358	137.43
427.57	208.92
427.782	146.54
427.994	166.3
428.206	117.67
428.418	153.51
428.63	179.67
428.842	193.81
429.054	189.94
429.266	207.96
429.478	132.98
429.69	163.2
429.902	124.26
430.114	192.46
430.325	166.49
430.537	153.32
430.749	152.16
430.961	99.65
431.173	122.71
431.384	180.83
431.596	84.34
431.808	153.32
432.02	177.34
432.231	233.53
432.443	232.37
432.655	193.81
432.867	164.36
433.078	180.83
433.29	227.91
433.502	237.99
433.713	231.59
433.925	215.71
434.136	221.52
434.348	171.14
434.56	134.72
434.771	256.2
434.983	130.26
435.194	165.33
435.406	204.08
435.617	235.66
435.829	279.25
436.04	233.53
436.252	246.51
436.463	269.18
436.675	214.16
436.886	212.61
437.098	245.15
437.309	292.62
437.521	213.96
437.732	235.47
437.943	248.25
438.155	211.83
438.366	170.76
438.578	268.99
438.789	219
439	263.75
439.211	226.94
439.423	270.15
439.634	244.19
439.845	266.47
440.057	234.5
440.268	276.54
440.479	221.13
440.69	266.47
440.902	249.8
441.113	247.09
441.324	257.94
441.535	268.21
441.746	310.64
441.957	253.1
442.168	238.37
442.38	297.85
442.591	298.82
442.802	241.47
443.013	256
443.224	279.06
443.435	262.79
443.646	278.09
443.857	275.96
444.068	281.97
444.279	244.96
444.49	333.5
444.701	269.57
444.912	357.72
445.123	294.75
445.334	312.77
445.545	285.84
445.756	276.93
445.967	289.33
446.178	290.69
446.388	314.52
446.599	318.2
446.81	302.5
447.021	264.53
447.232	327.69
447.443	345.9
447.653	294.75
447.864	342.03
448.075	336.22
448.286	358.3
448.496	310.25
448.707	368.57
448.918	289.52
449.129	407.71
449.339	320.33
449.55	334.67
449.761	320.33
449.971	341.06
450.182	334.86
450.393	385.43
450.603	327.11
450.814	368.96
451.024	370.7
451.235	389.5
451.446	394.92
451.656	419.53
451.867	337.57
452.077	361.02
452.288	406.35
452.498	424.56
452.709	348.23
452.919	372.25
453.13	329.63
453.34	395.31
453.55	289.91
453.761	389.11
453.971	367.02
454.182	379.42
454.392	373.22
454.602	435.22
454.813	386.4
455.023	388.92
455.233	355.2
455.444	388.92
455.654	319.55
455.864	366.44
456.075	355.2
456.285	343.97
456.495	390.08
456.705	402.67
456.916	395.89
457.126	429.02
457.336	388.14
457.546	320.33
457.756	383.49
457.967	437.55
458.177	380.97
458.387	413.91
458.597	390.08
458.807	416.81
459.017	373.42
459.227	403.64
459.437	375.74
459.647	448.01
459.857	399.57
460.068	377.48
460.278	419.14
460.488	430.38
460.698	436.58
460.908	399.38
461.117	381.94
461.327	377.87
461.537	426.11
461.747	415.46
461.957	414.68
462.167	528.41
462.377	446.85
462.587	449.17
462.797	444.13
463.007	425.53
463.216	473.58
463.426	488.31
463.636	461.18
463.846	387.75
464.056	422.63
464.265	489.08
464.475	408.48
464.685	441.03
464.895	484.05
465.104	438.32
465.314	475.52
465.524	438.51
465.733	435.41
465.943	519.31
466.153	508.26
466.362	484.82
466.572	469.51
466.782	431.93
466.991	459.83
467.201	505.16
467.41	416.23
467.62	441.23
467.829	460.6
468.039	496.64
468.249	446.65
468.458	465.06
468.668	515.04
468.877	467.96
469.086	536.74
469.296	506.13
469.505	447.04
469.715	555.15
469.924	526.09
470.134	538.68
470.343	541.01
470.552	496.25
470.762	497.03
470.971	463.51
471.18	532.48
471.39	517.95
471.599	473.58
471.808	552.83
472.018	499.16
472.227	559.8
472.436	591.96
472.645	524.73
472.855	529.58
473.064	569.29
473.273	554.96
473.482	550.11
473.691	572.2
473.901	581.11
474.11	537.33
474.319	648.73
474.528	570.46
474.737	636.33
474.946	605.33
475.155	610.56
475.364	626.64
475.573	605.52
475.783	581.31
475.992	631.49
476.201	651.64
476.41	619.67
476.619	561.16
476.828	621.61
477.037	597.77
477.245	604.75
477.454	657.84
477.663	634.78
477.872	632.65
478.081	701.62
478.29	620.44
478.499	707.63
478.708	665.97
478.917	727.39
479.125	671.59
479.334	666.94
479.543	670.62
479.752	704.14
479.961	697.36
480.169	721.58
480.378	660.74
480.587	836.67
480.796	729.14
481.004	743.09
481.213	756.84
481.422	735.53
481.63	777.38
481.839	789.39
482.048	809.93
482.256	740.95
482.465	803.92
482.674	798.11
482.882	806.63
483.091	874.25
483.299	796.56
483.508	843.83
483.716	803.53
483.925	834.73
484.134	765.37
484.342	779.12
484.551	814.19
484.759	830.47
484.967	843.45
485.176	850.61
485.384	854.88
485.593	889.36
485.801	830.27
486.01	795.98
486.218	768.08
486.426	712.09
486.635	726.04
486.843	726.42
487.051	791.72
487.26	747.54
487.468	771.57
487.676	823.88
487.885	770.21
488.093	858.17
488.301	873.09
488.509	859.53
488.717	884.33
488.926	894.6
489.134	874.83
489.342	886.07
489.55	875.22
489.758	895.76
489.967	882.97
490.175	958.34
490.383	916.1
490.591	983.33
490.799	939.16
491.007	977.91
491.215	976.94
491.423	952.14
491.631	952.91
491.839	955.24
492.047	976.55
492.255	934.12
492.463	897.5
492.671	932.76
492.879	1010.46
493.087	983.53
493.295	986.63
493.503	1005.23
493.711	1016.46
493.919	1089.31
494.127	1041.46
494.334	1058.51
494.542	984.49
494.75	1059.47
494.958	1035.84
495.166	1101.52
495.374	1098.22
495.581	1054.82
495.789	1094.35
495.997	1107.14
496.205	1031.57
496.412	1061.22
496.62	1059.67
496.828	1103.65
497.035	1076.33
497.243	1099.58
497.451	1101.52
497.658	1092.22
497.866	1136.39
498.074	1166.42
498.281	1090.28
498.489	1171.65
498.696	1129.22
498.904	1106.75
499.112	1132.71
499.319	1207.11
499.527	1126.51
499.734	1187.93
499.942	1125.15
500.149	1170.49
500.357	1167.97
500.564	1110.82
500.771	1166.23
500.979	1122.25
501.186	1138.14
501.394	1173.98
501.601	1156.15
501.808	1180.95
502.016	1151.31
502.223	1186.38
502.43	1161.58
502.638	1167.2
502.845	1169.33
503.052	1251.48
503.26	1203.82
503.467	1303.98
503.674	1249.73
503.881	1272.02
504.089	1299.91
504.296	1264.85
504.503	1181.15
504.71	1219.51
504.917	1221.45
505.125	1263.88
505.332	1285.58
505.539	1344.09
505.746	1409.38
505.953	1354.16
506.16	1358.62
506.367	1437.28
506.574	1454.72
506.781	1443.68
506.988	1402.99
507.195	1425.46
507.402	1382.06
507.609	1406.86
507.816	1367.92
508.023	1382.64
508.23	1392.33
508.437	1367.73
508.644	1441.54
508.851	1495.99
509.058	1497.73
509.265	1465.57
509.472	1474.29
509.679	1595.38
509.885	1507.42
510.092	1479.91
510.299	1528.73
510.506	1474.29
510.713	1532.61
510.92	1472.74
511.126	1579.1
511.333	1593.83
511.54	1589.57
511.746	1600.03
511.953	1645.17
512.16	1680.43
512.367	1634.52
512.573	1633.35
512.78	1654.28
512.987	1630.25
513.193	1668.42
513.4	1567.48
513.606	1625.22
513.813	1699.03
514.02	1642.07
514.226	1712.98
514.433	1697.87
514.639	1646.14
514.846	1691.67
515.052	1721.31
515.259	1686.63
515.465	1726.35
515.672	1741.46
515.878	1826.13
516.085	1775.18
516.291	1831.17
516.497	1783.7
516.704	1751.15
516.91	1687.41
517.117	1623.67
517.323	1579.1
517.529	1610.69
517.736	1644.59
517.942	1639.36
518.148	1657.96
518.354	1753.28
518.561	1722.86
518.767	1748.05
518.973	1773.82
519.179	1815.48
519.386	1801.72
519.592	1831.36
519.798	1816.25
520.004	1944.9
520.21	1923.78
520.417	1983.84
520.623	1995.47
520.829	2033.25
521.035	2009.61
521.241	2005.54
521.447	2050.49
521.653	2186.89
521.859	2071.03
522.065	2104.35
522.271	2168.29
522.477	2140.97
522.683	2193.09
522.889	2146.4
523.095	2115.4
523.301	2145.23
523.507	2120.63
523.713	2136.9
523.919	2110.75
524.125	2234.75
524.331	2214.01
524.537	2314.18
524.742	2314.57
524.948	2329.29
525.154	2337.43
525.36	2422.29
525.566	2304.88
525.772	2361.65
525.977	2290.93
526.183	2335.49
526.389	2396.52
526.595	2253.54
526.8	2319.03
527.006	2220.41
527.212	2165.96
527.417	2191.73
527.623	2160.93
527.829	2267.29
528.034	2299.84
528.24	2313.79
528.446	2358.55
528.651	2444.77
528.857	2473.25
529.062	2552.3
529.268	2470.54
529.473	2535.83
529.679	2549.58
529.884	2658.47
530.09	2571.67
530.295	2586.2
530.501	2620.5
530.706	2604.22
530.912	2606.16
531.117	2593.95
531.323	2587.75
531.528	2682.69
531.733	2679.01
531.939	2622.63
532.144	2642.39
532.35	2630.38
532.555	2665.45
532.76	2612.55
532.966	2572.25
533.171	2575.16
533.376	2543.97
533.581	2552.68
533.787	2640.06
533.992	2689.66
534.197	2655.76
534.402	2637.93
534.607	2658.66
534.813	2764.06
535.018	2684.04
535.223	2708.46
535.428	2698.96
535.633	2802.42
535.838	2791.96
536.043	2816.37
536.249	2881.09
536.454	2773.94
536.659	2805.72
536.864	2797.77
537.069	2758.64
537.274	2783.63
537.479	2758.44
537.684	2766.58
537.889	2754.18
538.094	2891.55
538.299	2782.27
538.504	2861.13
538.708	2829.74
538.913	2879.15
539.118	2844.47
539.323	2864.81
539.528	2849.89
539.733	2839.24
539.938	2852.99
540.142	2847.37
540.347	2774.14
540.552	2750.69
540.757	2759.99
540.962	2759.41
541.166	2743.14
541.371	2709.23
541.576	2758.25
541.781	2723.57
541.985	2806.69
542.19	2802.42
542.395	2912.28
542.599	2961.3
542.804	2867.14
543.008	2883.22
543.213	2845.44
543.418	2816.96
543.622	2887.09
543.827	2815.21
544.031	2945.41
544.236	2957.42
544.44	2920.22
544.645	3018.65
544.849	2906.08
545.054	2957.62
545.258	3058.56
545.463	3008.38
545.667	2888.84
545.872	2985.9
546.076	3001.02
546.281	2961.68
546.485	2931.85
546.689	2964.2
546.894	3006.44
547.098	3009.15
547.302	2987.45
547.507	3001.4
547.711	3001.79
547.915	3036.08
548.119	2950.25
548.324	2997.53
548.528	3004.7
548.732	2976.41
548.936	3016.52
549.141	3023.88
549.345	2996.56
549.549	3024.07
549.753	3082.39
549.957	3087.43
550.161	3113.58
550.366	3067.08
550.57	3012.64
550.774	3052.55
550.978	3043.45
551.182	3051.39
551.386	2984.93
551.59	2995.4
551.794	3008.38
551.998	3042.09
552.202	3037.83
552.406	3004.31
552.61	3080.06
552.814	3043.25
553.018	3126.95
553.222	3034.53
553.426	3005.28
553.63	3126.76
553.833	3060.69
554.037	2976.41
554.241	3034.34
554.445	3071.35
554.649	3027.75
554.853	3053.52
555.056	3075.03
555.26	3075.61
555.464	3107.19
555.668	3073.86
555.871	3147.29
556.075	3100.6
556.279	3018.07
556.483	2988.42
556.686	3011.28
556.89	3030.66
557.094	2981.64
557.297	2916.15
557.501	3060.5
557.704	2896.2
557.908	2976.99
558.112	2934.95
558.315	2991.52
558.519	2955.1
558.722	2913.25
558.926	2907.44
559.129	2828.39
559.333	2801.65
559.536	2803.59
559.74	2831.49
559.943	2799.32
560.147	2794.48
560.35	2811.53
560.553	2844.47
560.757	2806.11
560.96	2871.2
561.164	2839.24
561.367	2938.05
561.57	2855.51
561.774	2877.6
561.977	2849.89
562.18	2816.37
562.384	2885.54
562.587	2803.78
562.79	2854.16
562.993	2800.1
563.197	2841.76
563.4	2883.22
563.603	2868.49
563.806	2881.28
564.009	2790.99
564.212	2849.51
564.416	2777.43
564.619	2816.37
564.822	2704.78
565.025	2830.32
565.228	2742.17
565.431	2790.99
565.634	2682.3
565.837	2685.01
566.04	2693.15
566.243	2675.13
566.446	2566.83
566.649	2660.8
566.852	2579.23
567.055	2622.82
567.258	2650.53
567.461	2700.13
567.664	2707.29
567.867	2623.98
568.07	2633.48
568.273	2621.27
568.475	2673.58
568.678	2604.61
568.881	2588.33
569.084	2546.29
569.287	2449.8
569.489	2491.65
569.692	2572.25
569.895	2557.14
570.098	2443.8
570.3	2483.9
570.503	2428.49
570.706	2395.17
570.909	2374.05
571.111	2368.82
571.314	2359.91
571.516	2404.86
571.719	2396.33
571.922	2372.11
572.124	2358.16
572.327	2412.61
572.529	2350.41
572.732	2389.94
572.935	2388.77
573.137	2491.27
573.34	2361.26
573.542	2402.92
573.745	2353.71
573.947	2389.74
574.15	2357.39
574.352	2311.66
574.554	2376.96
574.757	2331.04
574.959	2253.54
575.162	2342.08
575.364	2288.61
575.566	2383.35
575.769	2253.54
575.971	2331.23
576.173	2196.58
576.376	2242.88
576.578	2273.49
576.78	2340.34
576.982	2213.63
577.185	2202
577.387	2204.52
577.589	2196
577.791	2206.65
577.993	2196
578.196	2181.46
578.398	2205.3
578.6	2220.02
578.802	2109.2
579.004	2140.78
579.206	2135.74
579.408	2179.91
579.61	2134.97
579.812	2214.21
580.014	2141.94
580.216	2178.17
580.418	2189.21
580.62	2209.36
580.822	2157.25
581.024	2236.49
581.226	2208.98
581.428	2210.33
581.63	2268.46
581.832	2201.81
582.034	2243.27
582.236	2210.14
582.438	2227.96
582.64	2286.67
582.841	2275.04
583.043	2317.09
583.245	2240.56
583.447	2249.86
583.649	2239.4
583.85	2256.44
584.052	2234.55
584.254	2221.18
584.456	2295.78
584.657	2201.03
584.859	2252.57
585.061	2202.78
585.262	2169.84
585.464	2133.03
585.666	2230.29
585.867	2133.8
586.069	2184.37
586.27	2161.12
586.472	2152.02
586.674	2159.18
586.875	2127.8
587.077	2126.05
587.278	2157.63
587.48	2132.64
587.681	2227.19
587.883	2117.53
588.084	2048.36
588.285	2106.29
588.487	2064.64
588.688	2097.77
588.89	1968.92
589.091	1920.1
589.292	1899.37
589.494	1846.28
589.695	1863.53
589.896	1755.03
590.098	1784.28
590.299	1816.83
590.5	1817.03
590.702	1856.94
590.903	1924.56
591.104	1951.29
591.305	1964.86
591.507	1981.52
591.708	1975.71
591.909	1953.81
592.11	1971.83
592.311	1939.86
592.512	1910.8
592.714	1896.27
592.915	1900.34
593.116	1916.22
593.317	1933.27
593.518	1947.03
593.719	1926.11
593.92	1951.1
594.121	1963.69
594.322	1946.45
594.523	1947.81
594.724	1878.64
594.925	1904.79
595.126	1907.31
595.327	1915.64
595.528	1915.84
595.729	1901.11
595.929	1893.17
596.13	1902.86
596.331	1929.79
596.532	1954.39
596.733	2017.36
596.934	1989.65
597.135	1972.99
597.335	1941.99
597.536	1883.48
597.737	1951.87
597.938	1908.09
598.138	1974.74
598.339	1933.47
598.54	1947.03
598.74	1898.79
598.941	1896.07
599.142	1966.21
599.342	1965.05
599.543	1889.1
599.744	1906.15
599.944	1911.19
600.145	1947.42
600.345	1910.22
600.546	1994.89
600.746	1954.78
600.947	2019.49
601.147	1919.71
601.348	1998.76
601.548	1931.14
601.749	1909.64
601.949	1890.84
602.15	1880.58
602.35	1900.34
602.551	1915.45
602.751	1873.21
602.951	1910.41
603.152	1876.89
603.352	1911.57
603.552	1919.71
603.753	1960.98
603.953	1959.82
604.153	1961.37
604.354	1941.61
604.554	1956.14
604.754	1918.94
604.954	1925.33
605.155	1941.99
605.355	1917.97
605.555	1939.67
605.755	1989.46
605.955	1919.91
606.155	1943.93
606.356	1951.87
606.556	1954.59
606.756	1934.24
606.956	1884.84
607.156	1943.16
607.356	1893.17
607.556	1957.69
607.756	1902.08
607.956	1990.43
608.156	1949.36
608.356	1866.63
608.556	1921.65
608.756	1874.18
608.956	1858.1
609.156	1894.91
609.356	1842.02
609.556	1841.05
609.755	1855
609.955	1835.43
610.155	1913.9
610.355	1867.21
610.555	1787
610.755	1801.72
610.954	1764.33
611.154	1849.77
611.354	1871.47
611.554	1793
611.753	1815.28
611.953	1788.16
612.153	1835.04
612.352	1834.66
612.552	1757.74
612.752	1732.94
612.951	1830.98
613.151	1797.07
613.351	1768.78
613.55	1765.3
613.75	1801.72
613.949	1766.07
614.149	1761.03
614.348	1743.98
614.548	1715.31
614.747	1692.25
614.947	1723.83
615.146	1679.08
615.346	1758.51
615.545	1753.28
615.745	1752.9
615.944	1746.7
616.144	1711.05
616.343	1696.32
616.542	1728.29
616.742	1672.3
616.941	1659.32
