Data from gum_young_FLMT105791__49__17-38-48-044.txt Node

Date: Mon Mar 20 17:38:48 GMT 2023
User: antho
Spectrometer: FLMT10579
Trigger mode: 0
Integration Time (sec): 1.000000E-1
Scans to average: 10
Electric dark correction enabled: true
Nonlinearity correction enabled: false
Boxcar width: 0
XAxis mode: Wavelengths
Number of Pixels in Spectrum: 3648
>>>>>Begin Spectral Data<<<<<
345.248	-162.97
345.464	-162.97
345.681	-162.97
345.898	-147.67
346.114	-140.5
346.331	-35.29
346.548	22.64
346.764	-2.36
346.981	2.49
347.197	-0.42
347.414	1.71
347.631	-35.68
347.847	70.1
348.064	15.66
348.28	17.4
348.497	-56.8
348.713	0.55
348.93	23.22
349.146	12.17
349.363	-7.59
349.579	5.97
349.796	5.59
350.012	2.49
350.229	-0.42
350.445	5.78
350.661	-6.81
350.878	-16.11
351.094	28.06
351.311	28.45
351.527	-0.61
351.743	8.69
351.96	26.51
352.176	35.81
352.392	55.19
352.609	23.99
352.825	-1.97
353.041	3.46
353.257	-4.1
353.474	18.18
353.69	27.87
353.906	19.73
354.122	-14.37
354.339	38.52
354.555	-7.01
354.771	-3.91
354.987	61
355.203	60.22
355.42	-17.47
355.636	-16.5
355.852	-1
356.068	32.13
356.284	-13.21
356.5	46.85
356.716	7.72
356.932	-20.18
357.148	36.78
357.364	25.74
357.58	31.55
357.796	64.49
358.012	54.02
358.228	25.15
358.444	-35.68
358.66	57.12
358.876	22.44
359.092	-28.9
359.308	12.37
359.524	20.12
359.74	5.01
359.956	5.2
360.172	7.72
360.388	42.2
360.604	-2.36
360.819	72.82
361.035	14.5
361.251	20.31
361.467	-2.36
361.683	57.7
361.898	30.58
362.114	44.72
362.33	28.06
362.546	46.27
362.762	11.98
362.977	23.8
363.193	-24.64
363.409	44.92
363.624	-25.22
363.84	-16.5
364.056	0.16
364.271	36
364.487	30.39
364.703	-2.94
364.918	-16.31
365.134	2.29
365.35	11.79
365.565	81.73
365.781	37.75
365.996	27.67
366.212	38.33
366.427	6.36
366.643	29.61
366.858	-8.36
367.074	-30.06
367.289	61.77
367.505	95.49
367.72	0.74
367.936	0.36
368.151	47.24
368.367	47.05
368.582	30.58
368.798	13.72
369.013	46.08
369.228	21.67
369.444	47.63
369.659	60.8
369.874	37.75
370.09	46.85
370.305	-32.97
370.52	5.59
370.736	58.09
370.951	-0.03
371.166	62.35
371.381	74.37
371.597	59.45
371.812	5.39
372.027	-13.59
372.242	7.33
372.458	86.19
372.673	-5.26
372.888	26.51
373.103	43.95
373.318	80.18
373.533	29.22
373.749	29.22
373.964	-39.17
374.179	59.84
374.394	-4.29
374.609	85.41
374.824	-0.81
375.039	76.3
375.254	17.79
375.469	60.8
375.684	38.72
375.899	55.57
376.114	11.59
376.329	28.45
376.544	62.74
376.759	42.2
376.974	7.91
377.189	26.12
377.404	40.07
377.619	45.89
377.834	-23.28
378.049	8.69
378.264	-7.01
378.478	17.02
378.693	-26.77
378.908	37.55
379.123	23.8
379.338	90.84
379.553	40.85
379.767	88.7
379.982	50.92
380.197	68.55
380.412	18.57
380.626	33.1
380.841	55.77
381.056	46.27
381.271	84.25
381.485	0.74
381.7	17.79
381.915	41.62
382.129	5.59
382.344	22.44
382.559	16.82
382.773	27.87
382.988	-19.21
383.202	30.58
383.417	20.7
383.632	120.48
383.846	48.21
384.061	42.79
384.275	38.52
384.49	21.09
384.704	44.92
384.919	56.35
385.133	30.97
385.348	30.97
385.562	-7.01
385.777	62.94
385.991	34.07
386.206	33.68
386.42	19.92
386.634	68.94
386.849	45.11
387.063	39.49
387.277	23.22
387.492	10.24
387.706	27.67
387.92	9.46
388.135	79.6
388.349	31.55
388.563	53.25
388.778	75.92
388.992	73.4
389.206	71.27
389.42	99.75
389.635	45.3
389.849	58.29
390.063	74.75
390.277	49.37
390.491	105.56
390.706	53.44
390.92	81.73
391.134	39.1
391.348	61.19
391.562	-3.71
391.776	66.81
391.99	36.39
392.205	87.93
392.419	52.86
392.633	66.42
392.847	107.69
393.061	50.34
393.275	106.92
393.489	37.36
393.703	44.53
393.917	74.95
394.131	30.77
394.345	55.96
394.559	93.55
394.773	46.66
394.986	54.41
395.2	55.77
395.414	92.58
395.628	42.4
395.842	78.44
396.056	66.62
396.27	7.91
396.484	72.24
396.697	79.02
396.911	94.71
397.125	38.72
397.339	81.92
397.553	105.37
397.766	97.81
397.98	107.11
398.194	115.63
398.408	80.57
398.621	99.36
398.835	90.64
399.049	99.75
399.262	121.64
399.476	126.68
399.69	127.07
399.903	185
400.117	126.48
400.331	125.9
400.544	90.06
400.758	196.43
400.971	98
401.185	143.73
401.398	80.18
401.612	148.77
401.826	133.46
402.039	154.38
402.253	94.71
402.466	135.01
402.68	135.2
402.893	129.97
403.106	88.51
403.32	134.04
403.533	136.17
403.747	103.23
403.96	117.57
404.174	156.13
404.387	119.9
404.6	129.58
404.814	147.8
405.027	112.73
405.24	131.72
405.454	96.65
405.667	161.17
405.88	74.56
406.094	136.75
406.307	175.5
406.52	133.07
406.733	96.26
406.947	77.27
407.16	161.55
407.373	158.65
407.586	118.15
407.799	137.92
408.012	174.73
408.226	137.14
408.439	215.03
408.652	100.52
408.865	181.12
409.078	191
409.291	149.15
409.504	138.5
409.717	171.82
409.93	154
410.143	152.64
410.357	101.49
410.57	122.22
410.783	122.22
410.996	147.99
411.209	134.82
411.421	177.63
411.634	132.3
411.847	142.76
412.06	172.02
412.273	176.47
412.486	164.65
412.699	245.83
412.912	156.9
413.125	194.49
413.338	179.18
413.55	169.11
413.763	156.52
413.976	168.72
414.189	171.63
414.402	187.71
414.615	210.18
414.827	142.76
415.04	176.08
415.253	193.33
415.466	192.36
415.678	262.69
415.891	196.23
416.104	170.08
416.316	194.68
416.529	180.73
416.742	195.85
416.954	237.11
417.167	197.01
417.38	204.76
417.592	236.92
417.805	151.48
418.017	138.69
418.23	193.13
418.442	189.84
418.655	170.47
418.868	200.88
419.08	250.1
419.293	246.41
419.505	214.83
419.718	218.13
419.93	238.47
420.142	182.09
420.355	247.77
420.567	254.75
420.78	209.41
420.992	207.86
421.205	272.38
421.417	162.91
421.629	193.91
421.842	206.89
422.054	160.39
422.266	244.67
422.479	253.2
422.691	200.5
422.903	234.79
423.115	192.55
423.328	208.05
423.54	240.99
423.752	205.53
423.964	186.35
424.177	238.66
424.389	222.97
424.601	288.84
424.813	226.46
425.025	232.27
425.238	238.66
425.45	215.61
425.662	210.76
425.874	483.75
426.086	230.53
426.298	250.29
426.51	250.29
426.722	238.47
426.934	194.88
427.146	262.5
427.358	189.65
427.57	252.81
427.782	236.15
427.994	240.8
428.206	201.46
428.418	212.51
428.63	251.06
428.842	259.59
429.054	263.08
429.266	267.53
429.478	200.11
429.69	225.1
429.902	161.75
430.114	248.74
430.325	236.15
430.537	210.18
430.749	197.01
430.961	154.58
431.173	215.22
431.384	246.61
431.596	129.78
431.808	218.71
432.02	264.24
432.231	272.18
432.443	314.61
432.655	258.43
432.867	250.1
433.078	285.16
433.29	322.17
433.502	310.74
433.713	340.77
433.925	303.18
434.136	311.32
434.348	222
434.56	209.6
434.771	394.63
434.983	227.62
435.194	255.33
435.406	265.98
435.617	335.73
435.829	335.93
436.04	328.56
436.252	330.5
436.463	359.18
436.675	386.88
436.886	322.56
437.098	336.89
437.309	373.12
437.521	346.39
437.732	314.23
437.943	326.04
438.155	333.41
438.366	272.18
438.578	354.91
438.789	321.01
439	313.64
439.211	307.83
439.423	329.73
439.634	333.41
439.845	355.3
440.057	328.56
440.268	385.52
440.479	331.28
440.69	344.26
440.902	313.64
441.113	333.6
441.324	350.07
441.535	339.99
441.746	426.79
441.957	333.79
442.168	372.54
442.38	395.79
442.591	383.78
442.802	356.27
443.013	350.07
443.224	395.79
443.435	365.76
443.646	372.74
443.857	377.97
444.068	359.37
444.279	327.79
444.49	448.11
444.701	392.89
444.912	488.79
445.123	429.7
445.334	441.52
445.545	380.29
445.756	390.95
445.967	384.36
446.178	392.11
446.388	448.88
446.599	427.37
446.81	398.31
447.021	390.17
447.232	455.27
447.443	471.55
447.653	404.51
447.864	482.79
448.075	434.54
448.286	457.79
448.496	444.04
448.707	468.64
448.918	428.15
449.129	516.11
449.339	423.31
449.55	479.1
449.761	419.82
449.971	474.45
450.182	450.24
450.393	488.21
450.603	446.94
450.814	493.83
451.024	515.14
451.235	560.67
451.446	523.47
451.656	540.72
451.867	468.06
452.077	496.74
452.288	545.17
452.498	525.02
452.709	477.17
452.919	492.67
453.13	444.81
453.34	484.72
453.55	411.29
453.761	521.15
453.971	490.54
454.182	512.04
454.392	502.35
454.602	579.27
454.813	532.58
455.023	549.24
455.233	464.96
455.444	501.97
455.654	436.48
455.864	476.39
456.075	536.07
456.285	488.6
456.495	495.57
456.705	546.33
456.916	550.79
457.126	600.2
457.336	518.24
457.546	457.02
457.756	525.41
457.967	568.62
458.177	497.51
458.387	527.74
458.597	503.71
458.807	528.51
459.017	526.77
459.227	503.71
459.437	507.97
459.647	565.32
459.857	559.12
460.068	535.1
460.278	582.76
460.488	539.17
460.698	589.35
460.908	534.9
461.117	541.1
461.327	525.99
461.537	565.52
461.747	583.53
461.957	539.94
462.167	641.27
462.377	621.51
462.587	581.6
462.797	631.78
463.007	575.4
463.216	608.53
463.426	631.58
463.636	618.6
463.846	524.64
464.056	568.81
464.265	622.09
464.475	599.81
464.685	609.11
464.895	618.02
465.104	591.09
465.314	630.03
465.524	578.69
465.733	556.41
465.943	663.16
466.153	673.82
466.362	644.56
466.572	615.31
466.782	605.04
466.991	602.13
467.201	679.44
467.41	553.5
467.62	619.96
467.829	620.93
468.039	619.38
468.249	632.55
468.458	627.13
468.668	671.11
468.877	695.52
469.086	690.1
469.296	693.97
469.505	674.4
469.715	715.86
469.924	669.17
470.134	704.63
470.343	707.34
470.552	660.84
470.762	667.43
470.971	627.51
471.18	680.99
471.39	701.53
471.599	653.09
471.808	706.18
472.018	669.17
472.227	738.53
472.436	747.06
472.645	750.16
472.855	679.05
473.064	770.31
473.273	748.8
473.482	737.95
473.691	795.3
473.901	764.11
474.11	754.61
474.319	813.51
474.528	773.79
474.737	817.58
474.946	786.19
475.155	803.44
475.364	813.32
475.573	787.36
475.783	812.16
475.992	790.46
476.201	832.31
476.41	817.58
476.619	783.29
476.828	816.22
477.037	813.51
477.245	819.52
477.454	853.04
477.663	821.46
477.872	839.86
478.081	916.39
478.29	848.39
478.499	949.14
478.708	908.25
478.917	929.57
479.125	902.05
479.334	923.95
479.543	876.67
479.752	948.36
479.961	923.37
480.169	977.62
480.378	953.01
480.587	1060.93
480.796	974.9
481.004	967.93
481.213	965.02
481.422	986.33
481.63	1017.33
481.839	1024.7
482.048	1064.03
482.256	1020.82
482.465	1061.12
482.674	1044.46
482.882	1085.92
483.091	1114.79
483.299	1027.22
483.508	1086.7
483.716	1067.32
483.925	1075.07
484.134	1042.13
484.342	1086.7
484.551	1111.11
484.759	1078.56
484.967	1091.93
485.176	1150.44
485.384	1111.69
485.593	1150.63
485.801	1076.62
486.01	1044.46
486.218	1002.61
486.426	936.54
486.635	939.06
486.843	979.55
487.051	1013.27
487.26	986.33
487.468	1037.68
487.676	1077.01
487.885	1087.08
488.093	1124.86
488.301	1157.22
488.509	1168.84
488.717	1195.39
488.926	1145.4
489.134	1191.9
489.342	1160.13
489.55	1137.85
489.758	1143.66
489.967	1193.26
490.175	1307.57
490.383	1228.13
490.591	1308.73
490.799	1238.79
491.007	1297.88
491.215	1310.86
491.423	1276.57
491.631	1269.01
491.839	1260.49
492.047	1269.79
492.255	1213.41
492.463	1215.93
492.671	1211.66
492.879	1293.42
493.087	1298.85
493.295	1320.94
493.503	1339.73
493.711	1383.13
493.919	1403.86
494.127	1371.89
494.334	1419.94
494.542	1318.03
494.75	1413.55
494.958	1356.59
495.166	1455.01
495.374	1449.78
495.581	1469.35
495.789	1399.4
495.997	1461.79
496.205	1409.48
496.412	1390.69
496.62	1419.55
496.828	1442.42
497.035	1448.81
497.243	1517.4
497.451	1469.54
497.658	1460.05
497.866	1479.42
498.074	1526.5
498.281	1458.3
498.489	1512.75
498.696	1491.82
498.904	1493.37
499.112	1455.98
499.319	1555.95
499.527	1524.56
499.734	1569.9
499.942	1498.6
500.149	1489.11
500.357	1518.36
500.564	1463.92
500.771	1514.88
500.979	1488.53
501.186	1501.12
501.394	1518.56
501.601	1480.2
501.808	1532.31
502.016	1514.68
502.223	1477.87
502.43	1534.06
502.638	1523.21
502.845	1519.53
503.052	1646.43
503.26	1559.83
503.467	1639.26
503.674	1590.44
503.881	1626.09
504.089	1662.13
504.296	1627.06
504.503	1558.08
504.71	1589.66
504.917	1618.92
505.125	1619.11
505.332	1687.31
505.539	1690.99
505.746	1756.48
505.953	1753.96
506.16	1754.74
506.367	1803.56
506.574	1826.23
506.781	1845.6
506.988	1806.27
507.195	1785.93
507.402	1784.96
507.609	1815.77
507.816	1752.02
508.023	1740.21
508.23	1717.54
508.437	1737.11
508.644	1790.58
508.851	1826.81
509.058	1908.96
509.265	1870.4
509.472	1889.78
509.679	2002.35
509.885	1937.44
510.092	1920.78
510.299	1917.87
510.506	1917.29
510.713	1941.12
510.92	1923.68
511.126	1987.23
511.333	1979.48
511.54	2021.53
511.746	2079.65
511.953	2065.89
512.16	2113.94
512.367	2070.54
512.573	2091.86
512.78	2034.51
512.987	2064.73
513.193	2050.2
513.4	2020.36
513.606	2068.61
513.813	2099.03
514.02	2067.83
514.226	2144.75
514.433	2097.09
514.639	2089.73
514.846	2118.4
515.052	2104.84
515.259	2129.83
515.465	2164.12
515.672	2138.74
515.878	2231.55
516.085	2221.28
516.291	2234.84
516.497	2210.24
516.704	2114.33
516.91	2139.13
517.117	2034.7
517.323	1988.59
517.529	2047.49
517.736	2055.82
517.942	2099.61
518.148	2146.69
518.354	2164.12
518.561	2172.84
518.767	2143.78
518.973	2226.9
519.179	2285.22
519.386	2269.52
519.592	2265.65
519.798	2298.78
520.004	2404.37
520.21	2371.63
520.417	2485.16
520.623	2449.9
520.829	2502.41
521.035	2506.28
521.241	2503.96
521.447	2536.51
521.653	2681.43
521.859	2579.71
522.065	2617.69
522.271	2701.39
522.477	2648.3
522.683	2706.62
522.889	2604.12
523.095	2630.67
523.301	2620.79
523.507	2633.77
523.713	2673.68
523.919	2631.64
524.125	2750.4
524.331	2786.05
524.537	2867.81
524.742	2853.28
524.948	2887.19
525.154	2893.2
525.36	2937.37
525.566	2877.7
525.772	2933.11
525.977	2858.51
526.183	2863.94
526.389	2918.77
526.595	2804.46
526.8	2784.31
527.006	2711.65
527.212	2677.75
527.417	2651.98
527.623	2673.49
527.829	2795.55
528.034	2840.5
528.24	2882.93
528.446	2845.34
528.651	3017.77
528.857	3011.96
529.062	3100.89
529.268	3086.55
529.473	3129.76
529.679	3123.37
529.884	3178.58
530.09	3179.94
530.295	3110.39
530.501	3137.32
530.706	3183.04
530.912	3128.99
531.117	3183.04
531.323	3174.13
531.528	3263.64
531.733	3275.07
531.939	3217.53
532.144	3280.69
532.35	3266.55
532.555	3207.84
532.76	3195.83
532.966	3199.32
533.171	3167.54
533.376	3108.45
533.581	3114.84
533.787	3178
533.992	3249.5
534.197	3197.57
534.402	3251.63
534.607	3262.86
534.813	3334.55
535.018	3263.25
535.223	3334.36
535.428	3351.79
535.633	3374.66
535.838	3421.16
536.043	3400.81
536.249	3495.75
536.454	3396.74
536.659	3419.61
536.864	3413.02
537.069	3377.37
537.274	3350.63
537.479	3369.04
537.684	3380.47
537.889	3370.2
538.094	3499.43
538.299	3385.89
538.504	3459.52
538.708	3400.43
538.913	3492.84
539.118	3448.47
539.323	3416.31
539.528	3403.33
539.733	3459.71
539.938	3453.12
540.142	3430.26
540.347	3418.83
540.552	3320.6
540.757	3339.2
540.962	3350.24
541.166	3341.14
541.371	3293.86
541.576	3382.02
541.781	3273.13
541.985	3480.25
542.19	3423.87
542.395	3523.65
542.599	3519.39
542.804	3426.58
543.008	3518.22
543.213	3453.9
543.418	3422.32
543.622	3530.62
543.827	3391.71
544.031	3541.67
544.236	3518.42
544.44	3534.69
544.645	3615.87
544.849	3499.24
545.054	3547.48
545.258	3632.34
545.463	3659.85
545.667	3494.78
545.872	3605.22
546.076	3576.15
546.281	3570.92
546.485	3549.8
546.689	3589.72
546.894	3621.68
547.098	3622.27
547.302	3576.54
547.507	3595.92
547.711	3643.97
547.915	3653.27
548.119	3558.33
548.324	3523.65
548.528	3614.9
548.732	3620.52
548.936	3691.63
549.141	3648.03
549.345	3662.76
549.549	3648.23
549.753	3706.55
549.957	3726.31
550.161	3736.96
550.366	3715.65
550.57	3645.13
550.774	3620.91
550.978	3695.89
551.182	3641.25
551.386	3635.83
551.59	3642.8
551.794	3640.48
551.998	3731.35
552.202	3678.84
552.406	3648.23
552.61	3753.24
552.814	3706.93
553.018	3715.26
553.222	3652.3
553.426	3670.51
553.63	3756.15
553.833	3659.08
554.037	3610.25
554.241	3660.24
554.445	3726.5
554.649	3711.78
554.853	3675.16
555.056	3707.32
555.26	3769.71
555.464	3699.76
555.668	3734.25
555.871	3686.4
556.075	3733.09
556.279	3683.1
556.483	3636.02
556.686	3666.44
556.89	3632.73
557.094	3658.5
557.297	3555.04
557.501	3599.4
557.704	3570.54
557.908	3601.73
558.112	3545.74
558.315	3643.38
558.519	3634.47
558.722	3532.95
558.926	3540.5
559.129	3432.39
559.333	3436.46
559.536	3429.87
559.74	3415.15
559.943	3435.3
560.147	3412.44
560.35	3433.94
560.553	3435.49
560.757	3422.71
560.96	3516.48
561.164	3463.78
561.367	3515.7
561.57	3463.78
561.774	3457.77
561.977	3438.98
562.18	3416.51
562.384	3497.3
562.587	3392.29
562.79	3458.36
562.993	3390.35
563.197	3449.83
563.4	3487.22
563.603	3455.45
563.806	3511.05
564.009	3429.87
564.212	3467.07
564.416	3334.36
564.619	3384.34
564.822	3297.35
565.025	3408.95
565.228	3327.58
565.431	3390.16
565.634	3270.03
565.837	3277.78
566.04	3238.26
566.243	3184.98
566.446	3128.21
566.649	3236.71
566.852	3197.96
567.055	3226.44
567.258	3260.73
567.461	3256.47
567.664	3295.03
567.867	3222.95
568.07	3168.12
568.273	3220.05
568.475	3257.63
568.678	3174.32
568.881	3095.66
569.084	3078.03
569.287	3021.26
569.489	3064.08
569.692	3122.59
569.895	3092.75
570.098	3024.56
570.3	3010.61
570.503	2973.99
570.706	2949.38
570.909	2945.31
571.111	2875.56
571.314	2886.22
571.516	2881.57
571.719	2939.11
571.922	2891.45
572.124	2878.28
572.327	2959.07
572.529	2867.04
572.732	2922.26
572.935	2942.02
573.137	2996.07
573.34	2867.04
573.542	2947.06
573.745	2925.94
573.947	2922.64
574.15	2846.89
574.352	2888.16
574.554	2957.33
574.757	2824.03
574.959	2818.8
575.162	2863.94
575.364	2807.17
575.566	2843.4
575.769	2816.28
575.971	2791.28
576.173	2660.12
576.376	2749.82
576.578	2760.67
576.78	2825.77
576.982	2719.4
577.185	2741.3
577.387	2695.77
577.589	2718.63
577.791	2725.8
577.993	2730.64
578.196	2707
578.398	2709.14
578.6	2695.96
578.802	2620.01
579.004	2646.36
579.206	2645.39
579.408	2670.58
579.61	2694.6
579.812	2740.91
580.014	2676.97
580.216	2648.49
580.418	2709.72
580.62	2679.1
580.822	2642.49
581.024	2682.59
581.226	2769.97
581.428	2677.75
581.63	2801.94
581.832	2686.66
582.034	2772.88
582.236	2725.6
582.438	2730.64
582.64	2789.93
582.841	2809.3
583.043	2872.27
583.245	2731.61
583.447	2815.5
583.649	2750.21
583.85	2754.86
584.052	2820.73
584.254	2710.3
584.456	2796.32
584.657	2708.94
584.859	2735.48
585.061	2735.87
585.262	2728.9
585.464	2654.69
585.666	2733.55
585.867	2631.83
586.069	2714.75
586.27	2629.89
586.472	2664.19
586.674	2600.44
586.875	2657.21
587.077	2622.14
587.278	2658.57
587.48	2643.26
587.681	2721.15
587.883	2648.49
588.084	2544.26
588.285	2610.91
588.487	2539.41
588.688	2546.58
588.89	2448.55
589.091	2341.79
589.292	2343.53
589.494	2293.16
589.695	2262.35
589.896	2194.54
590.098	2221.09
590.299	2260.03
590.5	2258.29
590.702	2329
590.903	2367.75
591.104	2459.4
591.305	2416.58
591.507	2461.14
591.708	2426.85
591.909	2379.18
592.11	2434.4
592.311	2439.63
592.512	2401.08
592.714	2334.43
592.915	2384.03
593.116	2414.45
593.317	2433.43
593.518	2440.8
593.719	2426.07
593.92	2429.17
594.121	2488.84
594.322	2441.38
594.523	2400.11
594.724	2371.82
594.925	2351.48
595.126	2391
595.327	2388.1
595.528	2381.51
595.729	2376.08
595.929	2371.05
596.13	2399.33
596.331	2393.33
596.532	2428.78
596.733	2457.85
596.934	2457.65
597.135	2416
597.335	2449.9
597.536	2415.03
597.737	2390.61
597.938	2389.06
598.138	2433.43
598.339	2427.23
598.54	2418.71
598.74	2381.7
598.941	2398.56
599.142	2419.48
599.342	2477.99
599.543	2363.49
599.744	2397.4
599.944	2392.16
600.145	2403.01
600.345	2410.57
600.546	2513.26
600.746	2440.21
600.947	2486.13
601.147	2420.65
601.348	2456.68
601.548	2404.37
601.749	2391.39
601.949	2352.83
602.15	2368.14
602.35	2357.1
602.551	2423.55
602.751	2361.55
602.951	2362.72
603.152	2311.18
603.352	2389.26
603.552	2393.52
603.753	2432.85
603.953	2432.08
604.153	2432.66
604.354	2440.99
604.554	2455.91
604.754	2410.57
604.954	2363.88
605.155	2403.21
605.355	2381.51
605.555	2472.57
605.755	2452.61
605.955	2373.37
606.155	2447.19
606.356	2371.05
606.556	2392.55
606.756	2409.99
606.956	2370.85
607.156	2436.15
607.356	2382.48
607.556	2419.48
607.756	2387.51
607.956	2413.86
608.156	2362.13
608.356	2342.18
608.556	2391.97
608.756	2340.82
608.956	2332.88
609.156	2330.36
609.356	2312.53
609.556	2332.3
609.755	2348.18
609.955	2283.67
610.155	2332.88
610.355	2336.95
610.555	2266.62
610.755	2262.35
610.954	2213.14
611.154	2321.45
611.354	2295.29
611.554	2256.54
611.753	2258.29
611.953	2253.83
612.153	2292.97
612.352	2295.87
612.552	2225.35
612.752	2194.35
612.951	2251.5
613.151	2247.82
613.351	2174.59
613.55	2214.5
613.75	2228.06
613.949	2187.18
614.149	2203.26
614.348	2199.19
614.548	2158.12
614.747	2138.16
614.947	2158.31
615.146	2121.11
615.346	2230.58
615.545	2164.71
615.745	2190.09
615.944	2177.3
616.144	2158.31
