Data from gum_young_FLMT105791__143__17-41-11-040.txt Node

Date: Mon Mar 20 17:41:11 GMT 2023
User: antho
Spectrometer: FLMT10579
Trigger mode: 0
Integration Time (sec): 1.000000E-1
Scans to average: 10
Electric dark correction enabled: true
Nonlinearity correction enabled: false
Boxcar width: 0
XAxis mode: Wavelengths
Number of Pixels in Spectrum: 3648
>>>>>Begin Spectral Data<<<<<
345.248	-141.74
345.464	-141.74
345.681	-141.74
345.898	-146.2
346.114	-165.19
346.331	-30.34
346.548	37.67
346.764	-18.13
346.981	4.34
347.197	-3.79
347.414	31.66
347.631	-17.36
347.847	56.46
348.064	-8.83
348.28	9.77
348.497	-41.77
348.713	-19.68
348.93	19.84
349.146	18.49
349.363	5.7
349.579	37.28
349.796	15.97
350.012	-12.9
350.229	23.72
350.445	6.67
350.661	-1.66
350.878	11.32
351.094	10.54
351.311	19.46
351.527	29.53
351.743	-25.88
351.96	28.95
352.176	60.53
352.392	30.11
352.609	65.18
352.825	20.23
353.041	3.76
353.257	18.29
353.474	36.7
353.69	31.66
353.906	12.09
354.122	-17.36
354.339	58.01
354.555	23.72
354.771	11.51
354.987	24.69
355.203	40.57
355.42	-9.03
355.636	2.99
355.852	-9.03
356.068	0.47
356.284	-24.53
356.5	56.46
356.716	26.04
356.932	16.55
357.148	21.39
357.364	20.23
357.58	41.74
357.796	74.67
358.012	70.8
358.228	40.77
358.444	-34.6
358.66	56.07
358.876	40.38
359.092	1.05
359.308	-4.76
359.524	41.54
359.74	-8.25
359.956	8.22
360.172	11.12
360.388	16.94
360.604	6.86
360.819	91.92
361.035	25.07
361.251	49.1
361.467	-8.25
361.683	51.04
361.898	25.27
362.114	52.2
362.33	13.84
362.546	30.69
362.762	26.04
362.977	40.77
363.193	-18.71
363.409	21.2
363.624	-9.8
363.84	-24.53
364.056	2.6
364.271	23.91
364.487	1.82
364.703	-5.73
364.918	-2.63
365.134	18.49
365.35	12.48
365.565	112.07
365.781	18.1
365.996	44.84
366.212	54.33
366.427	49.49
366.643	-2.24
366.858	8.41
367.074	0.66
367.289	61.11
367.505	125.24
367.72	-18.13
367.936	-4.96
368.151	36.51
368.367	34.57
368.582	37.86
368.798	8.02
369.013	77
369.228	36.7
369.444	35.34
369.659	43.09
369.874	51.04
370.09	66.92
370.305	-33.83
370.52	36.31
370.736	81.07
370.951	21.2
371.166	52.97
371.381	71.77
371.597	53.17
371.812	12.67
372.027	8.99
372.242	43.87
372.458	100.83
372.673	5.51
372.888	31.27
373.103	54.91
373.318	110.9
373.533	50.07
373.749	17.13
373.964	-32.28
374.179	75.25
374.394	-2.63
374.609	54.52
374.824	7.44
375.039	62.85
375.254	-5.54
375.469	73.32
375.684	30.5
375.899	74.29
376.114	35.15
376.329	36.12
376.544	46
376.759	66.54
376.974	33.99
377.189	10.54
377.404	59.56
377.619	34.57
377.834	-38.28
378.049	1.05
378.264	-4.18
378.478	38.83
378.693	22.56
378.908	51.04
379.123	20.81
379.338	73.9
379.553	30.11
379.767	48.71
379.982	30.11
380.197	57.24
380.412	13.64
380.626	46
380.841	107.8
381.056	65.57
381.271	91.34
381.485	21.97
381.7	-5.34
381.915	26.82
382.129	35.54
382.344	39.61
382.559	47.55
382.773	70.41
382.988	-12.13
383.202	44.06
383.417	-6.89
383.632	129.89
383.846	17.52
384.061	21.01
384.275	16.55
384.49	51.42
384.704	70.02
384.919	29.34
385.133	54.72
385.348	70.41
385.562	10.16
385.777	77.77
385.991	50.26
386.206	10.54
386.42	9.96
386.634	70.99
386.849	37.86
387.063	32.05
387.277	10.16
387.492	31.27
387.706	-3.79
387.92	7.25
388.135	87.65
388.349	64.79
388.563	53.55
388.778	48.71
388.992	57.04
389.206	51.62
389.42	117.1
389.635	46
389.849	61.3
390.063	85.14
390.277	66.73
390.491	105.48
390.706	60.72
390.92	49.49
391.134	64.99
391.348	102.38
391.562	24.49
391.776	44.84
391.99	30.89
392.205	92.11
392.419	43.09
392.633	33.79
392.847	90.37
393.061	29.72
393.275	115.55
393.489	29.14
393.703	46
393.917	98.31
394.131	15.97
394.345	79.13
394.559	65.37
394.773	38.44
394.986	74.87
395.2	42.12
395.414	80.1
395.628	33.41
395.842	53.55
396.056	57.04
396.27	12.09
396.484	83.2
396.697	45.81
396.911	79.9
397.125	72.15
397.339	77.19
397.553	64.79
397.766	129.12
397.98	102.57
398.194	77.39
398.408	70.02
398.621	89.98
398.835	80.87
399.049	73.32
399.262	109.94
399.476	108.39
399.69	101.41
399.903	159.92
400.117	75.64
400.331	116.14
400.544	88.04
400.758	172.9
400.971	97.92
401.185	134.15
401.398	60.72
401.612	129.7
401.826	127.18
402.039	108
402.253	86.3
402.466	135.12
402.68	94.24
402.893	102.38
403.106	122.53
403.32	96.95
403.533	111.87
403.747	108.19
403.96	111.29
404.174	138.61
404.387	80.68
404.6	119.24
404.814	134.15
405.027	90.56
405.24	119.82
405.454	91.72
405.667	139
405.88	53.36
406.094	123.69
406.307	127.76
406.52	99.86
406.733	91.72
406.947	57.24
407.16	146.94
407.373	147.72
407.586	115.55
407.799	89.59
408.012	138.61
408.226	108.58
408.439	185.88
408.652	80.87
408.865	140.55
409.078	177.36
409.291	103.15
409.504	108.97
409.717	164.77
409.93	137.25
410.143	109.74
410.357	109.16
410.57	76.42
410.783	89.59
410.996	122.34
411.209	117.3
411.421	166.32
411.634	120.79
411.847	109.35
412.06	148.49
412.273	119.82
412.486	130.86
412.699	215.14
412.912	150.62
413.125	144.62
413.338	135.9
413.55	158.18
413.763	141.71
413.976	151.2
414.189	126.79
414.402	128.34
414.615	173.48
414.827	94.05
415.04	143.07
415.253	157.6
415.466	155.66
415.678	191.7
415.891	132.99
416.104	142.48
416.316	147.91
416.529	139.97
416.742	206.81
416.954	177.55
417.167	157.02
417.38	144.03
417.592	208.17
417.805	118.27
418.017	91.14
418.23	140.74
418.442	134.54
418.655	115.94
418.868	149.85
419.08	195.38
419.293	190.34
419.505	163.6
419.718	173.87
419.93	183.56
420.142	150.62
420.355	184.92
420.567	191.12
420.78	173.1
420.992	164.96
421.205	248.27
421.417	113.04
421.629	164.77
421.842	125.44
422.054	126.21
422.266	191.7
422.479	211.85
422.691	140.35
422.903	214.17
423.115	139.38
423.328	167.67
423.54	155.08
423.752	183.17
423.964	144.81
424.177	196.15
424.389	153.92
424.601	292.25
424.813	198.48
425.025	193.44
425.238	228.31
425.45	156.43
425.662	146.55
425.874	440.27
426.086	202.55
426.298	172.13
426.51	174.26
426.722	151.4
426.934	175.23
427.146	198.28
427.358	146.17
427.57	225.8
427.782	191.7
427.994	193.83
428.206	194.22
428.418	147.52
428.63	217.27
428.842	232.77
429.054	200.03
429.266	225.6
429.478	166.51
429.69	196.73
429.902	150.62
430.114	197.32
430.325	170.38
430.537	137.06
430.749	147.13
430.961	109.16
431.173	179.88
431.384	192.47
431.596	137.45
431.808	165.35
432.02	211.27
432.231	229.86
432.443	224.63
432.655	231.61
432.867	205.45
433.078	176.97
433.29	275.2
433.502	225.99
433.713	253.11
433.925	216.3
434.136	240.13
434.348	192.28
434.56	164.77
434.771	290.7
434.983	176.2
435.194	210.68
435.406	227.54
435.617	257.57
435.829	290.7
436.04	259.51
436.252	268.03
436.463	266.68
436.675	281.4
436.886	255.83
437.098	254.08
437.309	321.7
437.521	249.82
437.732	239.75
437.943	262.41
438.155	271.52
438.366	210.88
438.578	301.75
438.789	249.63
439	264.55
439.211	216.5
439.423	257.38
439.634	270.94
439.845	274.81
440.057	288.96
440.268	294.38
440.479	244.2
440.69	257.76
440.902	237.42
441.113	267.26
441.324	272.88
441.535	265.13
441.746	306.2
441.957	257.18
442.168	279.08
442.38	287.8
442.591	309.88
442.802	268.03
443.013	262.8
443.224	291.86
443.435	282.95
443.646	291.09
443.857	261.06
444.068	257.57
444.279	275.2
444.49	334.88
444.701	297.29
444.912	386.03
445.123	323.44
445.334	301.94
445.545	330.42
445.756	298.45
445.967	274.62
446.178	300.39
446.388	345.73
446.599	302.33
446.81	334.68
447.021	305.81
447.232	352.89
447.443	333.71
447.653	307.75
447.864	346.11
448.075	322.09
448.286	351.73
448.496	340.3
448.707	364.33
448.918	310.66
449.129	393.78
449.339	312.4
449.55	349.41
449.761	327.51
449.971	373.43
450.182	349.21
450.393	357.35
450.603	341.85
450.814	408.5
451.024	359.48
451.235	407.34
451.446	413.92
451.656	426.52
451.867	352.7
452.077	372.46
452.288	409.08
452.498	404.24
452.709	357.93
452.919	379.05
453.13	339.72
453.34	370.72
453.55	316.47
453.761	397.07
453.971	377.31
454.182	399.78
454.392	373.82
454.602	460.81
454.813	398.81
455.023	405.21
455.233	370.91
455.444	380.79
455.654	338.36
455.864	388.16
456.075	376.92
456.285	373.82
456.495	403.27
456.705	399.39
456.916	441.24
457.126	452.48
457.336	417.8
457.546	363.55
457.756	360.84
457.967	421.09
458.177	393.78
458.387	422.64
458.597	360.64
458.807	377.31
459.017	368.78
459.227	386.8
459.437	405.4
459.647	414.12
459.857	427.68
460.068	372.08
460.278	423.22
460.488	424
460.698	468.37
460.908	430.97
461.117	391.64
461.327	409.86
461.537	408.31
461.747	432.72
461.957	425.94
462.167	494.14
462.377	480.57
462.587	404.24
462.797	482.32
463.007	420.12
463.216	460.62
463.426	496.46
463.636	458.29
463.846	406.17
464.056	420.51
464.265	461.78
464.475	414.7
464.685	473.02
464.895	464.69
465.104	455
465.314	451.51
465.524	429.23
465.733	404.24
465.943	543.93
466.153	505.76
466.362	501.69
466.572	493.36
466.782	433.69
466.991	455.77
467.201	510.22
467.41	408.89
467.62	481.93
467.829	472.44
468.039	463.91
468.249	444.92
468.458	465.46
468.668	509.83
468.877	502.08
469.086	556.72
469.296	523.2
469.505	456.55
469.715	566.02
469.924	515.06
470.134	517.77
470.343	556.72
470.552	504.99
470.762	489.1
470.971	460.04
471.18	511.19
471.39	497.82
471.599	484.45
471.808	511.19
472.018	501.3
472.227	566.6
472.436	579
472.645	548.58
472.855	511.57
473.064	565.63
473.273	570.47
473.482	548.39
473.691	599.15
473.901	556.14
474.11	540.25
474.319	644.29
474.528	564.08
474.737	614.84
474.946	594.69
475.155	614.84
475.364	637.7
475.573	598.37
475.783	607.87
475.992	622.78
476.201	623.75
476.41	612.52
476.619	574.54
476.828	603.22
477.037	590.04
477.245	582.29
477.454	642.74
477.663	628.21
477.872	601.47
478.081	667.15
478.29	606.9
478.499	715.59
478.708	665.99
478.917	725.47
479.125	668.9
479.334	667.35
479.543	660.18
479.752	694.66
479.961	698.93
480.169	739.03
480.378	687.69
480.587	803.74
480.796	732.45
481.004	704.35
481.213	734.38
481.422	769.45
481.63	735.74
481.839	755.89
482.048	812.46
482.256	732.83
482.465	762.28
482.674	779.14
482.882	791.15
483.091	842.11
483.299	778.75
483.508	805.1
483.716	786.69
483.925	789.02
484.134	777.78
484.342	772.36
484.551	809.56
484.759	845.98
484.967	829.13
485.176	848.31
485.384	823.7
485.593	875.62
485.801	831.06
486.01	772.74
486.218	789.21
486.426	700.67
486.635	709.78
486.843	694.47
487.051	765.77
487.26	740.78
487.468	802.58
487.676	823.7
487.885	765.58
488.093	836.1
488.301	866.71
488.509	853.73
488.717	888.61
488.926	883.76
489.134	853.15
489.342	874.07
489.55	836.68
489.758	881.82
489.967	863.81
490.175	984.12
490.383	901.39
490.591	962.23
490.799	892.29
491.007	936.65
491.215	950.99
491.423	919.99
491.631	940.34
491.839	939.95
492.047	957.77
492.255	912.24
492.463	858.19
492.671	913.02
492.879	1000.01
493.087	918.44
493.295	949.05
493.503	960.49
493.711	985.09
493.919	1014.93
494.127	1009.5
494.334	1015.51
494.542	969.2
494.75	999.82
494.958	1036.24
495.166	1045.73
495.374	1035.66
495.581	1030.62
495.789	1049.22
495.997	1080.8
496.205	1035.08
496.412	1032.37
496.62	1069.57
496.828	1046.7
497.035	1050
497.243	1095.92
497.451	1084.29
497.658	1062.2
497.866	1053.87
498.074	1132.53
498.281	1024.81
498.489	1149.2
498.696	1059.1
498.904	1025.78
499.112	1043.8
499.319	1152.68
499.527	1102.89
499.734	1178.45
499.942	1068.02
500.149	1097.47
500.357	1117.81
500.564	1080.42
500.771	1133.11
500.979	1074.22
501.186	1081.38
501.394	1131.37
501.601	1093.98
501.808	1159.66
502.016	1137.96
502.223	1119.16
502.43	1152.88
502.638	1127.3
502.845	1122.26
503.052	1217.01
503.26	1126.91
503.467	1246.26
503.674	1201.51
503.881	1206.74
504.089	1268.93
504.296	1192.79
504.503	1143.58
504.71	1170.12
504.917	1162.95
505.125	1227.86
505.332	1201.51
505.539	1259.05
505.746	1289.27
505.953	1267.19
506.16	1294.89
506.367	1315.43
506.574	1351.47
506.781	1362.7
506.988	1297.41
507.195	1337.71
507.402	1319.31
507.609	1328.41
507.816	1312.72
508.023	1344.88
508.23	1305.36
508.437	1247.62
508.644	1348.56
508.851	1407.46
509.058	1416.18
509.265	1423.15
509.472	1418.12
509.679	1510.92
509.885	1442.14
510.092	1432.84
510.299	1445.82
510.506	1424.12
510.713	1480.31
510.92	1460.16
511.126	1505.88
511.333	1520.8
511.54	1538.82
511.746	1539.6
511.953	1564.98
512.16	1609.15
512.367	1565.56
512.573	1564.2
512.78	1553.93
512.987	1536.3
513.193	1580.28
513.4	1485.35
513.606	1564.59
513.813	1610.9
514.02	1597.33
514.226	1658.17
514.433	1640.54
514.639	1568.46
514.846	1625.43
515.052	1601.6
515.259	1652.74
515.465	1671.54
515.672	1657.2
515.878	1764.34
516.085	1727.34
516.291	1742.45
516.497	1722.3
516.704	1708.93
516.91	1654.88
517.117	1604.11
517.323	1533.01
517.529	1584.93
517.736	1575.25
517.942	1622.71
518.148	1655.65
518.354	1675.8
518.561	1687.04
518.767	1703.89
518.973	1728.31
519.179	1807.74
519.386	1725.59
519.592	1777.52
519.798	1761.63
520.004	1929.22
520.21	1851.53
520.417	1938.52
520.623	1969.52
520.829	1954.8
521.035	2009.63
521.241	1968.17
521.447	2012.15
521.653	2129.17
521.859	2026.87
522.065	2085.96
522.271	2170.82
522.477	2125.1
522.683	2165.4
522.889	2148.74
523.095	2112.12
523.301	2127.43
523.507	2121.23
523.713	2149.9
523.919	2116.77
524.125	2183.03
524.331	2228.37
524.537	2338.22
524.742	2321.37
524.948	2310.32
525.154	2330.28
525.36	2426.18
525.566	2335.51
525.772	2388.6
525.977	2331.44
526.183	2387.05
526.389	2390.53
526.595	2318.46
526.8	2287.07
527.006	2207.25
527.212	2188.07
527.417	2160.94
527.623	2180.51
527.829	2269.05
528.034	2320.98
528.24	2319.24
528.446	2351.4
528.651	2435.48
528.857	2454.47
529.062	2518.02
529.268	2540.3
529.473	2559.87
529.679	2573.04
529.884	2621.48
530.09	2591.84
530.295	2570.33
530.501	2633.11
530.706	2599.59
530.912	2590.67
531.117	2602.88
531.323	2615.09
531.528	2709.64
531.733	2708.67
531.939	2624.19
532.144	2668.56
532.35	2699.17
532.555	2673.21
532.76	2663.91
532.966	2658.29
533.171	2590.87
533.376	2612.76
533.581	2573.24
533.787	2625.36
533.992	2690.26
534.197	2680.19
534.402	2668.37
534.607	2687.35
534.813	2784.42
535.018	2718.16
535.223	2772.02
535.428	2752.84
535.633	2796.43
535.838	2873.55
536.043	2837.12
536.249	2948.72
536.454	2879.55
536.659	2902.22
536.864	2878.78
537.069	2827.24
537.274	2813.1
537.479	2836.15
537.684	2844.68
537.889	2743.74
538.094	2922.56
538.299	2889.05
538.504	2901.45
538.708	2897.57
538.913	2973.52
539.118	2886.14
539.323	2943.29
539.528	2874.9
539.733	2854.75
539.938	2878
540.142	2893.7
540.347	2867.35
540.552	2825.3
540.757	2811.55
540.962	2838.48
541.166	2793.33
541.371	2815.23
541.576	2810.77
541.781	2773.57
541.985	2913.85
542.19	2856.5
542.395	2971.19
542.599	2967.32
542.804	2912.49
543.008	2981.66
543.213	2934.58
543.418	2883.62
543.622	2976.04
543.827	2865.41
544.031	2994.25
544.236	3029.71
544.44	2979.14
544.645	3046.95
544.849	2987.66
545.054	3050.24
545.258	3090.93
545.463	3084.54
545.667	2998.9
545.872	3029.12
546.076	3072.14
546.281	3039.01
546.485	2977.98
546.689	3054.89
546.894	3087.06
547.098	3082.79
547.302	2988.44
547.507	3071.56
547.711	3073.3
547.915	3121.74
548.119	2991.93
548.324	2996.96
548.528	3086.86
548.732	3016.73
548.936	3036.87
549.141	3097.52
549.345	3038.42
549.549	3075.62
549.753	3085.31
549.957	3193.23
550.161	3138.79
550.366	3140.72
550.57	3054.51
550.774	3095.77
550.978	3128.52
551.182	3148.86
551.386	3075.43
551.59	3113.99
551.794	3090.35
551.998	3152.15
552.202	3079.11
552.406	3051.41
552.61	3174.44
552.814	3161.45
553.018	3138.2
553.222	3107.21
553.426	3110.3
553.63	3214.35
553.833	3112.24
554.037	3071.56
554.241	3110.11
554.445	3172.89
554.649	3130.07
554.853	3099.84
555.056	3155.25
555.26	3173.47
555.464	3169.01
555.668	3131.81
555.871	3168.24
556.075	3185.67
556.279	3118.05
556.483	3038.23
556.686	3097.91
556.89	3116.31
557.094	3081.82
557.297	2990.38
557.501	3058.77
557.704	2981.08
557.908	3060.32
558.112	2973.33
558.315	3106.43
558.519	3047.14
558.722	2952.59
558.926	2992.7
559.129	2906.1
559.333	2892.73
559.536	2911.71
559.74	2882.46
559.943	2879.94
560.147	2885.36
560.35	2876.06
560.553	2923.53
560.757	2882.65
560.96	2997.74
561.164	2935.74
561.367	2997.35
561.57	2915.2
561.774	2949.69
561.977	2865.6
562.18	2824.33
562.384	2937.68
562.587	2858.24
562.79	2905.13
562.993	2824.33
563.197	2897.38
563.4	2931.09
563.603	2890.98
563.806	2963.25
564.009	2882.46
564.212	2855.72
564.416	2787.91
564.619	2841
564.822	2749.35
565.025	2858.24
565.228	2797.21
565.431	2781.32
565.634	2724.94
565.837	2722.81
566.04	2731.34
566.243	2689.49
566.446	2633.69
566.649	2733.85
566.852	2632.91
567.055	2648.41
567.258	2692.39
567.461	2775.7
567.664	2724.36
567.867	2652.29
568.07	2691.81
568.273	2663.52
568.475	2709.05
568.678	2619.35
568.881	2605.21
569.084	2588.35
569.287	2499.03
569.489	2536.62
569.692	2569.36
569.895	2544.76
570.098	2488.76
570.3	2478.3
570.503	2402.74
570.706	2444.4
570.909	2436.06
571.111	2372.32
571.314	2392.67
571.516	2386.85
571.719	2407.78
571.922	2385.5
572.124	2367.48
572.327	2410.68
572.529	2337.06
572.732	2321.75
572.935	2377.36
573.137	2444.2
573.34	2361.08
573.542	2406.03
573.745	2349.46
573.947	2361.67
574.15	2322.53
574.352	2336.48
574.554	2364.96
574.757	2277.97
574.959	2246.77
575.162	2252.2
575.364	2239.22
575.566	2311.1
575.769	2243.67
575.971	2237.28
576.173	2131.69
576.376	2213.84
576.578	2224.49
576.78	2236.31
576.982	2117.16
577.185	2184.58
577.387	2184.19
577.589	2177.41
577.791	2188.65
577.993	2229.14
578.196	2203.76
578.398	2177.02
578.6	2173.15
578.802	2130.53
579.004	2080.15
579.206	2083.44
579.408	2132.46
579.61	2071.43
579.812	2164.43
580.014	2119.48
580.216	2118.71
580.418	2115.22
580.62	2121.81
580.822	2114.44
581.024	2143.12
581.226	2169.47
581.428	2120.84
581.63	2224.88
581.832	2140.6
582.034	2214.61
582.236	2123.94
582.438	2178.77
582.64	2201.24
582.841	2208.99
583.043	2245.61
583.245	2157.84
583.447	2221.78
583.649	2140.99
583.85	2207.06
584.052	2220.04
584.254	2126.46
584.456	2200.27
584.657	2122.97
584.859	2152.03
585.061	2119.87
585.262	2103.98
585.464	2097.01
585.666	2144.67
585.867	2091.78
586.069	2138.08
586.27	2126.65
586.472	2081.12
586.674	2065.04
586.875	2037.14
587.077	2031.71
587.278	2094.88
587.48	2046.44
587.681	2178.77
587.883	2078.41
588.084	2006.33
588.285	2004.78
588.487	1994.13
588.688	2020.48
588.89	1911.2
589.091	1865.87
589.292	1854.05
589.494	1846.49
589.695	1770.74
589.896	1692.08
590.098	1711.45
590.299	1755.04
590.5	1746.32
590.702	1788.37
590.903	1827.89
591.104	1910.82
591.305	1862.96
591.507	1908.49
591.708	1866.06
591.909	1873.42
592.11	1923.6
592.311	1938.72
592.512	1870.9
592.714	1812.2
592.915	1808.9
593.116	1867.42
593.317	1888.34
593.518	1871.87
593.719	1913.92
593.92	1892.41
594.121	1948.79
594.322	1874.2
594.523	1887.57
594.724	1805.42
594.925	1847.85
595.126	1818.2
595.327	1844.75
595.528	1841.45
595.729	1852.69
595.929	1845.91
596.13	1860.83
596.331	1844.36
596.532	1881.56
596.733	1911.98
596.934	1880.2
597.135	1875.17
597.335	1881.56
597.536	1831.19
597.737	1895.7
597.938	1865.09
598.138	1878.07
598.339	1856.57
598.54	1906.17
598.74	1854.24
598.941	1845.72
599.142	1930.77
599.342	1892.02
599.543	1854.44
599.744	1865.09
599.944	1853.85
600.145	1861.02
600.345	1865.67
600.546	1931.55
600.746	1927.09
600.947	1963.71
601.147	1885.05
601.348	1926.32
601.548	1850.75
601.749	1860.83
601.949	1826.34
602.15	1859.09
602.35	1832.15
602.551	1902.48
602.751	1798.25
602.951	1807.55
603.152	1765.89
603.352	1866.84
603.552	1829.05
603.753	1870.9
603.953	1884.47
604.153	1865.09
604.354	1852.69
604.554	1853.27
604.754	1868.19
604.954	1838.35
605.155	1892.22
605.355	1837.39
605.555	1879.24
605.755	1891.25
605.955	1860.44
606.155	1883.3
606.356	1824.21
606.556	1867.03
606.756	1856.37
606.956	1804.25
607.156	1861.41
607.356	1805.8
607.556	1843.78
607.756	1830.8
607.956	1874
608.156	1806
608.356	1762.79
608.556	1845.91
608.756	1783.91
608.956	1768.99
609.156	1797.09
609.356	1781.97
609.556	1762.79
609.755	1789.14
609.955	1751.17
610.155	1751.56
610.355	1745.74
610.555	1740.71
610.755	1778.1
610.954	1679.68
611.154	1747.68
611.354	1766.28
611.554	1729.08
611.753	1728.31
611.953	1664.18
612.153	1716.1
612.352	1743.22
612.552	1677.93
612.752	1627.94
612.951	1711.64
613.151	1689.36
613.351	1657.98
613.55	1647.13
613.75	1644.8
613.949	1671.15
614.149	1626.78
614.348	1670.18
614.548	1629.3
614.747	1599.08
614.947	1667.66
615.146	1545.8
615.346	1680.26
615.545	1630.85
615.745	1637.24
615.944	1615.16
616.144	1604.89
616.343	1616.32
616.542	1575.63
616.742	1593.07
616.941	1589.2
617.14	1533.01
