Data from gum_young_FLMT105791__33__17-38-32-045.txt Node

Date: Mon Mar 20 17:38:32 GMT 2023
User: antho
Spectrometer: FLMT10579
Trigger mode: 0
Integration Time (sec): 1.000000E-1
Scans to average: 10
Electric dark correction enabled: true
Nonlinearity correction enabled: false
Boxcar width: 0
XAxis mode: Wavelengths
Number of Pixels in Spectrum: 3648
>>>>>Begin Spectral Data<<<<<
345.248	-150.09
345.464	-150.09
345.681	-150.09
345.898	-129.55
346.114	-131.49
346.331	-38.1
346.548	34.36
346.764	3.55
346.981	-3.62
347.197	-9.24
347.414	22.54
347.631	-28.61
347.847	30.48
348.064	-12.72
348.28	35.71
348.497	-42.37
348.713	8.01
348.93	45.6
349.146	28.35
349.363	17.7
349.579	21.38
349.796	0.06
350.012	-6.33
350.229	28.93
350.445	4.33
350.661	-9.43
350.878	8.78
351.094	41.91
351.311	18.28
351.527	43.27
351.743	-9.24
351.96	22.73
352.176	25.25
352.392	16.15
352.609	34.75
352.825	10.91
353.041	0.84
353.257	22.54
353.474	0.26
353.69	3.36
353.906	17.7
354.122	-4.2
354.339	42.88
354.555	16.34
354.771	19.44
354.987	33.58
355.203	41.14
355.42	-25.51
355.636	14.4
355.852	-18.15
356.068	23.9
356.284	-20.86
356.5	67.88
356.716	9.95
356.932	28.93
357.148	44.82
357.364	24.09
357.58	59.35
357.796	42.11
358.012	58
358.228	42.88
358.444	-54.77
358.66	39.01
358.876	35.91
359.092	-23.96
359.308	9.56
359.524	20.99
359.74	-4.97
359.956	-16.99
360.172	15.95
360.388	32.03
360.604	19.44
360.819	92.87
361.035	20.21
361.251	41.53
361.467	4.71
361.683	46.37
361.898	26.22
362.114	27
362.33	18.47
362.546	58.58
362.762	15.37
362.977	14.98
363.193	-25.51
363.409	54.7
363.624	-34.81
363.84	6.85
364.056	-2.65
364.271	23.51
364.487	17.89
364.703	-5.94
364.918	-12.34
365.134	7.23
365.35	24.86
365.565	80.47
365.781	15.37
365.996	32.61
366.212	61.09
366.427	30.48
366.643	-5.55
366.858	-12.53
367.074	-25.51
367.289	47.15
367.505	122.9
367.72	-8.46
367.936	3.55
368.151	56.06
368.367	32.42
368.582	11.5
368.798	3.55
369.013	66.91
369.228	14.21
369.444	13.05
369.659	39.4
369.874	20.02
370.09	70.01
370.305	-10.98
370.52	-3.42
370.736	46.18
370.951	14.01
371.166	75.63
371.381	82.79
371.597	54.7
371.812	-7.1
372.027	7.43
372.242	-2.84
372.458	71.75
372.673	15.76
372.888	29.71
373.103	31.26
373.318	84.73
373.533	47.92
373.749	41.91
373.964	-15.05
374.179	75.82
374.394	10.91
374.609	70.2
374.824	2.39
375.039	70.2
375.254	-9.82
375.469	56.83
375.684	19.63
375.899	62.06
376.114	26.22
376.329	30.68
376.544	59.54
376.759	45.21
376.974	-7.88
377.189	-17.57
377.404	17.7
377.619	68.65
377.834	-34.23
378.049	-14.27
378.264	-16.6
378.478	30.87
378.693	9.56
378.908	37.65
379.123	22.54
379.338	48.5
379.553	38.23
379.767	41.91
379.982	39.01
380.197	37.85
380.412	25.45
380.626	49.47
380.841	86.86
381.056	49.47
381.271	78.14
381.485	0.06
381.7	7.23
381.915	27.96
382.129	8.59
382.344	30.87
382.559	-4.2
382.773	52.57
382.988	-22.41
383.202	35.33
383.417	6.85
383.632	92.68
383.846	-4.78
384.061	30.87
384.275	30.48
384.49	43.46
384.704	70.39
384.919	43.46
385.133	9.95
385.348	59.74
385.562	-1.68
385.777	49.66
385.991	29.13
386.206	35.71
386.42	23.31
386.634	51.41
386.849	31.45
387.063	50.05
387.277	-16.99
387.492	14.21
387.706	6.85
387.92	10.91
388.135	28.74
388.349	24.09
388.563	28.55
388.778	22.15
388.992	47.53
389.206	42.5
389.42	77.95
389.635	19.25
389.849	51.41
390.063	65.74
390.277	42.5
390.491	99.07
390.706	44.63
390.92	36.3
391.134	16.73
391.348	71.56
391.562	-15.82
391.776	24.86
391.99	22.73
392.205	36.3
392.419	27
392.633	18.66
392.847	72.72
393.061	6.85
393.275	90.54
393.489	55.09
393.703	32.42
393.917	72.14
394.131	26.03
394.345	51.6
394.559	55.48
394.773	31.65
394.986	82.6
395.2	47.34
395.414	83.57
395.628	10.91
395.842	47.92
396.056	22.35
396.27	3.75
396.484	52.38
396.697	50.44
396.911	77.37
397.125	46.37
397.339	63.81
397.553	27.58
397.766	98.1
397.98	85.51
398.194	103.33
398.408	41.53
398.621	83.96
398.835	75.24
399.049	59.93
399.262	107.79
399.476	71.56
399.69	82.99
399.903	124.84
400.117	55.09
400.331	96.55
400.544	37.46
400.758	152.74
400.971	55.28
401.185	103.33
401.398	23.12
401.612	88.8
401.826	96.36
402.039	71.56
402.253	36.3
402.466	77.37
402.68	72.91
402.893	56.83
403.106	72.91
403.32	69.81
403.533	54.51
403.747	66.13
403.96	96.74
404.174	106.82
404.387	42.88
404.6	66.33
404.814	104.49
405.027	98.88
405.24	71.56
405.454	53.15
405.667	119.99
405.88	29.9
406.094	59.16
406.307	102.94
406.52	93.06
406.733	55.09
406.947	45.6
407.16	129.88
407.373	113.79
407.586	67.49
407.799	42.11
408.012	96.94
408.226	88.41
408.439	136.66
408.652	39.01
408.865	87.25
409.078	126
409.291	114.57
409.504	56.64
409.717	113.02
409.93	102.17
410.143	125.03
410.357	33.97
410.57	47.92
410.783	73.88
410.996	98.88
411.209	69.81
411.421	116.12
411.634	102.36
411.847	61.68
412.06	92.09
412.273	68.84
412.486	111.86
412.699	188.58
412.912	81.05
413.125	124.06
413.338	114.18
413.55	137.24
413.763	85.51
413.976	112.44
414.189	77.18
414.402	108.37
414.615	138.01
414.827	85.51
415.04	124.06
415.253	101.59
415.466	127.94
415.678	155.64
415.891	99.07
416.104	98.1
416.316	113.21
416.529	87.64
416.742	126.78
416.954	147.89
417.167	74.66
417.38	79.5
417.592	145.96
417.805	89.38
418.017	81.05
418.23	130.65
418.442	100.23
418.655	116.51
418.868	117.48
419.08	141.5
419.293	167.46
419.505	134.72
419.718	136.66
419.93	159.32
420.142	113.41
420.355	138.21
420.567	159.52
420.78	126.78
420.992	119.61
421.205	169.98
421.417	78.34
421.629	101.01
421.842	78.92
422.054	96.94
422.266	135.3
422.479	157
422.691	89.58
422.903	153.32
423.115	103.91
423.328	116.89
423.54	143.83
423.752	120.38
423.964	107.21
424.177	144.79
424.389	128.13
424.601	237.99
424.813	121.74
425.025	157.77
425.238	163.78
425.45	123.48
425.662	117.09
425.874	379.81
426.086	124.84
426.298	157.39
426.51	174.44
426.722	140.73
426.934	118.06
427.146	147.89
427.358	108.18
427.57	158.36
427.782	108.95
427.994	137.04
428.206	116.51
428.418	83.18
428.63	183.35
428.842	165.72
429.054	176.37
429.266	131.23
429.478	101.01
429.69	162.62
429.902	94.42
430.114	169.59
430.325	139.18
430.537	119.99
430.749	120.77
430.961	73.3
431.173	104.3
431.384	134.91
431.596	75.43
431.808	140.53
432.02	176.76
432.231	148.09
432.443	176.96
432.655	153.71
432.867	111.28
433.078	149.83
433.29	211.44
433.502	189.94
433.713	200.98
433.925	174.24
434.136	174.82
434.348	114.96
434.56	99.26
434.771	244.57
434.983	106.04
435.194	141.11
435.406	147.31
435.617	200.4
435.829	201.76
436.04	178.89
436.252	214.54
436.463	218.81
436.675	186.45
436.886	171.53
437.098	186.84
437.309	209.12
437.521	173.27
437.732	195.75
437.943	180.64
438.155	174.05
438.366	144.21
438.578	250
438.789	155.45
439	196.91
439.211	195.17
439.423	218.22
439.634	198.85
439.845	189.16
440.057	185.67
440.268	204.08
440.479	161.84
440.69	209.12
440.902	180.83
441.113	165.52
441.324	185.09
441.535	193.81
441.746	222.29
441.957	173.08
442.168	211.83
442.38	221.32
442.591	227.33
442.802	178.31
443.013	193.81
443.224	223.65
443.435	218.22
443.646	210.47
443.857	192.07
444.068	179.47
444.279	190.71
444.49	290.49
444.701	201.17
444.912	293.2
445.123	241.28
445.334	255.62
445.545	240.7
445.756	218.42
445.967	212.8
446.178	236.24
446.388	261.04
446.599	260.07
446.81	256.78
447.021	232.76
447.232	263.56
447.443	271.12
447.653	194.2
447.864	264.53
448.075	227.14
448.286	267.82
448.496	257.55
448.707	287.59
448.918	217.06
449.129	328.27
449.339	230.24
449.55	279.25
449.761	235.66
449.971	309.09
450.182	240.5
450.393	264.34
450.603	273.05
450.814	304.44
451.024	263.17
451.235	311.22
451.446	334.47
451.656	315.1
451.867	255.42
452.077	266.66
452.288	301.34
452.498	344.35
452.709	276.15
452.919	317.42
453.13	242.25
453.34	315.87
453.55	241.47
453.761	312.19
453.971	302.7
454.182	316.07
454.392	277.51
454.602	362.57
454.813	290.69
455.023	318.97
455.233	274.41
455.444	307.74
455.654	253.1
455.864	299.4
456.075	297.85
456.285	279.45
456.495	304.25
456.705	336.8
456.916	358.69
457.126	361.4
457.336	334.28
457.546	256.78
457.756	279.64
457.967	343.58
458.177	296.11
458.387	289.72
458.597	272.86
458.807	301.73
459.017	291.27
459.227	315.29
459.437	309.87
459.647	343
459.857	330.79
460.068	299.21
460.278	358.11
460.488	320.72
460.698	390.08
460.908	341.45
461.117	293.59
461.327	302.12
461.537	319.55
461.747	320.33
461.957	335.44
462.167	398.8
462.377	332.15
462.587	339.12
462.797	350.94
463.007	339.9
463.216	344.35
463.426	388.14
463.636	396.47
463.846	288.17
464.056	284.49
464.265	366.05
464.475	333.7
464.685	334.67
464.895	375.93
465.104	361.6
465.314	364.5
465.524	353.07
465.733	330.21
465.943	415.07
466.153	386.59
466.362	397.25
466.572	357.33
466.782	351.72
466.991	366.44
467.201	421.08
467.41	321.1
467.62	375.55
467.829	349
468.039	379.42
468.249	338.35
468.458	361.98
468.668	384.65
468.877	401.7
469.086	401.7
469.296	391.63
469.505	385.04
469.715	430.18
469.924	403.06
470.134	427.47
470.343	439.48
470.552	391.24
470.762	393.18
470.971	370.12
471.18	410.81
471.39	380.58
471.599	359.85
471.808	440.06
472.018	379.81
472.227	430.76
472.436	442.2
472.645	378.84
472.855	415.46
473.064	493.15
473.273	444.71
473.482	434.25
473.691	461.38
473.901	446.85
474.11	419.72
474.319	534.61
474.528	443.55
474.737	493.54
474.946	463.9
475.155	469.9
475.364	460.6
475.573	430.57
475.783	474.55
475.992	464.86
476.201	517.56
476.41	450.91
476.619	457.31
476.828	461.18
477.037	463.31
477.245	474.16
477.454	502.84
477.663	466.41
477.872	488.7
478.081	556.31
478.29	471.65
478.499	562.9
478.708	486.18
478.917	590.99
479.125	506.71
479.334	531.9
479.543	517.18
479.752	530.16
479.961	541.39
480.169	541.39
480.378	530.54
480.587	647.96
480.796	576.85
481.004	566.97
481.213	574.91
481.422	593.12
481.63	566.97
481.839	596.61
482.048	602.04
482.256	565.03
482.465	609.01
482.674	603.78
482.882	586.15
483.091	630.71
483.299	576.66
483.508	632.46
483.716	598.36
483.925	617.34
484.134	609.79
484.342	597
484.551	654.74
484.759	634.2
484.967	647.18
485.176	640.21
485.384	648.92
485.593	673.14
485.801	640.4
486.01	633.23
486.218	590.99
486.426	508.46
486.635	555.34
486.843	565.42
487.051	587.89
487.26	595.45
487.468	629.55
487.676	627.42
487.885	597.19
488.093	638.85
488.301	685.74
488.509	651.06
488.717	687.67
488.926	674.89
489.134	676.44
489.342	684.38
489.55	665.59
489.758	690.77
489.967	682.83
490.175	783.19
490.383	678.76
490.591	786.48
490.799	664.23
491.007	758.2
491.215	720.03
491.423	747.15
491.631	736.69
491.839	713.25
492.047	748.12
492.255	695.23
492.463	668.69
492.671	693.29
492.879	785.71
493.087	735.14
493.295	737.08
493.503	794.82
493.711	812.45
493.919	820.2
494.127	786.68
494.334	839.77
494.542	776.99
494.75	798.88
494.958	821.55
495.166	822.91
495.374	839.38
495.581	855.65
495.789	807.8
495.997	876.58
496.205	795.4
496.412	819.42
496.62	821.36
496.828	839.77
497.035	825.04
497.243	848.87
497.451	820.2
497.658	863.98
497.866	851
498.074	909.71
498.281	863.21
498.489	918.62
498.696	860.69
498.904	842.28
499.112	836.86
499.319	936.06
499.527	869.21
499.734	936.06
499.942	853.91
500.149	892.46
500.357	899.44
500.564	886.65
500.771	882.97
500.979	880.06
501.186	866.31
501.394	913.2
501.601	887.23
501.808	910.29
502.016	891.11
502.223	871.35
502.43	919.78
502.638	936.64
502.845	885.88
503.052	1013.56
503.26	932.96
503.467	1014.53
503.674	948.65
503.881	953.11
504.089	1010.84
504.296	969.19
504.503	916.49
504.71	948.65
504.917	940.71
505.125	982.17
505.332	965.89
505.539	995.15
505.746	1064.32
505.953	1059.09
506.16	1025.96
506.367	1111.98
506.574	1119.92
506.781	1114.89
506.988	1032.54
507.195	1107.33
507.402	1063.93
507.609	1144.72
507.816	1039.13
508.023	1078.46
508.23	1071.29
508.437	1082.72
508.644	1108.1
508.851	1132.71
509.058	1149.57
509.265	1132.9
509.472	1156.15
509.679	1274.73
509.885	1188.32
510.092	1175.92
510.299	1183.09
510.506	1197.62
510.713	1189.87
510.92	1189.29
511.126	1248.18
511.333	1269.3
511.54	1264.85
511.746	1300.3
511.953	1307.66
512.16	1323.55
512.367	1316.38
512.573	1273.18
512.78	1267.75
512.987	1298.36
513.193	1319.29
513.4	1224.74
513.606	1265.82
513.813	1303.6
514.02	1286.35
514.226	1334.21
514.433	1326.85
514.639	1280.73
514.846	1339.83
515.052	1302.43
515.259	1335.76
515.465	1312.51
515.672	1366.18
515.878	1476.42
516.085	1405.89
516.291	1450.26
516.497	1325.68
516.704	1377.03
516.91	1325.49
517.117	1272.6
517.323	1228.03
517.529	1313.48
517.736	1278.8
517.942	1327.23
518.148	1302.82
518.354	1363.08
518.561	1378.38
518.767	1367.34
518.973	1416.74
519.179	1446.39
519.386	1417.33
519.592	1432.63
519.798	1451.62
520.004	1525.44
520.21	1485.91
520.417	1571.35
520.623	1591.5
520.829	1590.34
521.035	1574.45
521.241	1601.77
521.447	1659.32
521.653	1721.7
521.859	1649.82
522.065	1666.68
522.271	1760.45
522.477	1690.7
522.683	1757.93
522.889	1709.88
523.095	1717.05
523.301	1704.46
523.507	1725.77
523.713	1721.12
523.919	1719.76
524.125	1785.25
524.331	1778.86
524.537	1858.1
524.742	1850.54
524.948	1860.43
525.154	1863.33
525.36	1985.39
525.566	1852.68
525.772	1938.89
525.977	1837.18
526.183	1903.82
526.389	1902.66
526.595	1832.53
526.8	1822.45
527.006	1742.43
527.212	1719.57
527.417	1719.57
527.623	1738.36
527.829	1797.26
528.034	1841.83
528.24	1837.37
528.446	1889.29
528.651	1993.14
528.857	1986.75
529.062	2053.4
529.268	1981.9
529.473	2018.72
529.679	2057.47
529.884	2109.2
530.09	2027.82
530.295	2082.85
530.501	2109.39
530.706	2057.66
530.912	2079.94
531.117	2090.98
531.323	2103.77
531.528	2140.78
531.733	2158.99
531.939	2132.64
532.144	2149.69
532.35	2126.05
532.555	2152.02
532.76	2107.84
532.966	2141.17
533.171	2106.68
533.376	2094.28
533.581	2049.72
533.787	2130.12
533.992	2180.3
534.197	2157.83
534.402	2158.21
534.607	2161.31
534.813	2240.36
535.018	2189.21
535.223	2190.96
535.428	2205.49
535.633	2275.63
535.838	2279.31
536.043	2301.01
536.249	2334.52
536.454	2255.09
536.659	2273.88
536.864	2252.57
537.069	2190.96
537.274	2205.68
537.479	2220.8
537.684	2246.37
537.889	2194.06
538.094	2318.06
538.299	2256.64
538.504	2320.38
538.708	2292.87
538.913	2334.14
539.118	2301.78
539.323	2301.78
539.528	2317.28
539.733	2307.01
539.938	2308.76
540.142	2299.46
540.347	2263.81
540.552	2247.34
540.757	2227.77
540.962	2206.65
541.166	2246.76
541.371	2195.03
541.576	2249.66
541.781	2177.4
541.985	2310.31
542.19	2269.23
542.395	2367.27
542.599	2383.93
542.804	2324.84
543.008	2388.97
543.213	2299.07
543.418	2302.56
543.622	2350.99
543.827	2275.82
544.031	2374.44
544.236	2385.67
544.44	2359.52
544.645	2438.18
544.849	2372.5
545.054	2444.96
545.258	2471.5
545.463	2452.71
545.667	2369.01
545.872	2413.96
546.076	2421.13
546.281	2412.22
546.485	2375.99
546.689	2403.11
546.894	2429.65
547.098	2425.39
547.302	2384.51
547.507	2388.19
547.711	2447.48
547.915	2434.11
548.119	2368.82
548.324	2390.52
548.528	2433.72
548.732	2416.29
548.936	2446.7
549.141	2417.45
549.345	2444.38
549.549	2467.05
549.753	2430.82
549.957	2525.37
550.161	2486.62
550.366	2491.46
550.57	2459.69
550.774	2431.79
550.978	2431.2
551.182	2479.84
551.386	2401.37
551.59	2463.56
551.794	2471.12
551.998	2488.55
552.202	2450.58
552.406	2456.78
552.61	2486.23
552.814	2505.6
553.018	2524.2
553.222	2446.12
553.426	2433.14
553.63	2500.18
553.833	2444.19
554.037	2408.92
554.241	2471.31
554.445	2493.2
554.649	2432.56
554.853	2464.34
555.056	2520.52
555.26	2512
555.464	2475.19
555.668	2499.02
555.871	2493.01
556.075	2517.42
556.279	2469.76
556.483	2384.71
556.686	2437.21
556.89	2428.49
557.094	2437.79
557.297	2331.62
557.501	2469.95
557.704	2347.31
557.908	2429.65
558.112	2346.73
558.315	2421.13
558.519	2352.35
558.722	2369.4
558.926	2366.3
559.129	2318.83
559.333	2287.83
559.536	2300.43
559.74	2284.34
559.943	2262.64
560.147	2289.58
560.35	2321.16
560.553	2310.69
560.757	2288.41
560.96	2370.95
561.164	2313.79
561.367	2332.97
561.57	2329.29
561.774	2284.15
561.977	2284.34
562.18	2323.68
562.384	2358.74
562.587	2284.73
562.79	2290.74
562.993	2255.09
563.197	2313.99
563.4	2341.11
563.603	2334.91
563.806	2367.07
564.009	2235.91
564.212	2290.54
564.416	2236.68
564.619	2270.01
564.822	2227.77
565.025	2309.53
565.228	2209.56
565.431	2245.4
565.634	2154.92
565.837	2159.18
566.04	2165.96
566.243	2143.1
566.446	2065.99
566.649	2167.51
566.852	2090.4
567.055	2131.67
567.258	2131.67
567.461	2210.53
567.664	2218.66
567.867	2114.23
568.07	2193.67
568.273	2137.87
568.475	2161.7
568.678	2093.89
568.881	2045.07
569.084	2059.99
569.287	2001.09
569.489	2022.01
569.692	2088.66
569.895	2060.57
570.098	1984.81
570.3	1985.97
570.503	1936.76
570.706	1952.07
570.909	1950.91
571.111	1889.49
571.314	1895.3
571.516	1918.36
571.719	1945.87
571.922	1936.37
572.124	1893.17
572.327	1913.12
572.529	1886.19
572.732	1852.87
572.935	1901.31
573.137	1996.63
573.34	1890.07
573.542	1964.86
573.745	1912.93
573.947	1937.34
574.15	1874.76
574.352	1901.31
574.554	1940.25
574.757	1841.44
574.959	1831.94
575.162	1831.56
575.364	1852.09
575.566	1937.15
575.769	1836.21
575.971	1864.3
576.173	1718.41
576.376	1832.53
576.578	1881.35
576.78	1885.03
576.982	1747.08
577.185	1756.58
577.387	1752.9
577.589	1751.15
577.791	1782.15
577.993	1785.64
578.196	1765.1
578.398	1782.93
578.6	1799.78
578.802	1723.64
579.004	1728.87
579.206	1735.65
579.408	1760.84
579.61	1713.76
579.812	1785.45
580.014	1740.88
580.216	1752.7
580.418	1743.6
580.62	1732.75
580.822	1721.12
581.024	1770.91
581.226	1807.73
581.428	1747.47
581.63	1878.64
581.832	1748.05
582.034	1832.33
582.236	1761.61
582.438	1816.83
582.64	1832.91
582.841	1841.44
583.043	1917.97
583.245	1775.56
583.447	1811.79
583.649	1799.01
583.85	1804.63
584.052	1855
584.254	1762.58
584.456	1820.32
584.657	1737.78
584.859	1801.91
585.061	1778.66
585.262	1752.12
585.464	1724.22
585.666	1768.78
585.867	1724.41
586.069	1790.68
586.27	1747.66
586.472	1739.91
586.674	1724.8
586.875	1699.03
587.077	1687.41
587.278	1715.89
587.48	1703.49
587.681	1807.34
587.883	1742.05
588.084	1643.43
588.285	1661.25
588.487	1621.92
588.688	1681.79
588.89	1597.51
589.091	1544.81
589.292	1518.07
589.494	1514.2
589.695	1488.04
589.896	1437.86
590.098	1432.44
590.299	1473.12
590.5	1441.35
590.702	1492.89
590.903	1523.69
591.104	1585.3
591.305	1591.7
591.507	1606.42
591.708	1584.92
591.909	1534.35
592.11	1622.7
592.311	1601
592.512	1524.08
592.714	1505.48
592.915	1552.37
593.116	1541.52
593.317	1557.6
593.518	1566.7
593.719	1530.09
593.92	1575.62
594.121	1601.77
594.322	1621.73
594.523	1556.63
594.724	1468.09
594.925	1546.17
595.126	1519.43
595.327	1525.05
595.528	1551.01
595.729	1546.55
595.929	1551.01
596.13	1544.62
596.331	1574.45
596.532	1581.43
596.733	1617.27
596.934	1576.97
597.135	1580.07
597.335	1580.46
597.536	1539.19
597.737	1587.05
597.938	1517.11
598.138	1545.2
598.339	1578.91
598.54	1537.45
598.74	1570.39
598.941	1554.3
599.142	1609.33
599.342	1592.28
599.543	1509.74
599.744	1550.82
599.944	1545.59
600.145	1546.94
600.345	1529.89
600.546	1634.32
600.746	1612.04
600.947	1647.5
601.147	1578.52
601.348	1564.19
601.548	1541.71
601.749	1555.85
601.949	1511.49
602.15	1496.96
602.35	1525.82
602.551	1573.1
602.751	1500.06
602.951	1528.92
603.152	1520.21
603.352	1579.3
603.552	1561.09
603.753	1558.37
603.953	1589.57
604.153	1554.3
604.354	1574.65
604.554	1549.27
604.754	1579.49
604.954	1496.96
605.155	1524.86
605.355	1503.35
605.555	1579.49
605.755	1616.11
605.955	1553.53
606.155	1578.14
606.356	1553.92
606.556	1563.02
606.756	1556.44
606.956	1479.52
607.156	1571.35
607.356	1489.98
607.556	1541.32
607.756	1529.7
607.956	1579.49
608.156	1547.52
608.356	1499.86
608.556	1558.76
608.756	1527.57
608.956	1499.67
609.156	1520.98
609.356	1471.57
609.556	1463.63
609.755	1497.15
609.955	1460.92
610.155	1478.94
610.355	1495.21
610.555	1464.99
610.755	1434.38
610.954	1407.64
611.154	1478.74
611.354	1479.91
611.554	1431.28
611.753	1459.95
611.953	1395.24
612.153	1438.64
612.352	1461.69
612.552	1398.92
612.752	1353.2
612.951	1458.01
613.151	1438.25
613.351	1370.44
613.55	1412.29
613.75	1463.44
613.949	1401.24
614.149	1424.3
614.348	1394.08
614.548	1347.58
614.747	1345.83
614.947	1396.79
615.146	1307.47
615.346	1411.71
615.545	1388.65
615.745	1380.51
615.944	1416.74
616.144	1363.85
616.343	1356.88
616.542	1369.47
616.742	1334.01
616.941	1330.53
617.14	1301.08
617.34	1343.7
617.539	1313.09
617.738	1281.32
617.938	1387.68
618.137	1338.47
