Data from gum_young_FLMT105791__123__17-40-51-040.txt Node

Date: Mon Mar 20 17:40:51 GMT 2023
User: antho
Spectrometer: FLMT10579
Trigger mode: 0
Integration Time (sec): 1.000000E-1
Scans to average: 10
Electric dark correction enabled: true
Nonlinearity correction enabled: false
Boxcar width: 0
XAxis mode: Wavelengths
Number of Pixels in Spectrum: 3648
>>>>>Begin Spectral Data<<<<<
345.248	-143.68
345.464	-143.68
345.681	-143.68
345.898	-159.18
346.114	-148.33
346.331	-21.81
346.548	31.66
346.764	-10.77
346.981	3.57
347.197	-13.68
347.414	18.68
347.631	-21.04
347.847	63.05
348.064	-1.08
348.28	11.32
348.497	-53.39
348.713	-6.51
348.93	35.34
349.146	29.53
349.363	13.06
349.579	39.02
349.796	11.9
350.012	-27.43
350.229	48.52
350.445	23.91
350.661	-3.6
350.878	-2.83
351.094	35.34
351.311	22.56
351.527	28.17
351.743	11.71
351.96	28.95
352.176	40.19
352.392	38.06
352.609	58.4
352.825	8.41
353.041	27.59
353.257	8.61
353.474	35.92
353.69	40.57
353.906	29.72
354.122	-11.54
354.339	64.02
354.555	27.59
354.771	-14.64
354.987	60.92
355.203	48.71
355.42	-8.06
355.636	0.08
355.852	-6.89
356.068	15.97
356.284	-21.81
356.5	65.76
356.716	30.31
356.932	9.96
357.148	47.16
357.364	16.55
357.58	32.82
357.796	51.42
358.012	67.5
358.228	23.14
358.444	-17.36
358.66	65.57
358.876	37.28
359.092	-24.72
359.308	13.64
359.524	55.3
359.74	4.54
359.956	0.86
360.172	24.3
360.388	54.14
360.604	10.93
360.819	82.42
361.035	26.82
361.251	69.44
361.467	4.15
361.683	70.8
361.898	41.35
362.114	58.2
362.33	40.96
362.546	56.46
362.762	17.52
362.977	18.1
363.193	24.49
363.409	42.12
363.624	-21.23
363.84	-0.11
364.056	15
364.271	31.47
364.487	22.56
364.703	27.4
364.918	-15.61
365.134	18.87
365.35	9.96
365.565	95.21
365.781	33.02
365.996	61.11
366.212	62.66
366.427	57.82
366.643	17.91
366.858	-8.44
367.074	20.04
367.289	94.82
367.505	114.2
367.72	2.99
367.936	10.93
368.151	26.82
368.367	42.32
368.582	51.23
368.798	5.31
369.013	74.67
369.228	54.72
369.444	38.64
369.659	69.83
369.874	44.26
370.09	74.67
370.305	-18.33
370.52	5.89
370.736	73.51
370.951	29.72
371.166	80.1
371.381	104.32
371.597	35.73
371.812	9.77
372.027	10.93
372.242	24.49
372.458	82.81
372.673	31.86
372.888	33.41
373.103	29.14
373.318	83.59
373.533	58.2
373.749	39.61
373.964	1.05
374.179	90.56
374.394	-6.51
374.609	64.99
374.824	-14.45
375.039	98.12
375.254	8.8
375.469	87.85
375.684	49.87
375.899	87.65
376.114	38.06
376.329	17.13
376.544	71.38
376.759	63.44
376.974	19.26
377.189	52.78
377.404	37.86
377.619	49.1
377.834	-21.62
378.049	9.38
378.264	-2.44
378.478	51.42
378.693	11.12
378.908	50.84
379.123	49.49
379.338	90.17
379.553	27.79
379.767	69.25
379.982	33.99
380.197	87.07
380.412	16.36
380.626	55.1
380.841	95.02
381.056	56.27
381.271	81.65
381.485	13.26
381.7	5.89
381.915	54.14
382.129	20.04
382.344	44.06
382.559	16.94
382.773	45.81
382.988	-10.96
383.202	45.81
383.417	14.03
383.632	110.52
383.846	47.55
384.061	40.96
384.275	41.93
384.49	59.56
384.704	48.71
384.919	24.3
385.133	34.96
385.348	74.48
385.562	12.48
385.777	55.3
385.991	46.58
386.206	37.86
386.42	9.19
386.634	52.59
386.849	68.28
387.063	55.88
387.277	29.34
387.492	24.49
387.706	15.77
387.92	27.98
388.135	77.77
388.349	85.33
388.563	55.1
388.778	45.42
388.992	90.56
389.206	51.81
389.42	119.62
389.635	45.81
389.849	72.15
390.063	70.99
390.277	55.49
390.491	123.3
390.706	61.5
390.92	76.42
391.134	64.6
391.348	63.24
391.562	34.18
391.776	64.02
391.99	9.19
392.205	104.9
392.419	13.64
392.633	43.48
392.847	91.53
393.061	31.47
393.275	113.81
393.489	81.07
393.703	57.43
393.917	93.47
394.131	57.43
394.345	79.13
394.559	75.25
394.773	56.65
394.986	70.41
395.2	59.17
395.414	123.3
395.628	10.35
395.842	78.74
396.056	52.78
396.27	19.65
396.484	55.49
396.697	76.8
396.911	112.84
397.125	85.14
397.339	99.67
397.553	61.69
397.766	123.11
397.98	100.83
398.194	68.09
398.408	65.37
398.621	88.82
398.835	113.42
399.049	83.97
399.262	94.82
399.476	132.8
399.69	101.6
399.903	141.52
400.117	84.36
400.331	126.99
400.544	58.98
400.758	188.98
400.971	120.01
401.185	132.02
401.398	67.7
401.612	143.84
401.826	110.13
402.039	123.89
402.253	81.65
402.466	122.72
402.68	92.5
402.893	98.89
403.106	96.76
403.32	111.49
403.533	86.3
403.747	103.35
403.96	98.5
404.174	123.5
404.387	61.3
404.6	117.88
404.814	152.56
405.027	105.48
405.24	112.65
405.454	89.4
405.667	137.84
405.88	48.13
406.094	109.94
406.307	152.75
406.52	111.29
406.733	73.51
406.947	57.43
407.16	181.04
407.373	141.32
407.586	93.08
407.799	92.11
408.012	129.7
408.226	111.68
408.439	153.72
408.652	86.88
408.865	148.68
409.078	141.9
409.291	164.18
409.504	97.54
409.717	153.33
409.93	126.02
410.143	134.35
410.357	81.45
410.57	76.42
410.783	101.02
410.996	117.1
411.209	133.19
411.421	171.55
411.634	154.88
411.847	100.64
412.06	152.17
412.273	137.45
412.486	145
412.699	206.42
412.912	138.22
413.125	149.07
413.338	138.8
413.55	145.39
413.763	134.54
413.976	161.28
414.189	97.15
414.402	151.2
414.615	197.32
414.827	111.49
415.04	169.8
415.253	150.62
415.466	189.76
415.678	212.62
415.891	138.42
416.104	166.9
416.316	158.57
416.529	144.81
416.742	149.85
416.954	190.92
417.167	136.87
417.38	161.86
417.592	176.58
417.805	134.93
418.017	101.6
418.23	163.6
418.442	122.53
418.655	144.81
418.868	138.42
419.08	183.56
419.293	192.08
419.505	173.87
419.718	163.8
419.93	189.18
420.142	154.5
420.355	197.7
420.567	195.38
420.78	163.41
420.992	170.19
421.205	201.97
421.417	126.99
421.629	191.12
421.842	136.87
422.054	141.32
422.266	190.92
422.479	204.87
422.691	165.15
422.903	202.74
423.115	166.9
423.328	167.87
423.54	178.13
423.752	162.05
423.964	164.57
424.177	167.87
424.389	172.32
424.601	269
424.813	195.96
425.025	209.72
425.238	209.52
425.45	159.53
425.662	166.9
425.874	432.33
426.086	190.92
426.298	193.25
426.51	192.47
426.722	188.6
426.934	171.74
427.146	194.99
427.358	144.23
427.57	191.12
427.782	173.1
427.994	190.15
428.206	158.95
428.418	146.17
428.63	195.38
428.842	223.67
429.054	207
429.266	220.57
429.478	165.15
429.69	174.84
429.902	149.65
430.114	213.78
430.325	171.35
430.537	134.35
430.749	151.01
430.961	120.4
431.173	143.26
431.384	157.98
431.596	91.14
431.808	180.65
432.02	200.42
432.231	229.67
432.443	265.9
432.655	239.16
432.867	188.21
433.078	241.1
433.29	255.83
433.502	233.16
433.713	261.45
433.925	240.13
434.136	261.06
434.348	191.31
434.56	168.83
434.771	303.49
434.983	180.07
435.194	225.22
435.406	228.9
435.617	279.08
435.829	294
436.04	282.76
436.252	258.93
436.463	282.18
436.675	265.51
436.886	237.23
437.098	269.97
437.309	275.4
437.521	244.01
437.732	271.91
437.943	270.36
438.155	257.96
438.366	199.25
438.578	285.28
438.789	244.78
439	246.72
439.211	246.72
439.423	243.43
439.634	267.65
439.845	277.91
440.057	263.58
440.268	285.66
440.479	224.83
440.69	277.72
440.902	263
441.113	239.55
441.324	225.99
441.535	285.08
441.746	331.78
441.957	252.73
442.168	274.81
442.38	293.61
442.591	335.84
442.802	267.26
443.013	279.46
443.224	305.43
443.435	270.36
443.646	289.54
443.857	291.09
444.068	282.18
444.279	275.01
444.49	351.93
444.701	287.8
444.912	393.78
445.123	339.33
445.334	343.01
445.545	315.89
445.756	300.97
445.967	265.9
446.178	324.99
446.388	342.43
446.599	321.12
446.81	346.89
447.021	298.45
447.232	368.98
447.443	377.11
447.653	321.31
447.864	363.94
448.075	336.62
448.286	345.53
448.496	319.96
448.707	379.44
448.918	340.3
449.129	398.62
449.339	314.73
449.55	337.59
449.761	324.03
449.971	373.63
450.182	342.04
450.393	363.36
450.603	324.99
450.814	395.71
451.024	346.31
451.235	423.22
451.446	420.9
451.656	419.35
451.867	370.14
452.077	408.69
452.288	426.52
452.498	396.68
452.709	351.15
452.919	393.78
453.13	354.25
453.34	400.36
453.55	337.2
453.761	401.72
453.971	372.66
454.182	407.14
454.392	397.26
454.602	424.19
454.813	409.27
455.023	406.17
455.233	353.48
455.444	378.66
455.654	340.49
455.864	380.6
456.075	384.67
456.285	376.34
456.495	392.81
456.705	402.3
456.916	437.17
457.126	450.74
457.336	411.6
457.546	351.15
457.756	359.68
457.967	447.06
458.177	408.69
458.387	422.84
458.597	376.73
458.807	391.45
459.017	366.26
459.227	413.34
459.437	415.09
459.647	455.58
459.857	407.72
460.068	377.69
460.278	446.86
460.488	417.61
460.698	464.69
460.908	412.76
461.117	379.05
461.327	402.3
461.537	433.11
461.747	410.05
461.957	445.89
462.167	519.52
462.377	456.36
462.587	439.5
462.797	487.16
463.007	440.08
463.216	477.47
463.426	489.1
463.636	483.48
463.846	424
464.056	415.67
464.265	493.36
464.475	436.4
464.685	427.49
464.895	461.2
465.104	412.37
465.314	486.39
465.524	425.74
465.733	430.97
465.943	519.13
466.153	515.84
466.362	498.59
466.572	480.19
466.782	452.87
466.991	487.55
467.201	520.1
467.41	442.6
467.62	475.73
467.829	459.46
468.039	497.82
468.249	485.81
468.458	500.92
468.668	495.69
468.877	520.87
469.086	554.78
469.296	532.89
469.505	490.07
469.715	560.98
469.924	483.48
470.134	555.36
470.343	560.2
470.552	502.66
470.762	479.02
470.971	475.54
471.18	497.62
471.39	524.36
471.599	463.14
471.808	552.07
472.018	498.01
472.227	552.26
472.436	575.12
472.645	532.89
472.855	541.6
473.064	598.18
473.273	577.83
473.482	567.76
473.691	571.83
473.901	589.65
474.11	544.9
474.319	653.59
474.528	570.09
474.737	626.27
474.946	605.93
475.155	595.66
475.364	634.22
475.573	584.81
475.783	619.1
475.992	617.94
476.201	625.69
476.41	613.1
476.619	593.53
476.828	602.05
477.037	612.71
477.245	618.33
477.454	668.9
477.663	632.47
477.872	622.59
478.081	712.68
478.29	619.88
478.499	747.95
478.708	669.48
478.917	750.85
479.125	704.55
479.334	702.8
479.543	659.02
479.752	693.89
479.961	693.7
480.169	750.66
480.378	676.65
480.587	818.66
480.796	720.05
481.004	713.07
481.213	729.54
481.422	732.64
481.63	751.63
481.839	779.91
482.048	818.47
482.256	776.43
482.465	789.21
482.674	805.49
482.882	810.72
483.091	853.34
483.299	787.08
483.508	811.3
483.716	795.41
483.925	815.95
484.134	778.75
484.342	791.34
484.551	814.98
484.759	812.66
484.967	844.43
485.176	856.06
485.384	836.88
485.593	836.88
485.801	823.7
486.01	805.29
486.218	781.66
486.426	699.31
486.635	699.51
486.843	705.13
487.051	756.28
487.26	774.68
487.468	802.97
487.676	792.89
487.885	754.92
488.093	803.36
488.301	844.82
488.509	875.82
488.717	882.99
488.926	839.78
489.134	828.54
489.342	880.86
489.55	865.94
489.758	874.85
489.967	889.77
490.175	971.53
490.383	902.17
490.591	976.95
490.799	891.32
491.007	988
491.215	958.16
491.423	927.35
491.631	936.07
491.839	979.47
492.047	941.69
492.255	921.16
492.463	877.17
492.671	909.34
492.879	983.74
493.087	983.35
493.295	941.3
493.503	975.99
493.711	1001.95
493.919	1029.65
494.127	1010.28
494.334	1018.03
494.542	956.61
494.75	1002.53
494.958	996.72
495.166	1069.37
495.374	1023.26
495.581	1049.8
495.789	1035.47
495.997	1134.86
496.205	1041.47
496.412	1043.02
496.62	1055.42
496.828	1064.92
497.035	1067.82
497.243	1099.4
497.451	1079.25
497.658	1077.9
497.866	1105.6
498.074	1163.53
498.281	1081.38
498.489	1155.4
498.696	1108.31
498.904	1095.14
499.112	1053.68
499.319	1158.5
499.527	1104.63
499.734	1151.13
499.942	1104.44
500.149	1132.92
500.357	1121.88
500.564	1089.91
500.771	1119.16
500.979	1135.44
501.186	1109.28
501.394	1121.49
501.601	1116.26
501.808	1125.36
502.016	1133.31
502.223	1109.67
502.43	1142.61
502.638	1118.39
502.845	1128.27
503.052	1227.28
503.26	1156.36
503.467	1257.11
503.674	1173.03
503.881	1218.36
504.089	1245.1
504.296	1195.89
504.503	1162.56
504.71	1194.53
504.917	1182.71
505.125	1224.18
505.332	1224.56
505.539	1234.83
505.746	1281.72
505.953	1307.29
506.16	1333.06
506.367	1362.12
506.574	1377.62
506.781	1403.39
506.988	1306.32
507.195	1366.77
507.402	1338.29
507.609	1376.85
507.816	1353.41
508.023	1349.34
508.23	1327.44
508.437	1308.46
508.644	1372
508.851	1439.82
509.058	1413.47
509.265	1427.61
509.472	1483.22
509.679	1583.19
509.885	1463.26
510.092	1467.91
510.299	1484.18
510.506	1476.05
510.713	1485.73
510.92	1507.43
511.126	1523.32
511.333	1573.7
511.54	1559.16
511.746	1607.21
511.953	1607.21
512.16	1630.08
512.367	1578.35
512.573	1591.52
512.78	1624.07
512.987	1589.78
513.193	1582.61
513.4	1561.1
513.606	1627.75
513.813	1665.53
514.02	1644.03
514.226	1690.53
514.433	1673.09
514.639	1620.97
514.846	1657.39
515.052	1653.71
515.259	1702.54
515.465	1745.55
515.672	1733.15
515.878	1787.79
516.085	1768.22
516.291	1812.39
516.497	1753.88
516.704	1728.89
516.91	1686.07
517.117	1661.27
517.323	1595.78
517.529	1608.96
517.736	1629.3
517.942	1638.41
518.148	1683.55
518.354	1747.49
518.561	1776.55
518.767	1765.7
518.973	1784.11
519.179	1818.98
519.386	1809.68
519.592	1819.17
519.798	1822.08
520.004	1966.62
520.21	1940.85
520.417	1996.65
520.623	2022.8
520.829	2037.53
521.035	2037.91
521.241	2076.28
521.447	2055.55
521.653	2214.42
521.859	2104.56
522.065	2193.49
522.271	2228.95
522.477	2245.03
522.683	2270.02
522.889	2215.97
523.095	2165.01
523.301	2198.14
523.507	2219.26
523.713	2196.01
523.919	2197.95
524.125	2294.44
524.331	2296.57
524.537	2375.62
524.742	2396.54
524.948	2432
525.154	2448.46
525.36	2511.04
525.566	2432.77
525.772	2475.98
525.977	2408.36
526.183	2450.98
526.389	2449.63
526.595	2356.63
526.8	2354.5
527.006	2270.41
527.212	2230.89
527.417	2229.34
527.623	2261.11
527.829	2355.66
528.034	2365.73
528.24	2400.8
528.446	2411.85
528.651	2534.49
528.857	2527.32
529.062	2598.62
529.268	2567.23
529.473	2633.11
529.679	2654.22
529.884	2702.47
530.09	2655
530.295	2643.37
530.501	2701.11
530.706	2688.71
530.912	2638.72
531.117	2660.62
531.323	2724.36
531.528	2788.1
531.733	2795.08
531.939	2719.71
532.144	2780.93
532.35	2758.85
532.555	2796.05
532.76	2737.73
532.966	2742.57
533.171	2739.28
533.376	2653.26
533.581	2653.84
533.787	2747.42
533.992	2805.35
534.197	2787.33
534.402	2761.95
534.607	2811.35
534.813	2899.51
535.018	2788.1
535.223	2848.75
535.428	2834.8
535.633	2895.44
535.838	2942.91
536.043	2969.45
536.249	3018.86
536.454	2939.42
536.659	2983.4
536.864	2940
537.069	2927.41
537.274	2921.4
537.479	2904.93
537.684	2958.99
537.889	2894.08
538.094	2983.98
538.299	2957.63
538.504	2978.36
538.708	2969.06
538.913	3009.75
539.118	2977.59
539.323	3007.81
539.528	2922.56
539.733	2972.55
539.938	2975.07
540.142	3009.56
540.347	2930.51
540.552	2927.21
540.757	2909.78
540.962	2931.28
541.166	2832.47
541.371	2862.11
541.576	2904.93
541.781	2871.22
541.985	2987.66
542.19	2984.18
542.395	3062.45
542.599	3061.48
542.804	3039.2
543.008	3070.2
543.213	3034.94
543.418	2979.14
543.622	3047.92
543.827	2949.11
544.031	3097.52
544.236	3058.38
544.44	3072.91
544.645	3175.21
544.849	3076.4
545.054	3120.57
545.258	3166.69
545.463	3172.69
545.667	3048.11
545.872	3133.17
546.076	3104.11
546.281	3126.58
546.485	3077.76
546.689	3115.92
546.894	3180.64
547.098	3154.29
547.302	3112.24
547.507	3109.92
547.711	3108.56
547.915	3181.22
548.119	3103.52
548.324	3093.84
548.528	3159.32
548.732	3119.22
548.936	3162.42
549.141	3188.39
549.345	3159.71
549.549	3161.07
549.753	3197.49
549.957	3274.8
550.161	3249.8
550.366	3203.88
550.57	3164.55
550.774	3186.84
550.978	3181.22
551.182	3189.94
551.386	3177.15
551.59	3173.27
551.794	3208.92
551.998	3254.26
552.202	3211.83
552.406	3203.3
552.61	3299.21
552.814	3245.54
553.018	3250
553.222	3176.37
553.426	3210.67
553.63	3282.74
553.833	3205.82
554.037	3120.96
554.241	3213.18
554.445	3221.13
554.649	3245.54
554.853	3176.37
555.056	3287.2
555.26	3263.95
555.464	3251.55
555.668	3191.1
555.871	3300.56
556.075	3265.5
556.279	3185.48
556.483	3187.42
556.686	3196.91
556.89	3221.71
557.094	3226.94
557.297	3078.53
557.501	3177.92
557.704	3073.88
557.908	3136.27
558.112	3055.47
558.315	3199.43
558.519	3101.2
558.722	3079.11
558.926	3060.9
559.129	2958.21
559.333	2973.91
559.536	2962.86
559.74	2955.5
559.943	2938.64
560.147	2963.44
560.35	2988.83
560.553	2993.28
560.757	2965.58
560.96	3041.72
561.164	3004.52
561.367	3117.09
561.57	2985.53
561.774	2984.95
561.977	2984.37
562.18	2958.41
562.384	3052.57
562.587	2925.08
562.79	2939.42
562.993	2979.14
563.197	2971.97
563.4	2987.28
563.603	2981.27
563.806	3029.12
564.009	2941.74
564.212	2966.54
564.416	2846.03
564.619	2892.34
564.822	2830.53
565.025	2930.9
565.228	2898.93
565.431	2907.84
565.634	2771.25
565.837	2811.93
566.04	2806.12
566.243	2741.6
566.446	2714.48
566.649	2771.63
566.852	2732.3
567.055	2734.05
567.258	2753.42
567.461	2833.05
567.664	2810.77
567.867	2721.45
568.07	2738.89
568.273	2772.99
568.475	2775.32
568.678	2645.7
568.881	2666.04
569.084	2664.49
569.287	2535.26
569.489	2569.36
569.692	2620.12
569.895	2628.07
570.098	2545.73
570.3	2539.72
570.503	2500.19
570.706	2471.52
570.909	2494
571.111	2403.13
571.314	2406.62
571.516	2439.75
571.719	2425.6
571.922	2442.65
572.124	2433.35
572.327	2447.11
572.529	2415.14
572.732	2413.78
572.935	2425.6
573.137	2490.9
573.34	2382.59
573.542	2459.7
573.745	2437.23
573.947	2445.56
574.15	2402.16
574.352	2398.28
574.554	2433.35
574.757	2368.83
574.959	2315.55
575.162	2321.95
575.364	2302.77
575.566	2394.02
575.769	2290.17
575.971	2307.03
576.173	2203.96
576.376	2286.49
576.578	2335.51
576.78	2342.87
576.982	2188.07
577.185	2261.5
577.387	2230.89
577.589	2216.94
577.791	2302.19
577.993	2277.58
578.196	2233.6
578.398	2242.9
578.6	2218.49
578.802	2195.24
579.004	2120.84
579.206	2150.09
579.408	2202.21
579.61	2158.04
579.812	2215.77
580.014	2170.82
580.216	2210.16
580.418	2199.31
580.62	2190.97
580.822	2145.64
581.024	2180.51
581.226	2231.27
581.428	2209.38
581.63	2271.38
581.832	2190.78
582.034	2242.51
582.236	2216.74
582.438	2247.55
582.64	2273.32
582.841	2250.84
583.043	2313.81
583.245	2246.97
583.447	2291.14
583.649	2254.52
583.85	2226.82
584.052	2277.19
584.254	2213.06
584.456	2270.6
584.657	2151.84
584.859	2232.82
585.061	2232.24
585.262	2193.69
585.464	2158.04
585.666	2198.53
585.867	2153
586.069	2196.79
586.27	2130.91
586.472	2188.65
586.674	2143.51
586.875	2117.35
587.077	2125.88
587.278	2152.81
587.48	2112.51
587.681	2234.57
587.883	2131.49
588.084	2074.53
588.285	2067.56
588.487	2033.46
588.688	2055.93
588.89	1976.88
589.091	1935.23
589.292	1867.61
589.494	1888.53
589.695	1818.4
589.896	1753.69
590.098	1759.5
590.299	1798.25
590.5	1772.67
590.702	1861.99
590.903	1857.54
591.104	1919.73
591.305	1942.01
591.507	1939.3
591.708	1930
591.909	1922.05
592.11	1944.53
592.311	1947.43
592.512	1909.07
592.714	1886.6
592.915	1926.12
593.116	1908.68
593.317	1943.56
593.518	1914.69
593.719	1920.31
593.92	1928.45
594.121	1995.68
594.322	1954.02
594.523	1929.22
594.724	1845.52
594.925	1868.39
595.126	1913.53
595.327	1876.52
595.528	1903.07
595.729	1897.64
595.929	1871.49
596.13	1896.48
596.331	1945.3
596.532	1936
596.733	1980.76
596.934	1950.34
597.135	1967.78
597.335	1941.23
597.536	1908.68
597.737	1967.58
597.938	1885.63
598.138	1950.15
598.339	1936.97
598.54	1954.41
598.74	1875.36
598.941	1917.98
599.142	1961.19
599.342	1954.02
599.543	1908.88
599.744	1897.45
599.944	1922.83
600.145	1882.72
600.345	1886.98
600.546	2014.47
600.746	1950.92
600.947	1993.74
601.147	1918.18
601.348	1944.33
601.548	1864.12
601.749	1914.5
601.949	1864.7
602.15	1855.79
602.35	1861.22
602.551	1917.21
602.751	1857.92
602.951	1864.32
603.152	1828.09
603.352	1930.77
603.552	1870.9
603.753	1963.71
603.953	1934.45
604.153	1930.97
604.354	1910.43
604.554	1910.82
604.754	1900.93
604.954	1860.44
605.155	1888.53
605.355	1894.93
605.555	1953.83
605.755	1922.25
605.955	1900.35
606.155	1886.02
606.356	1918.18
606.556	1932.13
606.756	1922.44
606.956	1837.58
607.156	1928.25
607.356	1849.4
607.556	1872.65
607.756	1869.55
607.956	1918.76
608.156	1875.75
608.356	1816.65
608.556	1879.62
608.756	1843
608.956	1817.62
609.156	1853.08
609.356	1834.29
609.556	1807.74
609.755	1811.23
609.955	1779.26
610.155	1809.87
610.355	1815.3
610.555	1779.65
610.755	1782.17
610.954	1730.05
611.154	1787.79
611.354	1808.71
611.554	1771.12
611.753	1808.13
611.953	1736.06
612.153	1823.24
612.352	1797.47
612.552	1716.87
612.752	1701.57
612.951	1739.35
613.151	1717.07
613.351	1701.57
613.55	1732.18
613.75	1722.88
613.949	1710.48
614.149	1722.3
614.348	1705.25
614.548	1688.01
614.747	1663.21
614.947	1674.25
615.146	1636.86
615.346	1704.09
615.545	1669.21
615.745	1681.81
615.944	1676.58
616.144	1654.29
616.343	1664.76
616.542	1620.97
616.742	1650.42
616.941	1630.27
617.14	1561.88
