Data from gum_young_FLMT105791__126__17-40-54-040.txt Node

Date: Mon Mar 20 17:40:54 GMT 2023
User: antho
Spectrometer: FLMT10579
Trigger mode: 0
Integration Time (sec): 1.000000E-1
Scans to average: 10
Electric dark correction enabled: true
Nonlinearity correction enabled: false
Boxcar width: 0
XAxis mode: Wavelengths
Number of Pixels in Spectrum: 3648
>>>>>Begin Spectral Data<<<<<
345.248	-144.55
345.464	-144.55
345.681	-144.55
345.898	-150.17
346.114	-134.09
346.331	-29.08
346.548	48.42
346.764	-0.6
346.981	-6.8
347.197	-9.9
347.414	8.12
347.631	-20.36
347.847	58.5
348.064	-36.83
348.28	44.93
348.497	-50.97
348.713	-5.44
348.93	42.03
349.146	17.03
349.363	-26.56
349.579	-10.48
349.796	-3.5
350.012	-9.51
350.229	23.62
350.445	9.48
350.661	-30.43
350.878	3.47
351.094	37.76
351.311	17.81
351.527	-2.73
351.743	-19.78
351.96	48.03
352.176	32.53
352.392	42.03
352.609	22.46
352.825	-5.25
353.041	-6.6
353.257	-5.83
353.474	0.57
353.69	-7.77
353.906	7.35
354.122	-9.7
354.339	35.25
354.555	14.13
354.771	-25.4
354.987	44.74
355.203	51.52
355.42	-3.31
355.636	0.18
355.852	4.05
356.068	-2.73
356.284	-9.12
356.5	55.01
356.716	12.19
356.932	2.12
357.148	24.01
357.364	-16.1
357.58	37.57
357.796	43.38
358.012	32.73
358.228	24.98
358.444	-43.22
358.66	72.64
358.876	25.56
359.092	0.95
359.308	8.51
359.524	25.17
359.74	-19.78
359.956	-3.5
360.172	18.39
360.388	41.25
360.604	-20.55
360.819	85.23
361.035	35.83
361.251	20.52
361.467	-30.63
361.683	26.53
361.898	24.2
362.114	14.51
362.33	-5.83
362.546	69.54
362.762	7.15
362.977	26.72
363.193	-24.04
363.409	43.58
363.624	-6.6
363.84	-7.57
364.056	-10.87
364.271	50.94
364.487	22.85
364.703	-24.23
364.918	7.73
365.134	35.25
365.35	-8.73
365.565	81.36
365.781	27.3
365.996	31.95
366.212	75.74
366.427	16.84
366.643	14.71
366.858	-2.34
367.074	-10.09
367.289	63.73
367.505	88.91
367.72	-37.02
367.936	-22.88
368.151	38.93
368.367	38.93
368.582	30.21
368.798	12
369.013	55.78
369.228	10.83
369.444	8.9
369.659	53.85
369.874	13.35
370.09	74.19
370.305	-49.42
370.52	-5.05
370.736	23.81
370.951	35.63
371.166	57.91
371.381	48.42
371.597	37.96
371.812	-7.38
372.027	17.42
372.242	24.4
372.458	80.2
372.673	7.73
372.888	14.9
373.103	26.53
373.318	95.89
373.533	31.37
373.749	53.07
373.964	-7.96
374.179	79.61
374.394	-18.81
374.609	68.57
374.824	-8.15
375.039	66.25
375.254	5.41
375.469	52.88
375.684	22.85
375.899	40.28
376.114	5.8
376.329	33.5
376.544	55.78
376.759	31.56
376.974	-7.96
377.189	26.14
377.404	8.7
377.619	49.97
377.834	-3.5
378.049	0.76
378.264	-8.93
378.478	21.68
378.693	17.23
378.908	51.52
379.123	-5.44
379.338	55.01
379.553	31.37
379.767	41.83
379.982	40.09
380.197	50.36
380.412	5.99
380.626	21.1
380.841	85.23
381.056	53.07
381.271	96.28
381.485	30.21
381.7	16.06
381.915	36.02
382.129	-8.73
382.344	36.8
382.559	22.85
382.773	41.06
382.988	-43.22
383.202	14.13
383.417	-12.8
383.632	116.04
383.846	32.73
384.061	17.81
384.275	12.96
384.49	63.73
384.704	47.65
384.919	40.86
385.133	24.4
385.348	59.85
385.562	-14.93
385.777	49.58
385.991	48.61
386.206	4.44
386.42	22.46
386.634	79.03
386.849	49.97
387.063	26.72
387.277	4.05
387.492	15.48
387.706	-2.73
387.92	8.9
388.135	69.54
388.349	40.09
388.563	27.69
388.778	41.25
388.992	60.63
389.206	49
389.42	110.23
389.635	43.96
389.849	62.37
390.063	95.31
390.277	56.75
390.491	112.16
390.706	63.73
390.92	76.51
391.134	34.28
391.348	81.36
391.562	7.35
391.776	50.94
391.99	42.22
392.205	47.84
392.419	19.55
392.633	22.85
392.847	97.63
393.061	13.16
393.275	77.1
393.489	51.33
393.703	36.99
393.917	76.51
394.131	26.91
394.345	35.44
394.559	87.17
394.773	36.41
394.986	61.01
395.2	43.38
395.414	98.02
395.628	25.75
395.842	61.4
396.056	53.46
396.27	-25.98
396.484	66.44
396.697	67.6
396.911	86.78
397.125	56.75
397.339	75.35
397.553	66.25
397.766	85.23
397.98	68.38
398.194	83.68
398.408	46.1
398.621	82.91
398.835	72.64
399.049	58.3
399.262	123.98
399.476	84.85
399.69	104.03
399.903	155.18
400.117	82.33
400.331	124.56
400.544	79.81
400.758	208.65
400.971	92.98
401.185	118.75
401.398	58.5
401.612	116.04
401.826	96.66
402.039	123.01
402.253	59.85
402.466	122.43
402.68	71.86
402.893	120.69
403.106	99.76
403.32	86.4
403.533	104.61
403.747	98.41
403.96	111.39
404.174	107.71
404.387	76.51
404.6	96.08
404.814	138.71
405.027	100.93
405.24	80.97
405.454	91.24
405.667	142.97
405.88	63.92
406.094	116.23
406.307	138.71
406.52	114.88
406.733	70.9
406.947	76.9
407.16	151.49
407.373	138.13
407.586	81.16
407.799	72.83
408.012	116.62
408.226	105.38
408.439	157.31
408.652	86.78
408.865	110.23
409.078	146.84
409.291	123.21
409.504	77.29
409.717	117.59
409.93	111.39
410.143	119.33
410.357	50.36
410.57	63.73
410.783	101.12
410.996	109.45
411.209	109.26
411.421	178.43
411.634	103.44
411.847	101.12
412.06	132.51
412.273	120.69
412.486	107.13
412.699	213.49
412.912	121.27
413.125	163.31
413.338	147.43
413.55	142.58
413.763	126.11
413.976	150.91
414.189	123.4
414.402	124.76
414.615	160.02
414.827	138.32
415.04	160.02
415.253	146.65
415.466	183.07
415.678	199.54
415.891	126.69
416.104	131.34
416.316	152.27
416.529	131.15
416.742	156.53
416.954	194.12
417.167	142.58
417.38	138.13
417.592	182.11
417.805	134.25
418.017	99.57
418.23	205.55
418.442	121.46
418.655	147.04
418.868	153.04
419.08	160.79
419.293	176.29
419.505	146.84
419.718	138.9
419.93	182.49
420.142	125.92
420.355	186.17
420.567	168.93
420.78	157.69
420.992	151.3
421.205	198.38
421.417	104.03
421.629	151.3
421.842	115.84
422.054	157.69
422.266	180.36
422.479	199.16
422.691	163.89
422.903	169.32
423.115	123.4
423.328	154.98
423.54	159.63
423.752	171.26
423.964	154.59
424.177	174.16
424.389	161.57
424.601	246.62
424.813	185.4
425.025	214.85
425.238	188.89
425.45	166.03
425.662	167.96
425.874	421
426.086	161.18
426.298	184.62
426.51	196.25
426.722	202.64
426.934	153.24
427.146	209.04
427.358	142.39
427.57	212.33
427.782	144.52
427.994	175.33
428.206	147.04
428.418	139.09
428.63	184.62
428.842	194.12
429.054	189.27
429.266	197.99
429.478	146.65
429.69	184.04
429.902	109.45
430.114	202.84
430.325	207.1
430.537	150.91
430.749	166.61
430.961	103.25
431.173	143.94
431.384	170.29
431.596	103.25
431.808	178.43
432.02	182.11
432.231	221.63
432.443	258.06
432.655	188.5
432.867	173.97
433.078	223.37
433.29	260.57
433.502	241.78
433.713	222.02
433.925	227.83
434.136	249.53
434.348	154.59
434.56	140.64
434.771	288.47
434.983	133.28
435.194	193.15
435.406	219.31
435.617	228.8
435.829	260.96
436.04	226.67
436.252	251.66
436.463	260.57
436.675	244.88
436.886	270.45
437.098	251.08
437.309	288.67
437.521	243.14
437.732	223.18
437.943	227.64
438.155	245.07
438.366	205.36
438.578	316.57
438.789	251.66
439	250.11
439.211	214.46
439.423	243.72
439.634	262.9
439.845	276.27
440.057	263.09
440.268	274.72
440.479	220.27
440.69	266.39
440.902	244.3
441.113	255.54
441.324	255.92
441.535	266.58
441.746	320.05
441.957	252.05
442.168	281.69
442.38	322.19
442.591	287.89
442.802	270.26
443.013	269.49
443.224	313.85
443.435	246.62
443.646	286.73
443.857	268.91
444.068	266.58
444.279	278.79
444.49	335.55
444.701	303.59
444.912	365.39
445.123	296.42
445.334	321.6
445.545	280.14
445.756	294.67
445.967	272.2
446.178	298.74
446.388	342.14
446.599	323.35
446.81	316.76
447.021	286.34
447.232	339.43
447.443	376.24
447.653	309.01
447.864	369.85
448.075	319.86
448.286	350.28
448.496	320.25
448.707	335.17
448.918	320.83
449.129	415.96
449.339	321.6
449.55	327.42
449.761	309.4
449.971	401.04
450.182	333.04
450.393	354.54
450.603	341.37
450.814	390.38
451.024	385.93
451.235	395.42
451.446	430.88
451.656	400.85
451.867	359.19
452.077	387.09
452.288	409.57
452.498	418.87
452.709	359.58
452.919	356.48
453.13	325.67
453.34	387.87
453.55	302.42
453.761	370.23
453.971	362.87
454.182	398.13
454.392	395.42
454.602	449.28
454.813	382.05
455.023	401.04
455.233	346.21
455.444	369.85
455.654	311.72
455.864	384.77
456.075	349.5
456.285	372.75
456.495	401.82
456.705	379.53
456.916	422.35
457.126	429.52
457.336	400.85
457.546	327.22
457.756	366.17
457.967	425.26
458.177	384.77
458.387	364.81
458.597	361.52
458.807	356.29
459.017	390.77
459.227	386.12
459.437	413.44
459.647	390.19
459.857	438.43
460.068	379.34
460.278	443.67
460.488	431.65
460.698	454.13
460.908	428.17
461.117	360.93
461.327	392.9
461.537	420.61
461.747	434.37
461.957	413.25
462.167	521.16
462.377	455.29
462.587	430.3
462.797	476.6
463.007	444.44
463.216	450.25
463.426	523.88
463.636	452.77
463.846	379.73
464.056	428.17
464.265	482.03
464.475	395.81
464.685	450.45
464.895	447.35
465.104	418.09
465.314	480.28
465.524	434.56
465.733	396
465.943	501.21
466.153	499.85
466.362	478.15
466.572	468.46
466.782	444.05
466.991	479.9
467.201	507.8
467.41	405.5
467.62	481.45
467.829	429.33
468.039	495.01
468.249	474.66
468.458	457.42
468.668	495.4
468.877	526.59
469.086	548.29
469.296	502.18
469.505	480.86
469.715	566.5
469.924	502.37
470.134	512.06
470.343	533.37
470.552	488.81
470.762	489.39
470.971	468.66
471.18	516.51
471.39	492.68
471.599	476.99
471.808	501.4
472.018	489.39
472.227	550.42
472.436	568.44
472.645	549.64
472.855	489
473.064	580.45
473.273	561.27
473.482	565.53
473.691	572.7
473.901	600.6
474.11	539.18
474.319	642.64
474.528	594.4
474.737	633.54
474.946	613.39
475.155	592.66
475.364	609.51
475.573	593.04
475.783	627.72
475.992	620.75
476.201	642.06
476.41	604.28
476.619	578.51
476.828	613.78
477.037	572.51
477.245	598.28
477.454	631.99
477.663	625.98
477.872	622.11
478.081	688.56
478.29	622.11
478.499	692.05
478.708	670.93
478.917	706.77
479.125	664.73
479.334	697.86
479.543	697.86
479.752	706
479.961	684.88
480.169	708.71
480.378	668.8
480.587	790.67
480.796	725.37
481.004	695.15
481.213	727.5
481.422	719.37
481.63	720.53
481.839	768.97
482.048	773.23
482.256	751.92
482.465	728.09
482.674	774
482.882	776.33
483.091	833.87
483.299	784.27
483.508	811.01
483.716	781.17
483.925	807.13
484.134	742.23
484.342	774.59
484.551	815.66
484.759	806.94
484.967	822.05
485.176	840.65
485.384	826.7
485.593	850.34
485.801	810.82
486.01	801.71
486.218	774.97
486.426	703.48
486.635	743
486.843	737.58
487.051	748.24
487.26	710.45
487.468	788.34
487.676	795.7
487.885	795.12
488.093	826.12
488.301	841.04
488.509	851.12
488.717	873.01
488.926	877.08
489.134	870.1
489.342	894.9
489.55	842.78
489.758	847.05
489.967	864.29
490.175	1005.73
490.383	897.23
490.591	999.72
490.799	896.65
491.007	972.01
491.215	959.42
491.423	950.51
491.631	920.67
491.839	939.85
492.047	976.28
492.255	896.65
492.463	865.65
492.671	913.31
492.879	963.49
493.087	968.72
493.295	955.74
493.503	974.34
493.711	1025.88
493.919	1021.81
494.127	1018.71
494.334	1014.83
494.542	965.81
494.75	1015.22
494.958	997.78
495.166	1092.33
495.374	1076.44
495.581	1045.25
495.789	1058.04
495.997	1077.8
496.205	1053.58
496.412	1061.33
496.62	1055.52
496.828	1078.57
497.035	1069.08
497.243	1103.96
497.451	1072.57
497.658	1091.36
497.866	1076.06
498.074	1173.9
498.281	1065.59
498.489	1203.15
498.696	1109.38
498.904	1041.57
499.112	1068.69
499.319	1173.9
499.527	1125.07
499.734	1168.28
499.942	1085.55
500.149	1112.87
500.357	1158.98
500.564	1098.14
500.771	1150.84
500.979	1105.51
501.186	1094.66
501.394	1131.86
501.601	1110.35
501.808	1152.97
502.016	1147.35
502.223	1116.36
502.43	1154.52
502.638	1148.9
502.845	1140.77
503.052	1254.88
503.26	1130.69
503.467	1223.89
503.674	1191.72
503.881	1208.97
504.089	1257.79
504.296	1224.66
504.503	1176.22
504.71	1202.77
504.917	1208
505.125	1219.43
505.332	1215.75
505.539	1268.06
505.746	1347.5
505.953	1314.56
506.16	1331.41
506.367	1337.61
506.574	1396.32
506.781	1383.73
506.988	1318.05
507.195	1350.21
507.402	1366.87
507.609	1389.73
507.816	1331.61
508.023	1390.31
508.23	1338.2
508.437	1276.97
508.644	1373.26
508.851	1429.64
509.058	1434.88
509.265	1425.38
509.472	1469.94
509.679	1560.81
509.885	1454.25
510.092	1508.31
510.299	1474.4
510.506	1484.67
510.713	1514.31
510.92	1481.76
511.126	1531.17
511.333	1571.86
511.54	1568.56
511.746	1582.7
511.953	1603.05
512.16	1635.79
512.367	1578.06
512.573	1560.81
512.78	1621.07
512.987	1586.19
513.193	1608.28
513.4	1562.17
513.606	1619.71
513.813	1611.96
514.02	1634.63
514.226	1698.57
514.433	1672.8
514.639	1637.73
514.846	1627.65
515.052	1644.9
515.259	1696.43
515.465	1694.69
515.672	1726.08
515.878	1796.8
516.085	1761.73
516.291	1810.55
516.497	1759.21
516.704	1699.92
516.91	1676.48
517.117	1613.32
517.323	1603.63
517.529	1645.09
517.736	1625.52
517.942	1621.84
518.148	1685.2
518.354	1730.53
518.561	1755.14
518.767	1729.76
518.973	1768.7
519.179	1844.65
519.386	1818.69
519.592	1805.9
519.798	1828.96
520.004	1965.16
520.21	1932.03
520.417	2002.36
520.623	2038.4
520.829	2079.86
521.035	2041.11
521.241	2088.58
521.447	2081.8
521.653	2250.16
521.859	2147.48
522.065	2154.26
522.271	2216.45
522.477	2195.72
522.683	2237.76
522.889	2197.27
523.095	2181.77
523.301	2191.85
523.507	2162.98
523.713	2249.2
523.919	2222.26
524.125	2293.37
524.331	2278.45
524.537	2371.26
524.742	2380.36
524.948	2396.64
525.154	2432.87
525.36	2497.77
525.566	2431.71
525.772	2456.7
525.977	2401.87
526.183	2466.77
526.389	2472
526.595	2398.38
526.8	2359.63
527.006	2293.56
527.212	2250.94
527.417	2242.8
527.623	2217.03
527.829	2352.46
528.034	2398.57
528.24	2403.81
528.446	2459.8
528.651	2516.76
528.857	2565.58
529.062	2588.83
529.268	2586.12
529.473	2638.63
529.679	2655.29
529.884	2761.85
530.09	2713.22
530.295	2708.96
530.501	2730.27
530.706	2693.07
530.912	2712.45
531.117	2744.03
531.323	2748.87
531.528	2785.29
531.733	2823.66
531.939	2762.82
532.144	2778.32
532.35	2786.65
532.555	2831.99
532.76	2781.61
532.966	2759.14
533.171	2715.74
533.376	2659.36
533.581	2700.24
533.787	2715.35
533.992	2781.81
534.197	2788.78
534.402	2828.69
534.607	2801.18
534.813	2875.58
535.018	2827.14
535.223	2847.87
535.428	2839.35
535.633	2905.03
535.838	2926.92
536.043	2958.31
536.249	3037.94
536.454	2947.85
536.659	3014.5
536.864	2939.52
537.069	2894.18
537.274	2926.73
537.479	2927.7
537.684	2968.39
537.889	2897.67
538.094	3065.65
538.299	2962.57
538.504	3020.31
538.708	2994.93
538.913	3031.35
539.118	3042.4
539.323	3031.55
539.528	2981.56
539.733	2979.82
539.938	2984.85
540.142	3010.62
540.347	2966.06
540.552	2936.22
540.757	2916.07
540.962	2956.37
541.166	2884.3
541.371	2895.92
541.576	2926.34
541.781	2847.68
541.985	2984.85
542.19	2931.38
542.395	3059.45
542.599	3103.23
542.804	3088.9
543.008	3104.59
543.213	3052.28
543.418	2997.25
543.622	3098.97
543.827	2984.85
544.031	3100.33
544.236	3104.2
544.44	3134.04
544.645	3195.07
544.849	3138.69
545.054	3140.63
545.258	3184.22
545.463	3161.74
545.667	3092.77
545.872	3200.88
546.076	3163.49
546.281	3159.23
546.485	3122.41
546.689	3184.99
546.894	3185.58
547.098	3165.81
547.302	3105.75
547.507	3134.81
547.711	3175.11
547.915	3204.95
548.119	3120.09
548.324	3129.58
548.528	3193.52
548.732	3158.84
548.936	3228.39
549.141	3218.9
549.345	3207.86
549.549	3219.48
549.753	3289.62
549.957	3283.22
550.161	3274.7
550.366	3303.18
550.57	3194.1
550.774	3253
550.978	3215.41
551.182	3216.19
551.386	3199.72
551.59	3184.61
551.794	3187.51
551.998	3237.69
552.202	3261.33
552.406	3190.81
552.61	3247.77
552.814	3218.9
553.018	3313.45
553.222	3217.54
553.426	3222.19
553.63	3305.7
553.833	3244.86
554.037	3168.72
554.241	3250.29
554.445	3253.39
554.649	3265.4
554.853	3213.28
555.056	3288.07
555.26	3302.41
555.464	3212.7
555.668	3268.69
555.871	3261.91
556.075	3273.92
556.279	3218.32
556.483	3207.08
556.686	3148.18
556.89	3168.91
557.094	3200.88
557.297	3063.9
557.501	3204.95
557.704	3096.65
557.908	3165.43
558.112	3075.72
558.315	3132.88
558.519	3089.28
558.722	3040.85
558.926	3030.77
559.129	2999.97
559.333	3011.2
559.536	3036.78
559.74	2969.35
559.943	2941.45
560.147	3007.52
560.35	2998.8
560.553	3028.06
560.757	2959.86
560.96	3048.79
561.164	3021.67
561.367	3085.99
561.57	3039.3
561.774	3018.57
561.977	2996.28
562.18	2961.8
562.384	3050.15
562.587	2951.53
562.79	2956.18
562.993	2926.73
563.197	2945.52
563.4	3026.7
563.603	3032.13
563.806	3039.88
564.009	2931.38
564.212	2943.59
564.416	2897.86
564.619	2929.05
564.822	2831.99
565.025	2961.99
565.228	2855.62
565.431	2914.14
565.634	2795.76
565.837	2836.83
566.04	2780.64
566.243	2783.94
566.446	2701.98
566.649	2813.39
566.852	2736.08
567.055	2756.62
567.258	2805.06
567.461	2848.46
567.664	2835.28
567.867	2752.55
568.07	2735.5
568.273	2773.67
568.475	2831.99
568.678	2693.85
568.881	2679.9
569.084	2668.46
569.287	2579.73
569.489	2612.86
569.692	2637.66
569.895	2617.7
570.098	2524.7
570.3	2536.91
570.503	2533.42
570.706	2513.66
570.909	2513.08
571.111	2487.7
571.314	2429.19
571.516	2457.28
571.719	2493.9
571.922	2440.62
572.124	2435.97
572.327	2458.25
572.529	2437.32
572.732	2406.52
572.935	2475.49
573.137	2512.89
573.34	2406.91
573.542	2492.15
573.745	2424.54
573.947	2425.12
574.15	2369.12
574.352	2360.41
574.554	2427.25
574.757	2369.71
574.959	2339.68
575.162	2338.9
575.364	2295.89
575.566	2406.52
575.769	2269.73
575.971	2337.16
576.173	2202.7
576.376	2266.05
576.578	2297.63
576.78	2332.89
576.982	2196.69
577.185	2264.31
577.387	2230.01
577.589	2222.46
577.791	2272.06
577.993	2311.19
578.196	2211.22
578.398	2232.92
578.6	2262.56
578.802	2166.85
579.004	2127.72
579.206	2168.02
579.408	2193.98
579.61	2161.23
579.812	2251.33
580.014	2165.3
580.216	2166.08
580.418	2179.25
580.62	2205.41
580.822	2182.35
581.024	2189.52
581.226	2231.76
581.428	2175.18
581.63	2296.08
581.832	2195.53
582.034	2243.58
582.236	2226.72
582.438	2261.01
582.64	2257.72
582.841	2282.91
583.043	2309.84
583.245	2265.66
583.447	2257.91
583.649	2259.66
583.85	2246.87
584.052	2254.43
584.254	2215.87
584.456	2255.01
584.657	2211.41
584.859	2251.52
585.061	2225.36
585.262	2192.62
585.464	2133.92
585.666	2212
585.867	2148.25
586.069	2206.18
586.27	2135.47
586.472	2116.09
586.674	2123.65
586.875	2161.23
587.077	2160.65
587.278	2149.22
587.48	2140.7
587.681	2226.14
587.883	2130.43
588.084	2080.83
588.285	2095.17
588.487	2085.67
588.688	2074.82
588.89	1968.26
589.091	1922.15
589.292	1915.56
589.494	1880.88
589.695	1841.36
589.896	1773.93
590.098	1763.47
590.299	1851.82
590.5	1793.7
590.702	1858.79
590.903	1907.04
591.104	1920.99
591.305	1954.51
591.507	1976.01
591.708	1947.34
591.909	1920.99
592.11	1974.85
592.311	1954.51
592.512	1919.24
592.714	1893.86
592.915	1900.64
593.116	1895.61
593.317	1940.56
593.518	1923.31
593.719	1959.74
593.92	1964.97
594.121	1998.29
594.322	1959.16
594.523	1935.32
594.724	1887.66
594.925	1871.39
595.126	1904.71
595.327	1904.91
595.528	1891.73
595.729	1919.44
595.929	1903.55
596.13	1906.65
596.331	1928.16
596.532	1957.41
596.733	2008.37
596.934	1939.01
597.135	1971.36
597.335	1967.49
597.536	1940.36
597.737	1952.57
597.938	1892.12
598.138	1968.84
598.339	1941.14
598.54	1950.24
598.74	1926.61
598.941	1934.36
599.142	1954.89
599.342	1915.37
599.543	1865.96
599.744	1906.46
599.944	1891.34
600.145	1885.34
600.345	1941.72
600.546	1966.13
600.746	1954.12
600.947	1995.77
601.147	1902.19
601.348	1951.21
601.548	1919.05
601.749	1919.24
601.949	1864.61
602.15	1927.38
602.35	1877.78
602.551	1945.21
602.751	1869.64
602.951	1882.24
603.152	1829.93
603.352	1954.51
603.552	1901.61
603.753	1951.99
603.953	1939.78
604.153	1899.68
604.354	1906.65
604.554	1893.48
604.754	1891.15
604.954	1849.69
605.155	1921.96
605.355	1887.86
605.555	1928.35
605.755	1924.67
605.955	1917.11
606.155	1898.13
606.356	1881.66
606.556	1932.03
606.756	1906.65
606.956	1843.1
607.156	1958.19
607.356	1850.27
607.556	1887.08
607.756	1904.71
607.956	1912.46
608.156	1895.03
608.356	1838.45
608.556	1860.93
608.756	1836.9
608.956	1828.96
609.156	1822.95
609.356	1802.03
609.556	1781.68
609.755	1832.06
609.955	1779.55
610.155	1806.29
610.355	1840.2
610.555	1763.66
610.755	1753.2
610.954	1706.9
611.154	1796.6
611.354	1817.33
611.554	1769.28
611.753	1775.48
611.953	1718.91
612.153	1823.73
612.352	1791.76
612.552	1697.21
612.752	1692.75
612.951	1752.04
613.151	1752.82
613.351	1687.91
613.55	1733.83
613.75	1745.84
613.949	1659.04
614.149	1710
614.348	1682.29
614.548	1665.05
614.747	1610.99
614.947	1700.89
615.146	1610.99
615.346	1721.43
615.545	1701.28
615.745	1689.46
615.944	1687.72
616.144	1624.75
616.343	1621.45
616.542	1619.71
616.742	1605.95
616.941	1611.77
