Data from gum_young_FLMT105791__98__17-39-56-042.txt Node

Date: Mon Mar 20 17:39:56 GMT 2023
User: antho
Spectrometer: FLMT10579
Trigger mode: 0
Integration Time (sec): 1.000000E-1
Scans to average: 10
Electric dark correction enabled: true
Nonlinearity correction enabled: false
Boxcar width: 0
XAxis mode: Wavelengths
Number of Pixels in Spectrum: 3648
>>>>>Begin Spectral Data<<<<<
345.248	-135.09
345.464	-135.09
345.681	-135.09
345.898	-157.37
346.114	-150.59
346.331	-30.27
346.548	7.31
346.764	-17.29
346.981	-16.9
347.197	5.38
347.414	16.23
347.631	-6.64
347.847	54.98
348.064	27.85
348.28	8.67
348.497	-33.37
348.713	-15.94
348.93	28.82
349.146	36.96
349.363	14.48
349.579	62.53
349.796	14.68
350.012	21.85
350.229	17.2
350.445	-0.24
350.661	-12.84
350.878	-10.51
351.094	25.33
351.311	36.38
351.527	14.29
351.743	-8.38
351.96	39.86
352.176	39.28
352.392	13.32
352.609	35.6
352.825	-14.77
353.041	11.77
353.257	-3.15
353.474	1.11
353.69	14.29
353.906	11
354.122	7.12
354.339	44.9
354.555	2.86
354.771	-22.52
354.987	66.6
355.203	56.33
355.42	-1.79
355.636	-7.99
355.852	13.13
356.068	15.06
356.284	-20.59
356.5	36.76
356.716	40.64
356.932	9.83
357.148	33.66
357.364	10.41
357.58	46.64
357.796	59.24
358.012	53.43
358.228	16.61
358.444	-56.82
358.66	63.31
358.876	29.21
359.092	-12.06
359.308	14.68
359.524	33.08
359.74	7.7
359.956	-5.09
360.172	-4.12
360.388	75.32
360.604	-13.8
360.819	66.02
361.035	7.9
361.251	43.74
361.467	-5.09
361.683	43.93
361.898	33.66
362.114	48.39
362.33	44.51
362.546	54.59
362.762	-8.57
362.977	4.02
363.193	-20.78
363.409	33.86
363.624	-7.6
363.84	-6.44
364.056	4.41
364.271	17
364.487	22.81
364.703	-14.77
364.918	-31.05
365.134	-2.57
365.35	19.13
365.565	60.4
365.781	19.71
365.996	29.98
366.212	68.34
366.427	25.53
366.643	9.25
366.858	9.25
367.074	-23.88
367.289	73.96
367.505	89.46
367.72	-1.79
367.936	16.81
368.151	40.83
368.367	3.83
368.582	36.38
368.798	25.91
369.013	46.64
369.228	19.91
369.444	41.22
369.659	53.43
369.874	26.11
370.09	62.53
370.305	-43.45
370.52	-22.72
370.736	47.61
370.951	25.33
371.166	61.18
371.381	79.97
371.597	14.48
371.812	0.53
372.027	-16.71
372.242	10.03
372.458	86.75
372.673	6.35
372.888	22.62
373.103	42.38
373.318	100.12
373.533	38.51
373.749	41.99
373.964	-15.74
374.179	48.19
374.394	-14.58
374.609	60.01
374.824	1.5
375.039	52.65
375.254	-5.09
375.469	91.21
375.684	24.94
375.899	71.06
376.114	17.97
376.329	31.34
376.544	55.94
376.759	61.76
376.974	4.02
377.189	24.56
377.404	1.31
377.619	43.93
377.834	-29.69
378.049	-13.22
378.264	9.25
378.478	33.28
378.693	3.83
378.908	32.89
379.123	-0.82
379.338	46.26
379.553	23.39
379.767	19.91
379.982	32.11
380.197	28.04
380.412	-9.54
380.626	29.98
380.841	93.73
381.056	46.64
381.271	84.81
381.485	10.03
381.7	4.02
381.915	22.43
382.129	4.21
382.344	22.43
382.559	24.36
382.773	37.73
382.988	-13.42
383.202	33.08
383.417	3.83
383.632	116.97
383.846	10.8
384.061	22.23
384.275	2.08
384.49	25.72
384.704	50.52
384.919	56.91
385.133	27.85
385.348	62.14
385.562	-1.02
385.777	64.28
385.991	9.45
386.206	-6.64
386.42	20.88
386.634	69.31
386.849	28.24
387.063	27.66
387.277	-0.44
387.492	26.49
387.706	-4.5
387.92	-0.24
388.135	20.3
388.349	22.62
388.563	14.87
388.778	36.57
388.992	28.04
389.206	55.17
389.42	106.9
389.635	20.68
389.849	63.69
390.063	85.98
390.277	53.62
390.491	71.64
390.706	58.85
390.92	56.72
391.134	53.43
391.348	63.69
391.562	1.5
391.776	26.88
391.99	14.29
392.205	54.01
392.419	3.83
392.633	0.53
392.847	84.04
393.061	28.24
393.275	92.56
393.489	35.6
393.703	38.7
393.917	81.71
394.131	12.93
394.345	66.99
394.559	75.13
394.773	42.19
394.986	30.56
395.2	34.63
395.414	60.79
395.628	51.49
395.842	54.59
396.056	15.26
396.27	-15.35
396.484	61.76
396.697	25.72
396.911	75.71
397.125	55.17
397.339	69.12
397.553	38.51
397.766	87.91
397.98	89.27
398.194	86.36
398.408	56.14
398.621	56.14
398.835	55.94
399.049	36.76
399.262	86.75
399.476	52.84
399.69	70.48
399.903	145.84
400.117	60.01
400.331	61.18
400.544	38.89
400.758	163.28
400.971	77.64
401.185	85.39
401.398	45.68
401.612	120.85
401.826	87.91
402.039	84.81
402.253	34.05
402.466	63.31
402.68	46.84
402.893	98.18
403.106	79.39
403.32	62.92
403.533	83.46
403.747	80.16
403.96	80.94
404.174	115.81
404.387	32.11
404.6	70.28
404.814	103.61
405.027	78.23
405.24	29.01
405.454	75.32
405.667	99.73
405.88	32.11
406.094	60.59
406.307	112.13
406.52	78.81
406.733	40.64
406.947	16.61
407.16	148.17
407.373	81.71
407.586	38.12
407.799	42.38
408.012	94.31
408.226	79
408.439	112.32
408.652	32.31
408.865	75.32
409.078	106.51
409.291	85.01
409.504	58.66
409.717	78.23
409.93	115.23
410.143	96.44
410.357	15.65
410.57	58.85
410.783	56.14
410.996	82.1
411.209	95.47
411.421	123.76
411.634	81.52
411.847	61.18
412.06	93.34
412.273	71.06
412.486	80.16
412.699	163.28
412.912	106.71
413.125	106.32
413.338	98.76
413.55	96.24
413.763	101.86
413.976	88.3
414.189	70.86
414.402	80.55
414.615	122.01
414.827	67.57
415.04	127.24
415.253	77.64
415.466	149.91
415.678	144.29
415.891	102.44
416.104	93.53
416.316	89.27
416.529	73.77
416.742	113.29
416.954	114.65
417.167	70.86
417.38	98.57
417.592	124.34
417.805	77.64
418.017	60.21
418.23	101.86
418.442	103.99
418.655	85.59
418.868	98.57
419.08	123.56
419.293	141.77
419.505	122.59
419.718	104.77
419.93	131.89
420.142	67.96
420.355	142.94
420.567	147.97
420.78	107.48
420.992	87.53
421.205	163.47
421.417	77.45
421.629	92.37
421.842	71.83
422.054	55.75
422.266	135.96
422.479	124.92
422.691	83.26
422.903	138.29
423.115	82.49
423.328	95.86
423.54	117.17
423.752	112.52
423.964	92.18
424.177	117.75
424.389	114.07
424.601	184.21
424.813	127.82
425.025	134.99
425.238	138.48
425.45	94.5
425.662	87.53
425.874	371.95
426.086	119.11
426.298	116.78
426.51	89.27
426.722	130.92
426.934	116.39
427.146	119.69
427.358	116.97
427.57	132.86
427.782	108.26
427.994	102.06
428.206	98.96
428.418	80.74
428.63	143.91
428.842	159.41
429.054	123.17
429.266	125.69
429.478	65.44
429.69	103.41
429.902	77.84
430.114	125.5
430.325	129.18
430.537	88.11
430.749	95.47
430.961	48.19
431.173	101.28
431.384	114.46
431.596	38.31
431.808	79.97
432.02	105.35
432.231	148.56
432.443	150.11
432.655	130.34
432.867	78.03
433.078	130.54
433.29	157.66
433.502	151.46
433.713	161.34
433.925	110.77
434.136	169.09
434.348	113.87
434.56	69.89
434.771	218.5
434.983	74.93
435.194	96.63
435.406	106.71
435.617	145.26
435.829	174.32
436.04	172
436.252	162.51
436.463	159.21
436.675	176.84
436.886	148.56
437.098	151.46
437.309	179.94
437.521	132.47
437.732	171.03
437.943	159.02
438.155	155.14
438.366	85.39
438.578	197.19
438.789	146.62
439	186.53
439.211	150.88
439.423	173.36
439.634	157.86
439.845	142.94
440.057	137.32
440.268	173.36
440.479	112.13
440.69	147.78
440.902	152.04
441.113	159.6
441.324	162.12
441.535	151.85
441.746	190.6
441.957	120.46
442.168	149.72
442.38	208.62
442.591	170.45
442.802	159.41
443.013	145.65
443.224	155.92
443.435	154.17
443.646	152.62
443.857	167.54
444.068	150.3
444.279	137.12
444.49	236.52
444.701	163.47
444.912	280.89
445.123	202.03
445.334	202.61
445.545	174.32
445.756	189.24
445.967	170.45
446.178	172.19
446.388	211.14
446.599	200.48
446.81	209
447.021	163.28
447.232	230.51
447.443	222.76
447.653	181.11
447.864	225.67
448.075	202.03
448.286	228.57
448.496	215.79
448.707	236.32
448.918	175.87
449.129	249.89
449.339	185.56
449.55	220.05
449.761	198.35
449.971	258.41
450.182	192.54
450.393	244.07
450.603	215.79
450.814	217.53
451.024	207.07
451.235	230.32
451.446	265.77
451.656	284.57
451.867	192.73
452.077	225.67
452.288	285.92
452.498	265.19
452.709	196.22
452.919	247.37
453.13	213.65
453.34	258.6
453.55	172.39
453.761	262.67
453.971	242.14
454.182	230.12
454.392	233.61
454.602	293.28
454.813	228.19
455.023	251.44
455.233	185.95
455.444	238.07
455.654	169.09
455.864	225.28
456.075	225.67
456.285	213.07
456.495	249.89
456.705	269.84
456.916	269.07
457.126	284.76
457.336	265.77
457.546	179.17
457.756	229.35
457.967	286.31
458.177	209.78
458.387	248.53
458.597	222.18
458.807	224.7
459.017	228.96
459.227	218.5
459.437	240.59
459.647	282.44
459.857	239.81
460.068	217.53
460.278	296.97
460.488	243.1
460.698	289.41
460.908	261.32
461.117	211.72
461.327	227.41
461.537	259.77
461.747	287.86
461.957	248.92
462.167	367.68
462.377	293.67
462.587	282.05
462.797	296.38
463.007	258.99
463.216	289.99
463.426	329.52
463.636	307.04
463.846	202.8
464.056	245.24
464.265	287.08
464.475	251.05
464.685	285.73
464.895	283.79
465.104	244.65
465.314	297.35
465.524	267.32
465.733	248.34
465.943	364.97
466.153	337.46
466.362	303.17
466.572	302
466.782	277.98
466.991	295.61
467.201	319.83
467.41	242.91
467.62	308.59
467.829	288.44
468.039	307.82
468.249	266.16
468.458	288.25
468.668	317.12
468.877	307.43
469.086	339.59
469.296	317.5
469.505	284.95
469.715	360.52
469.924	332.81
470.134	319.44
470.343	349.28
470.552	289.99
470.762	284.37
470.971	273.72
471.18	314.02
471.39	295.03
471.599	279.14
471.808	344.05
472.018	278.75
472.227	347.34
472.436	351.41
472.645	314.02
472.855	281.85
473.064	369.82
473.273	350.25
473.482	355.09
473.691	358.58
473.901	357.22
474.11	321.57
474.319	427.75
474.528	332.23
474.737	373.88
474.946	371.17
475.155	382.99
475.364	397.33
475.573	358
475.783	385.12
475.992	390.35
476.201	364.97
476.41	360.13
476.619	331.26
476.828	374.27
477.037	363.42
477.245	371.56
477.454	415.35
477.663	369.43
477.872	338.04
478.081	430.85
478.29	347.15
478.499	435.88
478.708	405.85
478.917	469.4
479.125	363.23
479.334	392.87
479.543	426.97
479.752	413.41
479.961	412.44
480.169	500.21
480.378	406.24
480.587	518.03
480.796	463.78
481.004	432.2
481.213	472.5
481.422	434.72
481.63	431.04
481.839	460.29
482.048	484.32
482.256	478.7
482.465	459.71
482.674	481.61
482.882	503.5
483.091	545.74
483.299	486.45
483.508	520.55
483.716	480.25
483.925	451.58
484.134	471.34
484.342	477.15
484.551	526.75
484.759	506.41
484.967	495.36
485.176	523.26
485.384	499.04
485.593	519.97
485.801	497.69
486.01	526.56
486.218	478.51
486.426	425.23
486.635	441.7
486.843	441.7
487.051	453.51
487.26	456.81
487.468	479.67
487.676	479.28
487.885	463.59
488.093	501.37
488.301	548.64
488.509	500.59
488.717	551.74
488.926	550.97
489.134	492.46
489.342	549.61
489.55	498.66
489.758	526.17
489.967	519.19
490.175	630.6
490.383	533.53
490.591	603.67
490.799	522.29
491.007	601.73
491.215	554.07
491.423	561.43
491.631	552.13
491.839	591.27
492.047	573.83
492.255	537.99
492.463	522.1
492.671	564.53
492.879	619.56
493.087	583.32
493.295	585.84
493.503	598.63
493.711	622.66
493.919	641.45
494.127	628.47
494.334	631.96
494.542	593.01
494.75	619.36
494.958	602.51
495.166	662.95
495.374	657.34
495.581	639.7
495.789	664.5
495.997	681.55
496.205	619.94
496.412	633.5
496.62	625.76
496.828	655.4
497.035	641.06
497.243	669.93
497.451	643
497.658	681.94
497.866	660.63
498.074	743.17
498.281	653.07
498.489	725.15
498.696	673.8
498.904	656.75
499.112	661.02
499.319	716.62
499.527	673.8
499.734	715.46
499.942	631.18
500.149	704.42
500.357	704.8
500.564	652.69
500.771	674.19
500.979	657.53
501.186	679.62
501.394	696.86
501.601	688.34
501.808	739.29
502.016	719.14
502.223	677.87
502.43	697.83
502.638	718.95
502.845	685.62
503.052	753.05
503.26	732.32
503.467	787.15
503.674	761.96
503.881	741.81
504.089	817.56
504.296	786.37
504.503	701.12
504.71	737.74
504.917	727.08
505.125	774.36
505.332	777.65
505.539	810.98
505.746	845.66
505.953	811.56
506.16	837.52
506.367	893.13
506.574	901.46
506.781	867.55
506.988	817.18
507.195	853.02
507.402	854.38
507.609	874.33
507.816	849.92
508.023	862.9
508.23	859.41
508.437	829.77
508.644	876.66
508.851	929.16
509.058	896.23
509.265	880.73
509.472	934.98
509.679	1008.21
509.885	927.23
510.092	926.26
510.299	894.68
510.506	938.27
510.713	962.29
510.92	947.18
511.126	980.31
511.333	1009.18
511.54	1017.12
511.746	1064.4
511.953	1041.92
512.16	1084.74
512.367	1021.77
512.573	1015.19
512.78	1012.28
512.987	1041.15
513.193	1027.01
513.4	978.38
513.606	1017.71
513.813	1060.33
514.02	1060.91
514.226	1135.31
514.433	1126.4
514.639	1039.41
514.846	1084.94
515.052	1066.14
515.259	1129.11
515.465	1129.3
515.672	1120.78
515.878	1224.82
516.085	1133.57
516.291	1186.07
516.497	1128.14
516.704	1126.2
516.91	1099.27
517.117	1053.16
517.323	1019.45
517.529	1101.21
517.736	1050.26
517.942	1111.09
518.148	1104.5
518.354	1138.41
518.561	1122.52
518.767	1152.94
518.973	1252.14
519.179	1252.53
519.386	1204.28
519.592	1198.67
519.798	1192.85
520.004	1299.41
520.21	1251.17
520.417	1315.11
520.623	1360.06
520.829	1316.46
521.035	1351.34
521.241	1368.97
521.447	1361.61
521.653	1471.07
521.859	1404.43
522.065	1426.71
522.271	1503.24
522.477	1452.09
522.683	1478.05
522.889	1452.86
523.095	1454.02
523.301	1479.41
523.507	1433.1
523.713	1509.05
523.919	1433.87
524.125	1549.54
524.331	1514.67
524.537	1616.77
524.742	1601.27
524.948	1603.98
525.154	1613.67
525.36	1695.82
525.566	1643.12
525.772	1656.1
525.977	1581.51
526.183	1665.02
526.389	1665.21
526.595	1599.53
526.8	1589.07
527.006	1493.36
527.212	1509.82
527.417	1481.34
527.623	1503.43
527.829	1554.39
528.034	1654.94
528.24	1599.14
528.446	1603.98
528.651	1741.93
528.857	1714.81
529.062	1727.4
529.268	1716.36
529.473	1774.48
529.679	1772.74
529.884	1827.76
530.09	1804.9
530.295	1857.02
530.501	1817.69
530.706	1836.87
530.912	1774.87
531.117	1838.81
531.323	1785.53
531.528	1865.54
531.733	1907.39
531.939	1852.56
532.144	1898.29
532.35	1863.41
532.555	1884.34
532.76	1855.66
532.966	1861.09
533.171	1848.88
533.376	1831.83
533.581	1808.58
533.787	1842.1
533.992	1906.04
534.197	1870.77
534.402	1885.31
534.607	1879.11
534.813	1979.08
535.018	1899.06
535.223	1878.72
535.428	1961.84
535.633	1992.25
535.838	1999.62
536.043	2003.3
536.249	2058.32
536.454	1977.34
536.659	2007.75
536.864	1987.22
537.069	1979.66
537.274	2011.05
537.479	2000.2
537.684	1956.99
537.889	1933.36
538.094	2067.43
538.299	1988.77
538.504	2093.78
538.708	2033.33
538.913	2077.89
539.118	2008.92
539.323	2078.67
539.528	2002.33
539.733	2020.74
539.938	2067.82
540.142	2037.59
540.347	1975.01
540.552	1990.12
540.757	1972.88
540.962	1989.15
541.166	1971.33
541.371	1953.12
541.576	2010.66
541.781	1906.62
541.985	2074.79
542.19	2013.57
542.395	2091.07
542.599	2146.48
542.804	2047.86
543.008	2129.23
543.213	2062.97
543.418	2016.86
543.622	2118.77
543.827	2003.69
544.031	2135.82
544.236	2143.76
544.44	2100.17
544.645	2171.47
544.849	2083.12
545.054	2115.09
545.258	2203.63
545.463	2163.53
545.667	2148.8
545.872	2181.93
546.076	2158.88
546.281	2176.12
546.485	2108.7
546.689	2130.2
546.894	2160.62
547.098	2186.97
547.302	2109.67
547.507	2138.73
547.711	2199.95
547.915	2206.73
548.119	2135.82
548.324	2122.26
548.528	2189.3
548.732	2161.2
548.936	2206.73
549.141	2197.43
549.345	2200.73
549.549	2189.88
549.753	2211.38
549.957	2309.22
550.161	2245.48
550.366	2235.02
550.57	2201.7
550.774	2233.28
550.978	2201.31
551.182	2210.61
551.386	2154.03
551.59	2191.23
551.794	2161.78
551.998	2226.3
552.202	2182.13
552.406	2148.41
552.61	2205.76
552.814	2236.38
553.018	2284.23
553.222	2203.44
553.426	2208.28
553.63	2283.84
553.833	2223.39
554.037	2178.64
554.241	2215.64
554.445	2203.63
554.649	2223.98
554.853	2176.9
555.056	2263.11
555.26	2258.08
555.464	2261.76
555.668	2265.24
555.871	2284.43
556.075	2274.54
556.279	2202.86
556.483	2176.31
556.686	2172.44
556.89	2173.6
557.094	2207.89
557.297	2173.8
557.501	2204.21
557.704	2157.91
557.908	2215.06
558.112	2121.87
558.315	2231.34
558.519	2175.15
558.722	2153.65
558.926	2105.21
559.129	2061.03
559.333	2049.8
559.536	2055.42
559.74	2082.73
559.943	2037.01
560.147	2055.03
560.35	2048.63
560.553	2059.87
560.757	1997.1
560.96	2130.01
561.164	2104.24
561.367	2132.91
561.57	2088.35
561.774	2087.97
561.977	2066.46
562.18	2058.32
562.384	2110.05
562.587	2105.4
562.79	2032.94
562.993	2004.07
563.197	2073.43
563.4	2100.75
563.603	2120.51
563.806	2162.56
564.009	2041.85
564.212	2085.83
564.416	1976.95
564.619	2010.27
564.822	1985.47
565.025	2080.41
565.228	1983.73
565.431	2022.67
565.634	1920.96
565.837	1981.79
566.04	1946.14
566.243	1933.94
566.446	1849.66
566.649	1960.09
566.852	1897.9
567.055	1897.71
567.258	1931.81
567.461	1967.84
567.664	1947.69
567.867	1865.74
568.07	1887.63
568.273	1891.7
568.475	1951.76
568.678	1871.36
568.881	1830.48
569.084	1868.26
569.287	1742.9
569.489	1809.16
569.692	1832.22
569.895	1823.5
570.098	1766.35
570.3	1755.69
570.503	1705.51
570.706	1746.2
570.909	1682.07
571.111	1677.42
571.314	1649.13
571.516	1702.6
571.719	1722.36
571.922	1695.05
572.124	1674.7
572.327	1707.83
572.529	1666.95
572.732	1642.35
572.935	1680.52
573.137	1731.28
573.34	1653
573.542	1728.37
573.745	1690.01
573.947	1690.2
574.15	1674.7
574.352	1642.54
574.554	1692.72
574.757	1638.08
574.959	1605.92
575.162	1625.88
575.364	1594.49
575.566	1679.93
575.769	1599.33
575.971	1608.05
576.173	1482.89
576.376	1606.31
576.578	1587.13
576.78	1617.16
576.982	1510.6
577.185	1559.81
577.387	1545.86
577.589	1506.14
577.791	1575.31
577.993	1555.16
578.196	1566.79
578.398	1516.22
578.6	1573.76
578.802	1515.25
579.004	1522.22
579.206	1491.22
579.408	1540.05
579.61	1487.74
579.812	1571.82
580.014	1504.98
580.216	1522.22
580.418	1508.47
580.62	1522.61
580.822	1491.81
581.024	1532.88
581.226	1550.51
581.428	1508.08
581.63	1598.56
581.832	1526.68
582.034	1570.66
582.236	1545.28
582.438	1558.45
582.64	1575.31
582.841	1590.81
583.043	1616.19
583.245	1580.93
583.447	1558.65
583.649	1564.27
583.85	1552.25
584.052	1572.02
584.254	1531.33
584.456	1563.69
584.657	1482.51
584.859	1575.31
585.061	1541.21
585.262	1490.84
585.464	1465.07
585.666	1538.69
585.867	1483.28
586.069	1519.9
586.27	1469.91
586.472	1489.67
586.674	1513.31
586.875	1454.61
587.077	1467.39
587.278	1481.92
587.48	1482.89
587.681	1538.89
587.883	1482.51
588.084	1403.46
588.285	1403.07
588.487	1412.56
588.688	1435.62
588.89	1355.99
589.091	1329.06
589.292	1304.45
589.494	1263.57
589.695	1288.18
589.896	1206.8
590.098	1203.32
590.299	1300.58
590.5	1241.68
590.702	1265.31
590.903	1326.54
591.104	1339.13
591.305	1344.36
591.507	1373.43
591.708	1333.71
591.909	1333.71
592.11	1387.76
592.311	1373.43
592.512	1305.81
592.714	1277.33
592.915	1312.59
593.116	1298.83
593.317	1352.5
593.518	1317.63
593.719	1346.69
593.92	1354.44
594.121	1390.48
594.322	1332.55
594.523	1304.45
594.724	1276.36
594.925	1340.29
595.126	1331.77
595.327	1322.47
595.528	1318.01
595.729	1294.18
595.929	1324.8
596.13	1314.72
596.331	1338.55
596.532	1340.68
596.733	1355.99
596.934	1345.33
597.135	1348.43
597.335	1342.23
597.536	1310.85
597.737	1346.49
597.938	1298.83
598.138	1331.58
598.339	1314.72
598.54	1353.47
598.74	1315.3
598.941	1288.37
599.142	1369.16
599.342	1332.16
599.543	1303.29
599.744	1293.8
599.944	1316.08
600.145	1323.63
600.345	1335.26
600.546	1386.21
600.746	1353.28
600.947	1413.53
601.147	1315.3
601.348	1347.08
601.548	1280.62
601.749	1309.88
601.949	1274.03
602.15	1265.51
602.35	1303.87
602.551	1303.68
602.751	1291.08
602.951	1307.36
603.152	1215.52
603.352	1290.7
603.552	1305.61
603.753	1345.53
603.953	1330.41
604.153	1317.24
604.354	1284.69
604.554	1303.29
604.754	1305.81
604.954	1258.15
605.155	1300.96
605.355	1270.55
605.555	1349.98
605.755	1323.25
605.955	1280.62
606.155	1318.6
606.356	1268.03
606.556	1320.15
606.756	1291.66
606.956	1266.48
607.156	1327.51
607.356	1272.87
607.556	1317.24
607.756	1285.66
607.956	1302.13
608.156	1241.29
608.356	1241.29
608.556	1285.27
608.756	1249.23
608.956	1219.4
609.156	1255.63
609.356	1210.68
609.556	1237.61
609.755	1211.65
609.955	1212.81
610.155	1247.88
610.355	1236.45
610.555	1204.28
610.755	1223.85
610.954	1163.6
611.154	1200.6
611.354	1254.27
611.554	1181.81
611.753	1195.95
611.953	1148.1
612.153	1191.88
612.352	1208.74
612.552	1142.67
612.752	1126.2
612.951	1173.48
613.151	1177.35
613.351	1190.14
613.55	1142.48
613.75	1191.3
613.949	1127.56
614.149	1173.48
614.348	1148.29
614.548	1119.62
614.747	1064.4
614.947	1142.67
615.146	1070.6
615.346	1175.22
615.545	1159.92
615.745	1140.54
615.944	1154.69
616.144	1142.67
616.343	1113.22
616.542	1119.04
616.742	1112.84
616.941	1109.35
617.14	1021.19
617.34	1078.35
617.539	1086.29
617.738	1093.07
617.938	1111.67
618.137	1045.02
618.336	1028.94
618.535	1126.01
