Data from gum_young_FLMT105791__25__17-38-24-045.txt Node

Date: Mon Mar 20 17:38:24 GMT 2023
User: antho
Spectrometer: FLMT10579
Trigger mode: 0
Integration Time (sec): 1.000000E-1
Scans to average: 10
Electric dark correction enabled: true
Nonlinearity correction enabled: false
Boxcar width: 0
XAxis mode: Wavelengths
Number of Pixels in Spectrum: 3648
>>>>>Begin Spectral Data<<<<<
345.248	-163.91
345.464	-163.91
345.681	-163.91
345.898	-164.69
346.114	-119.74
346.331	-47.47
346.548	3.68
346.764	10.07
346.981	-13.95
347.197	-6.2
347.414	-3.49
347.631	-20.34
347.847	73.43
348.064	-1.55
348.28	15.69
348.497	-11.43
348.713	1.55
348.93	20.73
349.146	6.59
349.363	-30.61
349.579	8.52
349.796	-1.16
350.012	-6.59
350.229	17.44
350.445	-0.19
350.661	-6.59
350.878	-9.69
351.094	29.84
351.311	14.72
351.527	-4.46
351.743	-12.79
351.96	17.05
352.176	30.42
352.392	8.14
352.609	25.57
352.825	-16.08
353.041	-33.91
353.257	-25.38
353.474	12.98
353.69	2.91
353.906	-2.32
354.122	-38.56
354.339	35.65
354.555	-5.23
354.771	-36.23
354.987	36.62
355.203	68.2
355.42	-31.19
355.636	-16.47
355.852	-51.54
356.068	-1.74
356.284	-37.2
356.5	57.93
356.716	11.43
356.932	-2.52
357.148	28.87
357.364	-17.24
357.58	39.72
357.796	40.3
358.012	39.14
358.228	14.53
358.444	-42.43
358.66	45.34
358.876	26.93
359.092	-11.62
359.308	28.67
359.524	1.36
359.74	14.34
359.956	-6.2
360.172	-9.49
360.388	33.13
360.604	-21.12
360.819	62.19
361.035	1.94
361.251	33.32
361.467	-32.36
361.683	27.12
361.898	7.56
362.114	29.26
362.33	12.21
362.546	64.71
362.762	-25.96
362.977	41.27
363.193	-6.2
363.409	58.32
363.624	1.36
363.84	-26.35
364.056	0.58
364.271	10.27
364.487	6.78
364.703	-4.07
364.918	-42.43
365.134	13.17
365.35	-2.32
365.565	107.53
365.781	14.72
365.996	29.84
366.212	55.99
366.427	1.36
366.643	-7.75
366.858	-8.72
367.074	-20.54
367.289	53.47
367.505	89.12
367.72	-32.74
367.936	-30.42
368.151	20.92
368.367	14.53
368.582	25.38
368.798	-23.83
369.013	43.21
369.228	-0.39
369.444	9.49
369.659	34.68
369.874	21.7
370.09	54.64
370.305	-34.68
370.52	-14.53
370.736	48.63
370.951	14.53
371.166	49.6
371.381	58.32
371.597	48.24
371.812	-33.32
372.027	-17.24
372.242	-13.17
372.458	62
372.673	-28.67
372.888	4.84
373.103	33.91
373.318	109.08
373.533	43.01
373.749	20.73
373.964	-44.95
374.179	40.88
374.394	-30.81
374.609	47.08
374.824	-12.01
375.039	46.69
375.254	-3.49
375.469	31
375.684	33.91
375.899	55.8
376.114	21.89
376.329	-0.58
376.544	50.96
376.759	37.01
376.974	6.59
377.189	23.44
377.404	-12.01
377.619	56.96
377.834	-52.7
378.049	-13.56
378.264	-3.49
378.478	42.82
378.693	6.59
378.908	43.01
379.123	21.51
379.338	36.81
379.553	22.86
379.767	28.48
379.982	32.55
380.197	47.08
380.412	-12.59
380.626	17.24
380.841	90.67
381.056	19.18
381.271	82.54
381.485	-16.08
381.7	3.49
381.915	33.52
382.129	13.95
382.344	18.79
382.559	17.44
382.773	52.12
382.988	-35.84
383.202	22.86
383.417	-3.68
383.632	109.08
383.846	10.66
384.061	33.52
384.275	8.33
384.49	43.59
384.704	41.66
384.919	36.42
385.133	9.88
385.348	39.52
385.562	-12.01
385.777	85.06
385.991	1.94
386.206	13.56
386.42	-7.36
386.634	75.95
386.849	30.22
387.063	35.26
387.277	-4.26
387.492	-0.77
387.706	0.58
387.92	-28.87
388.135	41.27
388.349	30.81
388.563	33.32
388.778	61.03
388.992	49.41
389.206	42.04
389.42	81.18
389.635	45.72
389.849	52.89
390.063	58.51
390.277	26.93
390.491	69.56
390.706	34.68
390.92	40.49
391.134	29.45
391.348	51.73
391.562	-5.62
391.776	42.82
391.99	-18.41
392.205	69.56
392.419	-11.24
392.633	6.97
392.847	78.27
393.061	12.21
393.275	67.42
393.489	33.91
393.703	33.52
393.917	74.01
394.131	-1.36
394.345	44.56
394.559	69.56
394.773	7.36
394.986	25.96
395.2	52.12
395.414	43.01
395.628	23.83
395.842	58.12
396.056	19.96
396.27	-25.77
396.484	10.85
396.697	56.38
396.911	82.34
397.125	52.7
397.339	39.52
397.553	46.5
397.766	82.54
397.98	73.82
398.194	87.57
398.408	47.86
398.621	55.61
398.835	43.21
399.049	26.74
399.262	96.87
399.476	70.14
399.69	54.44
399.903	104.43
400.117	37.39
400.331	68.2
400.544	-4.65
400.758	169.34
400.971	54.44
401.185	80.79
401.398	32.74
401.612	69.94
401.826	64.52
402.039	85.64
402.253	29.84
402.466	70.72
402.68	63.16
402.893	100.55
403.106	83.31
403.32	46.31
403.533	64.71
403.747	48.44
403.96	68.2
404.174	90.67
404.387	36.81
404.6	49.6
404.814	94.94
405.027	77.11
405.24	51.54
405.454	61.22
405.667	85.25
405.88	36.42
406.094	71.69
406.307	103.27
406.52	70.33
406.733	49.21
406.947	7.36
407.16	103.27
407.373	130
407.586	44.95
407.799	30.22
408.012	94.55
408.226	69.75
408.439	101.33
408.652	44.17
408.865	90.48
409.078	115.28
409.291	90.09
409.504	49.79
409.717	76.14
409.93	98.23
410.143	69.56
410.357	66.46
410.57	38.94
410.783	68.01
410.996	84.09
411.209	54.64
411.421	99.78
411.634	72.46
411.847	56.77
412.06	88.35
412.273	99.78
412.486	74.79
412.699	154.61
412.912	78.47
413.125	99.2
413.338	79.63
413.55	115.09
413.763	86.99
413.976	110.82
414.189	55.22
414.402	94.74
414.615	123.03
414.827	69.94
415.04	99.78
415.253	117.99
415.466	119.54
415.678	154.61
415.891	85.64
416.104	77.69
416.316	90.48
416.529	58.51
416.742	99.2
416.954	136.4
417.167	92.22
417.38	107.53
417.592	117.22
417.805	69.94
418.017	56.19
418.23	115.47
418.442	65.49
418.655	83.7
418.868	99.97
419.08	100.17
419.293	149.96
419.505	122.64
419.718	119.93
419.93	143.95
420.142	85.06
420.355	162.75
420.567	114.31
420.78	116.83
420.992	100.36
421.205	167.98
421.417	66.26
421.629	66.65
421.842	64.13
422.054	70.14
422.266	120.12
422.479	144.15
422.691	116.25
422.903	131.36
423.115	90.29
423.328	116.83
423.54	133.88
423.752	121.29
423.964	94.35
424.177	117.41
424.389	107.14
424.601	204.21
424.813	142.4
425.025	122.45
425.238	125.94
425.45	106.75
425.662	101.33
425.874	386.33
426.086	116.25
426.298	155.19
426.51	95.9
426.722	145.89
426.934	77.31
427.146	134.07
427.358	78.86
427.57	154.03
427.782	122.64
427.994	117.41
428.206	93
428.418	78.08
428.63	126.9
428.842	144.15
429.054	117.02
429.266	153.06
429.478	122.06
429.69	111.21
429.902	42.43
430.114	176.12
430.325	115.86
430.537	81.57
430.749	110.05
430.961	59.09
431.173	113.92
431.384	156.94
431.596	61.81
431.808	99.2
432.02	143.57
432.231	159.45
432.443	190.65
432.655	140.66
432.867	115.09
433.078	151.32
433.29	215.06
433.502	172.63
433.713	180.18
433.925	144.92
434.136	204.4
434.348	107.53
434.56	84.86
434.771	210.41
434.983	77.69
435.194	105.59
435.406	126.32
435.617	181.73
435.829	232.5
436.04	188.52
436.252	179.99
436.463	195.88
436.675	162.36
436.886	169.92
437.098	169.53
437.309	224.75
437.521	166.24
437.732	176.7
437.943	167.98
438.155	178.25
438.366	105.4
438.578	223.39
438.789	168.75
439	200.33
439.211	182.7
439.423	179.41
439.634	195.88
439.845	194.91
440.057	186.97
440.268	195.68
440.479	156.94
440.69	155.39
440.902	164.3
441.113	185.61
441.324	167.4
441.535	205.18
441.746	255.55
441.957	159.07
442.168	125.16
442.38	193.36
442.591	201.88
442.802	163.72
443.013	177.67
443.224	198.59
443.435	158.1
443.646	171.47
443.857	190.45
444.068	174.37
444.279	160.04
444.49	267.76
444.701	202.27
444.912	284.81
445.123	202.47
445.334	220.87
445.545	202.85
445.756	201.69
445.967	172.63
446.178	214.67
446.388	232.5
446.599	231.33
446.81	225.91
447.021	227.07
447.232	249.55
447.443	248.77
447.653	193.36
447.864	270.47
448.075	210.02
448.286	248.58
448.496	238.12
448.707	254.78
448.918	201.5
449.129	339.45
449.339	216.42
449.55	234.24
449.761	243.35
449.971	289.65
450.182	230.17
450.393	263.3
450.603	241.02
450.814	281.71
451.024	242.96
451.235	286.36
451.446	302.83
451.656	321.04
451.867	219.13
452.077	275.7
452.288	317.55
452.498	276.09
452.709	252.07
452.919	275.51
453.13	270.08
453.34	279.77
453.55	189.87
453.761	292.17
453.971	274.54
454.182	282.48
454.392	267.18
454.602	316.78
454.813	288.68
455.023	323.95
455.233	267.76
455.444	278.03
455.654	236.76
455.864	284.61
456.075	264.27
456.285	247.61
456.495	255.75
456.705	287.33
456.916	313.68
457.126	323.75
457.336	281.13
457.546	245.67
457.756	270.47
457.967	333.25
458.177	261.37
458.387	283.06
458.597	241.41
458.807	262.53
459.017	293.33
459.227	262.14
459.437	269.11
459.647	311.55
459.857	310.38
460.068	277.45
460.278	329.56
460.488	304.18
460.698	363.86
460.908	301.28
461.117	263.11
461.327	274.73
461.537	312.71
461.747	277.83
461.957	321.04
462.167	415.78
462.377	330.92
462.587	332.47
462.797	331.31
463.007	326.27
463.216	331.11
463.426	347
463.636	332.47
463.846	273.57
464.056	299.34
464.265	376.06
464.475	294.5
464.685	325.5
464.895	344.1
465.104	315.23
465.314	362.11
465.524	296.63
465.733	301.28
465.943	375.68
466.153	405.71
466.362	362.11
466.572	336.35
466.782	317.94
466.991	335.76
467.201	381.68
467.41	288.88
467.62	348.94
467.829	335.57
468.039	364.24
468.249	375.68
468.458	325.5
468.668	366.76
468.877	341.38
469.086	403.19
469.296	391.76
469.505	313.1
469.715	423.92
469.924	360.76
470.134	383.62
470.343	414.43
470.552	352.04
470.762	345.26
470.971	347
471.18	372.38
471.39	361.53
471.599	343.51
471.808	379.16
472.018	342.74
472.227	414.81
472.436	374.51
472.645	389.43
472.855	367.54
473.064	440.39
473.273	357.66
473.482	421.21
473.691	427.02
473.901	400.67
474.11	406.29
474.319	470.03
474.528	388.08
474.737	454.72
474.946	438.64
475.155	431.67
475.364	469.06
475.573	437.29
475.783	441.74
475.992	463.25
476.201	476.04
476.41	421.21
476.619	389.43
476.828	441.16
477.037	434.58
477.245	451.43
477.454	478.36
477.663	445.04
477.872	453.95
478.081	498.71
478.29	443.29
478.499	537.65
478.708	471.58
478.917	535.32
479.125	485.14
479.334	496.96
479.543	495.02
479.752	535.13
479.961	493.47
480.169	528.54
480.378	467.9
480.587	641.88
480.796	533.77
481.004	539.97
481.213	540.94
481.422	543.85
481.63	517.69
481.839	576.4
482.048	582.6
482.256	535.71
482.465	568.07
482.674	592.87
482.882	580.08
483.091	624.83
483.299	603.91
483.508	595.58
483.716	588.6
483.925	603.72
484.134	532.22
484.342	564.77
484.551	607.79
484.759	606.43
484.967	622.7
485.176	622.51
485.384	609.92
485.593	618.25
485.801	599.45
486.01	579.11
486.218	552.18
486.426	518.08
486.635	555.47
486.843	504.91
487.051	570.78
487.26	532.8
487.468	581.63
487.676	614.57
487.885	573.1
488.093	616.31
488.301	626.97
488.509	611.85
488.717	653.32
488.926	616.5
489.134	618.44
489.342	632.78
489.55	622.7
489.758	644.21
489.967	638.4
490.175	747.48
490.383	633.17
490.591	736.24
490.799	663.78
491.007	736.82
491.215	718.22
491.423	657.38
491.631	689.55
491.839	689.74
492.047	694.58
492.255	653.51
492.463	650.02
492.671	653.32
492.879	713.57
493.087	688
493.295	740.89
493.503	732.95
493.711	750.38
493.919	748.83
494.127	732.95
494.334	762.98
494.542	694
494.75	738.76
494.958	747.09
495.166	805.6
495.374	763.17
495.581	780.03
495.789	802.11
495.997	817.61
496.205	748.06
496.412	760.26
496.62	770.92
496.828	798.04
497.035	773.44
497.243	845.51
497.451	817.03
497.658	832.53
497.866	786.42
498.074	880.58
498.281	793.39
498.489	891.24
498.696	807.73
498.904	819.16
499.112	781.58
499.319	904.99
499.527	839.12
499.734	852.29
499.942	821.68
500.149	841.83
500.357	863.53
500.564	808.31
500.771	850.94
500.979	825.94
501.186	801.34
501.394	865.47
501.601	844.93
501.808	869.54
502.016	859.66
502.223	836.21
502.43	876.12
502.638	851.52
502.845	848.81
503.052	945.87
503.26	877.09
503.467	995.09
503.674	897.63
503.881	936.38
504.089	958.27
504.296	953.62
504.503	907.71
504.71	919.72
504.917	889.11
505.125	936.19
505.332	932.31
505.539	960.02
505.746	1035.58
505.953	1022.6
506.16	1007.68
506.367	1065.42
506.574	1056.12
506.781	1074.13
506.988	1024.73
507.195	1041
507.402	1035.39
507.609	1068.52
507.816	992.57
508.023	1006.71
508.23	1029.57
508.437	1014.27
508.644	1064.25
508.851	1086.53
509.058	1121.22
509.265	1106.68
509.472	1109.78
509.679	1207.43
509.885	1104.75
510.092	1144.46
510.299	1129.93
510.506	1134
510.713	1142.53
510.92	1162.29
511.126	1156.67
511.333	1222.16
511.54	1182.83
511.746	1248.31
511.953	1239.79
512.16	1295.2
512.367	1231.65
512.573	1230.49
512.78	1248.51
512.987	1231.65
513.193	1220.61
513.4	1197.55
513.606	1254.9
513.813	1278.34
514.02	1252.96
514.226	1299.66
514.433	1324.65
514.639	1256.64
514.846	1270.79
515.052	1263.62
515.259	1271.95
515.465	1312.44
515.672	1319.42
515.878	1392.66
516.085	1346.74
516.291	1393.82
516.497	1350.03
516.704	1305.28
516.91	1288.61
517.117	1223.9
517.323	1213.25
517.529	1240.95
517.736	1259.74
517.942	1274.47
518.148	1297.14
518.354	1337.44
518.561	1321.16
518.767	1331.43
518.973	1382.97
519.179	1398.85
519.386	1384.13
519.592	1379.87
519.798	1413.97
520.004	1517.04
520.21	1494.76
520.417	1508.52
520.623	1556.57
520.829	1562.57
521.035	1577.3
521.241	1550.95
521.447	1593.76
521.653	1687.15
521.859	1598.41
522.065	1608.68
522.271	1723.96
522.477	1671.46
522.683	1702.84
522.889	1669.71
523.095	1657.31
523.301	1639.88
523.507	1648.01
523.713	1724.74
523.919	1655.18
524.125	1771.04
524.331	1717.96
524.537	1826.07
524.742	1796.81
524.948	1831.11
525.154	1817.54
525.36	1901.24
525.566	1809.6
525.772	1884
525.977	1806.89
526.183	1807.66
526.389	1854.94
526.595	1768.91
526.8	1750.51
527.006	1720.48
527.212	1721.44
527.417	1655.57
527.623	1706.91
527.829	1796.81
528.034	1809.02
528.24	1830.33
528.446	1814.64
528.651	1928.95
528.857	1892.52
529.062	1983.39
529.268	1972.73
529.473	1980.29
529.679	1990.75
529.884	2057.21
530.09	2006.45
530.295	2002.57
530.501	2034.35
530.706	2045.78
530.912	2002.38
531.117	2048.88
531.323	2035.9
531.528	2112.81
531.733	2099.06
531.939	2039.19
532.144	2084.14
532.35	2084.33
532.555	2134.51
532.76	2063.02
532.966	2055.85
533.171	2063.8
533.376	1997.92
533.581	2009.16
533.787	2042.29
533.992	2096.35
534.197	2113.59
534.402	2122.5
534.607	2090.15
534.813	2189.73
535.018	2106.23
535.223	2126.18
535.428	2159.12
535.633	2219.57
535.838	2229.26
536.043	2249.6
536.249	2249.79
536.454	2152.53
536.659	2238.75
536.864	2168.23
537.069	2200.77
537.274	2199.81
537.479	2208.72
537.684	2179.27
537.889	2172.49
538.094	2319.15
538.299	2213.37
538.504	2292.22
538.708	2226.93
538.913	2294.16
539.118	2235.65
539.323	2289.32
539.528	2208.14
539.733	2227.51
539.938	2253.09
540.142	2230.03
540.347	2198.45
540.552	2190.89
540.757	2170.16
540.962	2183.73
541.166	2139.55
541.371	2145.56
541.576	2202.13
541.781	2127.34
541.985	2251.34
542.19	2215.69
542.395	2316.83
542.599	2301.91
542.804	2283.7
543.008	2329.81
543.213	2263.16
543.418	2249.41
543.622	2305.79
543.827	2234.1
544.031	2355.77
544.236	2327.49
544.44	2342.4
544.645	2378.05
544.849	2341.44
545.054	2351.7
545.258	2422.23
545.463	2393.36
545.667	2258.32
545.872	2367.59
546.076	2375.73
546.281	2352.87
546.485	2310.05
546.689	2377.86
546.894	2356.94
547.098	2358.29
547.302	2349.77
547.507	2363.33
547.711	2406.92
547.915	2376.89
548.119	2284.47
548.324	2314.7
548.528	2407.5
548.732	2336.4
548.936	2417.97
549.141	2382.32
549.345	2324.39
549.549	2432.5
549.753	2394.91
549.957	2442.96
550.161	2443.73
550.366	2399.17
550.57	2395.1
550.774	2352.29
550.978	2398.59
551.182	2404.4
551.386	2362.17
551.59	2410.22
551.794	2404.02
551.998	2443.54
552.202	2392
552.406	2340.66
552.61	2417.58
552.814	2418.93
553.018	2440.25
553.222	2388.32
553.426	2412.93
553.63	2494.11
553.833	2402.27
554.037	2376.5
554.241	2424.17
554.445	2400.33
554.649	2377.08
554.853	2372.43
555.056	2478.41
555.26	2454.97
555.464	2430.37
555.668	2446.83
555.871	2425.33
556.075	2465.43
556.279	2364.3
556.483	2444.51
556.686	2386.38
556.89	2386.97
557.094	2418.93
557.297	2328.07
557.501	2387.55
557.704	2305.2
557.908	2346.28
558.112	2334.85
558.315	2420.1
558.519	2348.02
558.722	2338.14
558.926	2318.96
559.129	2250.57
559.333	2242.04
559.536	2248.24
559.74	2274.79
559.943	2217.63
560.147	2259.09
560.35	2245.53
560.553	2271.49
560.757	2188.37
560.96	2283.89
561.164	2269.75
561.367	2323.8
561.57	2262.77
561.774	2272.65
561.977	2221.51
562.18	2238.94
562.384	2331.36
562.587	2197.29
562.79	2247.08
562.993	2228.09
563.197	2273.43
563.4	2279.82
563.603	2291.64
563.806	2320.51
564.009	2210.27
564.212	2218.79
564.416	2175.98
564.619	2194.19
564.822	2190.89
565.025	2226.74
565.228	2170.74
565.431	2203.87
565.634	2089.76
565.837	2126.18
566.04	2101.38
566.243	2118.04
566.446	2012.45
566.649	2147.11
566.852	2043.65
567.055	2069.22
567.258	2123.28
567.461	2131.99
567.664	2150.98
567.867	2044.81
568.07	2079.88
568.273	2085.5
568.475	2148.27
568.678	2010.9
568.881	1994.24
569.084	1995.6
569.287	1950.45
569.489	1991.92
569.692	2030.47
569.895	1971.57
570.098	1951.03
570.3	1974.87
570.503	1898.72
570.706	1913.25
570.909	1900.27
571.111	1843.89
571.314	1853.19
571.516	1869.66
571.719	1881.29
571.922	1877.22
572.124	1878.38
572.327	1892.91
572.529	1844.09
572.732	1848.15
572.935	1864.82
573.137	1926.82
573.34	1830.91
573.542	1932.24
573.745	1839.24
573.947	1865.2
574.15	1823.36
574.352	1828.2
574.554	1884.39
574.757	1828.2
574.959	1761.36
575.162	1823.94
575.364	1809.21
575.566	1888.65
575.769	1772.59
575.971	1771.82
576.173	1691.03
576.376	1788.87
576.578	1802.24
576.78	1835.75
576.982	1714.66
577.185	1777.63
577.387	1714.66
577.589	1689.09
577.791	1774.72
577.993	1791.58
578.196	1739.66
578.398	1711.56
578.6	1734.62
578.802	1715.05
579.004	1685.99
579.206	1668.55
579.408	1704.59
579.61	1667.97
579.812	1741.59
580.014	1691.8
580.216	1715.44
580.418	1723.19
580.62	1710.59
580.822	1649.76
581.024	1680.56
581.226	1766.59
581.428	1709.63
581.63	1816.19
581.832	1683.66
582.034	1735.01
582.236	1720.09
582.438	1725.51
582.64	1788.67
582.841	1800.88
583.043	1827.62
583.245	1750.7
583.447	1754.38
583.649	1775.11
583.85	1771.82
584.052	1784.02
584.254	1718.54
584.456	1779.96
584.657	1718.54
584.859	1789.45
585.061	1728.23
585.262	1725.13
585.464	1669.13
585.666	1713.5
585.867	1680.56
586.069	1728.81
586.27	1700.52
586.472	1679.01
586.674	1652.08
586.875	1682.31
587.077	1663.9
587.278	1706.91
587.48	1652.28
587.681	1793.91
587.883	1653.25
588.084	1627.86
588.285	1642.98
588.487	1610.04
588.688	1617.21
588.89	1509.48
589.091	1480.81
589.292	1493.21
589.494	1434.5
589.695	1445.94
589.896	1363.21
590.098	1368.82
590.299	1442.84
590.5	1419.59
590.702	1460.47
590.903	1465.31
591.104	1547.46
591.305	1528.08
591.507	1554.43
591.708	1501.93
591.909	1520.53
592.11	1577.88
592.311	1545.33
592.512	1488.56
592.714	1490.69
592.915	1491.47
593.116	1492.63
593.317	1538.74
593.518	1531.77
593.719	1523.43
593.92	1530.99
594.121	1578.46
594.322	1557.73
594.523	1532.54
594.724	1451.36
594.925	1516.27
595.126	1480.23
595.327	1511.42
595.528	1487.01
595.729	1537.58
595.929	1483.91
596.13	1530.6
596.331	1498.83
596.532	1546.49
596.733	1578.85
596.934	1549.98
597.135	1550.95
597.335	1528.08
597.536	1497.28
597.737	1507.55
597.938	1495.15
598.138	1525.18
598.339	1509.1
598.54	1503.87
598.74	1490.3
598.941	1500.96
599.142	1572.65
599.342	1546.3
599.543	1491.27
599.744	1519.95
599.944	1494.18
600.145	1545.91
600.345	1513.75
600.546	1565.87
600.746	1569.55
600.947	1597.64
601.147	1538.74
601.348	1559.08
601.548	1484.49
601.749	1504.45
601.949	1486.62
602.15	1492.82
602.35	1506.38
602.551	1536.61
602.751	1488.56
602.951	1480.23
603.152	1453.69
603.352	1473.06
603.552	1476.35
603.753	1544.55
603.953	1528.08
604.153	1520.72
604.354	1518.59
604.554	1506.77
604.754	1502.12
604.954	1492.05
605.155	1525.76
605.355	1489.53
605.555	1540.48
605.755	1555.21
605.955	1501.35
606.155	1558.5
606.356	1525.37
606.556	1527.89
606.756	1523.05
606.956	1483.91
607.156	1512.97
607.356	1463.95
607.556	1512.58
607.756	1475
607.956	1517.62
608.156	1491.08
608.356	1450.59
608.556	1536.03
608.756	1449.04
608.956	1409.9
609.156	1449.42
609.356	1432.57
609.556	1409.51
609.755	1460.85
609.955	1379.29
610.155	1435.47
610.355	1431.79
610.555	1409.32
610.755	1412.61
610.954	1376.77
611.154	1423.65
611.354	1452.14
611.554	1411.64
611.753	1412.03
611.953	1395.17
612.153	1476.16
612.352	1413.19
612.552	1362.04
612.752	1339.37
612.951	1415.9
613.151	1409.32
613.351	1368.44
613.55	1368.63
613.75	1373.28
613.949	1373.47
614.149	1377.54
614.348	1380.26
614.548	1335.5
614.747	1337.82
614.947	1321.36
615.146	1305.66
615.346	1359.91
615.545	1357.2
615.745	1324.65
615.944	1380.06
616.144	1333.17
616.343	1369.21
616.542	1310.51
616.742	1296.36
616.941	1286.09
617.14	1269.63
617.34	1303.73
617.539	1278.15
617.738	1281.64
617.938	1328.91
