Data from gum_young_FLMT105791__96__17-39-54-042.txt Node

Date: Mon Mar 20 17:39:54 GMT 2023
User: antho
Spectrometer: FLMT10579
Trigger mode: 0
Integration Time (sec): 1.000000E-1
Scans to average: 10
Electric dark correction enabled: true
Nonlinearity correction enabled: false
Boxcar width: 0
XAxis mode: Wavelengths
Number of Pixels in Spectrum: 3648
>>>>>Begin Spectral Data<<<<<
345.248	-142.53
345.464	-142.53
345.681	-142.53
345.898	-168.11
346.114	-140.98
346.331	-39.07
346.548	42.3
346.764	-2.26
346.981	-4.59
347.197	-2.26
347.414	-3.23
347.631	-20.09
347.847	66.13
348.064	-1.68
348.28	29.32
348.497	-48.95
348.713	-15.63
348.93	17.5
349.146	21.96
349.363	0.45
349.579	8.98
349.796	2.97
350.012	-11.95
350.229	46.95
350.445	4.52
350.661	-1.87
350.878	7.04
351.094	13.05
351.311	37.85
351.527	-0.9
351.743	17.31
351.96	40.95
352.176	37.65
352.392	21.57
352.609	15.18
352.825	-4.78
353.041	2
353.257	28.93
353.474	30.1
353.69	7.43
353.906	13.05
354.122	-27.84
354.339	58
354.555	0.65
354.771	-9.04
354.987	67.68
355.203	38.23
355.42	-27.25
355.636	-2.07
355.852	-7.1
356.068	15.18
356.284	-14.27
356.5	43.66
356.716	29.32
356.932	-11.56
357.148	27.77
357.364	12.46
357.58	38.04
357.796	62.45
358.012	60.51
358.228	23.12
358.444	-51.67
358.66	48.7
358.876	38.81
359.092	10.53
359.308	8.78
359.524	20.21
359.74	1.42
359.956	6.46
360.172	1.42
360.388	35.91
360.604	-19.12
360.819	87.25
361.035	14.4
361.251	49.08
361.467	-18.92
361.683	63.42
361.898	20.41
362.114	30.29
362.33	16.92
362.546	50.83
362.762	-0.13
362.977	0.84
363.193	-37.52
363.409	29.51
363.624	-34.42
363.84	-0.32
364.056	3.36
364.271	35.13
364.487	24.86
364.703	22.73
364.918	-4.59
365.134	-1.68
365.35	1.03
365.565	89.96
365.781	-2.65
365.996	39.4
366.212	53.73
366.427	17.11
366.643	4.13
366.858	18.08
367.074	-0.13
367.289	53.54
367.505	88.41
367.72	-42.56
367.936	-9.82
368.151	48.11
368.367	23.51
368.582	21.96
368.798	-4.2
369.013	60.13
369.228	11.11
369.444	25.83
369.659	38.43
369.874	5.1
370.09	60.71
370.305	-27.64
370.52	0.06
370.736	80.86
370.951	-7.69
371.166	43.66
371.381	77.37
371.597	27.77
371.812	-28.61
372.027	11.3
372.242	18.28
372.458	70.98
372.673	-2.65
372.888	11.11
373.103	20.21
373.318	78.53
373.533	22.35
373.749	30.29
373.964	-22.99
374.179	59.35
374.394	-6.72
374.609	37.65
374.824	4.13
375.039	65.55
375.254	28.93
375.469	76.98
375.684	3.55
375.899	75.24
376.114	14.98
376.329	19.44
376.544	62.45
376.759	35.71
376.974	-2.65
377.189	19.25
377.404	6.85
377.619	43.08
377.834	-21.05
378.049	-25.51
378.264	-4.39
378.478	25.06
378.693	2.58
378.908	43.85
379.123	-13.89
379.338	69.43
379.553	50.83
379.767	14.01
379.982	45.01
380.197	41.72
380.412	21.96
380.626	54.31
380.841	106.43
381.056	33.97
381.271	80.47
381.485	-12.72
381.7	-1.29
381.915	30.68
382.129	-2.26
382.344	12.66
382.559	14.98
382.773	65.55
382.988	-42.95
383.202	41.72
383.417	3.55
383.632	91.13
383.846	22.15
384.061	41.14
384.275	52.57
384.49	22.35
384.704	52.18
384.919	14.01
385.133	-3.42
385.348	50.63
385.562	-28.8
385.777	68.46
385.991	27.58
386.206	-8.46
386.42	35.13
386.634	54.31
386.849	42.11
387.063	37.07
387.277	8.59
387.492	7.23
387.706	-20.86
387.92	-20.28
388.135	50.63
388.349	51.02
388.563	32.61
388.778	38.23
388.992	53.15
389.206	34.94
389.42	75.63
389.635	16.73
389.849	32.23
390.063	52.57
390.277	36.1
390.491	79.89
390.706	41.91
390.92	48.11
391.134	45.21
391.348	74.66
391.562	-16.21
391.776	36.3
391.99	-16.02
392.205	67.68
392.419	-11.17
392.633	46.18
392.847	65.36
393.061	-5.36
393.275	89.58
393.489	47.53
393.703	44.63
393.917	68.07
394.131	7.43
394.345	55.67
394.559	62.64
394.773	14.79
394.986	42.88
395.2	43.66
395.414	83.38
395.628	9.95
395.842	44.24
396.056	5.49
396.27	-19.5
396.484	57.22
396.697	22.73
396.911	79.11
397.125	54.7
397.339	60.51
397.553	42.88
397.766	78.14
397.98	59.54
398.194	51.02
398.408	38.23
398.621	65.16
398.835	74.08
399.049	62.84
399.262	99.07
399.476	65.74
399.69	98.29
399.903	109.14
400.117	14.98
400.331	30.1
400.544	24.86
400.758	145.96
400.971	51.8
401.185	68.65
401.398	7.43
401.612	82.99
401.826	92.68
402.039	80.28
402.253	29.9
402.466	56.25
402.68	47.34
402.893	69.23
403.106	72.33
403.32	48.89
403.533	83.38
403.747	63.23
403.96	61.29
404.174	93.45
404.387	21.76
404.6	59.93
404.814	58.77
405.027	53.73
405.24	43.46
405.454	43.66
405.667	95.19
405.88	2.2
406.094	80.28
406.307	82.99
406.52	52.96
406.733	36.3
406.947	-19.5
407.16	135.88
407.373	111.86
407.586	47.73
407.799	34.55
408.012	95.97
408.226	79.11
408.439	93.06
408.652	9.56
408.865	86.67
409.078	109.14
409.291	82.6
409.504	52.76
409.717	89.19
409.93	32.61
410.143	56.45
410.357	22.73
410.57	31.45
410.783	47.73
410.996	71.36
411.209	63.03
411.421	81.05
411.634	63.61
411.847	59.54
412.06	51.8
412.273	40.36
412.486	62.45
412.699	134.72
412.912	74.27
413.125	101.39
413.338	88.99
413.55	85.7
413.763	66.33
413.976	97.71
414.189	38.81
414.402	56.64
414.615	102.56
414.827	69.81
415.04	98.1
415.253	99.07
415.466	82.99
415.678	129.49
415.891	71.36
416.104	85.51
416.316	59.16
416.529	83.57
416.742	80.28
416.954	104.11
417.167	100.04
417.38	61.48
417.592	122.9
417.805	57.8
418.017	29.71
418.23	103.14
418.442	80.66
418.655	51.6
418.868	87.83
419.08	105.27
419.293	114.76
419.505	74.27
419.718	69.23
419.93	134.72
420.142	78.92
420.355	110.69
420.567	105.85
420.78	98.1
420.992	69.43
421.205	161.26
421.417	66.33
421.629	86.67
421.842	67.88
422.054	37.65
422.266	84.54
422.479	95.19
422.691	82.41
422.903	107.59
423.115	73.49
423.328	95.78
423.54	89.96
423.752	98.88
423.964	56.45
424.177	101.39
424.389	90.16
424.601	184.51
424.813	114.96
425.025	131.23
425.238	109.73
425.45	96.94
425.662	73.69
425.874	355.59
426.086	87.44
426.298	121.74
426.51	111.47
426.722	109.14
426.934	73.69
427.146	105.85
427.358	53.93
427.57	142.28
427.782	98.29
427.994	91.9
428.206	83.76
428.418	72.14
428.63	132.98
428.842	132.2
429.054	112.83
429.266	127.16
429.478	78.53
429.69	94.03
429.902	46.76
430.114	100.43
430.325	107.4
430.537	58.96
430.749	95
430.961	54.51
431.173	73.11
431.384	109.53
431.596	47.92
431.808	72.53
432.02	137.24
432.231	108.76
432.443	138.01
432.655	97.13
432.867	93.64
433.078	130.26
433.29	149.44
433.502	153.32
433.713	132.01
433.925	104.49
434.136	142.28
434.348	84.93
434.56	58.96
434.771	201.95
434.983	61.29
435.194	66.33
435.406	83.96
435.617	158.94
435.829	176.37
436.04	122.51
436.252	160.29
436.463	151.96
436.675	156.61
436.886	129.68
437.098	133.17
437.309	173.66
437.521	125.81
437.732	164.17
437.943	140.92
438.155	126.97
438.366	85.7
438.578	155.26
438.789	144.21
439	186.06
439.211	94.23
439.423	124.26
439.634	147.89
439.845	152.16
440.057	133.75
440.268	160.68
440.479	94.42
440.69	134.91
440.902	103.53
441.113	140.14
441.324	124.64
441.535	116.12
441.746	158.94
441.957	103.33
442.168	115.34
442.38	151.77
442.591	162.42
442.802	121.16
443.013	107.4
443.224	163.39
443.435	122.13
443.646	139.76
443.857	129.49
444.068	115.93
444.279	150.02
444.49	221.32
444.701	147.31
444.912	256
445.123	214.16
445.334	167.66
445.545	143.83
445.756	133.56
445.967	142.28
446.178	180.25
446.388	174.44
446.599	184.71
446.81	179.28
447.021	148.09
447.232	187.22
447.443	208.73
447.653	138.4
447.864	169.01
448.075	168.62
448.286	194.2
448.496	182.96
448.707	205.63
448.918	158.55
449.129	259.88
449.339	138.98
449.55	182.57
449.761	157.77
449.971	228.3
450.182	152.35
450.393	193.62
450.603	164.36
450.814	194.01
451.024	202.72
451.235	202.34
451.446	225.97
451.656	231.21
451.867	163.97
452.077	175.79
452.288	273.44
452.498	234.69
452.709	200.01
452.919	205.24
453.13	181.99
453.34	229.07
453.55	156.42
453.761	207.37
453.971	223.07
454.182	204.86
454.392	197.3
454.602	246.9
454.813	192.84
455.023	210.09
455.233	146.34
455.444	211.25
455.654	163.2
455.864	180.83
456.075	190.32
456.285	175.99
456.495	187.42
456.705	217.45
456.916	236.24
457.126	253.1
457.336	201.95
457.546	156.03
457.756	210.67
457.967	238.95
458.177	203.69
458.387	220.94
458.597	207.37
458.807	181.99
459.017	191.29
459.227	202.34
459.437	220.74
459.647	259.88
459.857	225.2
460.068	178.31
460.278	258.33
460.488	217.64
460.698	263.75
460.908	197.11
461.117	177.73
461.327	171.92
461.537	252.32
461.747	226.36
461.957	191.68
462.167	302.12
462.377	237.21
462.587	200.01
462.797	217.64
463.007	205.82
463.216	222.49
463.426	260.27
463.636	237.99
463.846	184.32
464.056	193.23
464.265	242.83
464.475	214.54
464.685	219.77
464.895	246.7
465.104	219
465.314	244.19
465.524	215.71
465.733	213.38
465.943	298.63
466.153	304.64
466.362	246.51
466.572	254.84
466.782	233.72
466.991	256.78
467.201	250.77
467.41	195.17
467.62	249.8
467.829	212.61
468.039	250.19
468.249	225.39
468.458	230.24
468.668	226.56
468.877	264.34
469.086	285.45
469.296	276.74
469.505	238.95
469.715	313.94
469.924	265.3
470.134	288.17
470.343	275.57
470.552	249.22
470.762	272.47
470.971	213.19
471.18	252.52
471.39	229.27
471.599	255.81
471.808	299.6
472.018	228.3
472.227	269.95
472.436	316.26
472.645	259.88
472.855	230.82
473.064	303.86
473.273	303.67
473.482	296.11
473.691	311.22
473.901	325.17
474.11	298.05
474.319	350.75
474.528	287.2
474.737	336.22
474.946	284.68
475.155	291.46
475.364	322.85
475.573	308.7
475.783	301.92
475.992	309.67
476.201	342.03
476.41	293.01
476.619	291.46
476.828	310.84
477.037	268.79
477.245	322.46
477.454	352.88
477.663	309.87
477.872	282.74
478.081	372.45
478.29	299.02
478.499	396.47
478.708	332.73
478.917	363.73
479.125	349.39
479.334	333.31
479.543	319.36
479.752	336.6
479.961	367.41
480.169	383.49
480.378	344.74
480.587	453.24
480.796	367.6
481.004	346.29
481.213	404.03
481.422	346.87
481.63	380.2
481.839	386.2
482.048	421.27
482.256	362.95
482.465	384.46
482.674	405
482.882	400.15
483.091	478.62
483.299	379.81
483.508	425.34
483.716	401.12
483.925	420.11
484.134	398.41
484.342	374.97
484.551	434.25
484.759	437.93
484.967	415.26
485.176	443.36
485.384	428.83
485.593	426.11
485.801	420.3
486.01	408.87
486.218	391.82
486.426	335.05
486.635	356.37
486.843	388.33
487.051	407.32
487.26	356.75
487.468	400.15
487.676	415.26
487.885	400.54
488.093	401.32
488.301	456.34
488.509	438.9
488.717	433.28
488.926	447.62
489.134	396.47
489.342	431.54
489.55	448.98
489.758	454.6
489.967	429.41
490.175	536.55
490.383	461.57
490.591	518.53
490.799	406.55
491.007	519.89
491.215	484.43
491.423	457.89
491.631	490.25
491.839	491.99
492.047	500.32
492.255	453.82
492.463	405.58
492.671	452.85
492.879	519.5
493.087	467.96
493.295	520.08
493.503	512.33
493.711	532.09
493.919	533.64
494.127	540.62
494.334	544.3
494.542	462.73
494.75	503.23
494.958	533.84
495.166	525.7
495.374	539.07
495.581	507.68
495.789	549.34
495.997	605.72
496.205	500.71
496.412	529.38
496.62	530.16
496.828	560.19
497.035	551.28
497.243	559.61
497.451	538.68
497.658	567.16
497.866	555.34
498.074	601.07
498.281	543.72
498.489	604.75
498.696	612.11
498.904	539.46
499.112	561.35
499.319	643.69
499.527	571.04
499.734	614.63
499.942	559.22
500.149	550.31
500.357	572.98
500.564	556.7
500.771	579.56
500.979	555.34
501.186	576.08
501.394	581.31
501.601	578.59
501.808	651.25
502.016	565.42
502.223	599.32
502.43	604.36
502.638	585.76
502.845	572.39
503.052	654.93
503.26	594.87
503.467	677.21
503.674	623.74
503.881	637.88
504.089	708.4
504.296	640.21
504.503	590.41
504.71	659.97
504.917	625.87
505.125	636.33
505.332	637.88
505.539	690.97
505.746	720.22
505.953	682.05
506.16	677.99
506.367	726.81
506.574	737.27
506.781	726.62
506.988	685.35
507.195	718.87
507.402	720.42
507.609	721.58
507.816	701.04
508.023	696.39
508.23	683.22
508.437	665.59
508.644	747.54
508.851	794.43
509.058	763.43
509.265	759.36
509.472	792.3
509.679	844.42
509.885	783
510.092	769.05
510.299	785.52
510.506	796.56
510.713	771.95
510.92	794.23
511.126	854.49
511.333	861.08
511.54	840.35
511.746	881.23
511.953	890.72
512.16	883.94
512.367	850.03
512.573	856.23
512.78	883.36
512.987	864.18
513.193	873.28
513.4	832.6
513.606	854.49
513.813	846.35
514.02	860.69
514.226	935.67
514.433	954.66
514.639	870.18
514.846	910.1
515.052	890.72
515.259	940.51
515.465	948.26
515.672	923.85
515.878	1018.98
516.085	935.67
516.291	1013.56
516.497	922.3
516.704	965.7
516.91	890.53
517.117	880.65
517.323	866.5
517.529	919.2
517.736	884.91
517.942	925.6
518.148	920.56
518.354	968.41
518.561	959.89
518.767	980.43
518.973	1006
519.179	1056.37
519.386	990.31
519.592	1010.84
519.798	1024.6
520.004	1111.4
520.21	1068
520.417	1112.17
520.623	1142.4
520.829	1147.44
521.035	1120.31
521.241	1147.44
521.447	1166.81
521.653	1253.22
521.859	1180.95
522.065	1215.83
522.271	1304.18
522.477	1264.46
522.683	1254
522.889	1251.67
523.095	1248.18
523.301	1227.65
523.507	1226.68
523.713	1254.58
523.919	1243.53
524.125	1323.75
524.331	1311.54
524.537	1376.06
524.742	1358.62
524.948	1372.76
525.154	1349.51
525.36	1446.78
525.566	1376.64
525.772	1440.58
525.977	1362.3
526.183	1388.26
526.389	1436.51
526.595	1394.27
526.8	1348.16
527.006	1296.62
527.212	1305.53
527.417	1265.23
527.623	1270.85
527.829	1340.21
528.034	1380.32
528.24	1388.84
528.446	1346.41
528.651	1465.18
528.857	1468.47
529.062	1512.26
529.268	1507.61
529.473	1485.91
529.679	1515.56
529.884	1584.92
530.09	1537.84
530.295	1572.32
530.501	1547.91
530.706	1547.52
530.912	1527.57
531.117	1583.75
531.323	1611.65
531.528	1621.15
531.733	1597.51
531.939	1588.6
532.144	1648.47
532.35	1596.54
532.555	1666.1
532.76	1605.45
532.966	1587.82
533.171	1557.21
533.376	1571.74
533.581	1553.34
533.787	1604.29
533.992	1626.19
534.197	1643.82
534.402	1625.22
534.607	1609.14
534.813	1712.79
535.018	1620.18
535.223	1656.41
535.428	1684.5
535.633	1732.16
535.838	1701.17
536.043	1694.19
536.249	1806.56
536.454	1712.79
536.659	1737.59
536.864	1719.76
537.069	1719.96
537.274	1750.96
537.479	1716.28
537.684	1725.38
537.889	1690.51
538.094	1793.97
538.299	1716.28
538.504	1755.8
538.708	1779.05
538.913	1801.33
539.118	1782.73
539.323	1756.38
539.528	1726.16
539.733	1725
539.938	1786.22
540.142	1759.1
540.347	1756.58
540.552	1730.81
540.757	1732.36
540.962	1699.42
541.166	1697.87
541.371	1647.88
541.576	1687.99
541.781	1645.37
541.985	1753.28
542.19	1746.7
542.395	1795.52
542.599	1822.45
542.804	1792.23
543.008	1816.25
543.213	1782.93
543.418	1746.5
543.622	1827.1
543.827	1725.96
544.031	1833.88
544.236	1852.09
544.44	1800.95
544.645	1908.28
544.849	1840.66
545.054	1836.21
545.258	1910.61
545.463	1898.01
545.667	1824.19
545.872	1833.49
546.076	1853.84
546.281	1865.46
546.485	1838.14
546.689	1897.62
546.894	1899.95
547.098	1856.55
547.302	1824.78
547.507	1866.24
547.711	1874.18
547.915	1902.86
548.119	1812.57
548.324	1837.76
548.528	1903.05
548.732	1891.04
548.936	1874.76
549.141	1893.94
549.345	1862.75
549.549	1881.93
549.753	1881.54
549.957	1986.94
550.161	1948.19
550.366	1924.94
550.57	1872.24
550.774	1899.17
550.978	1898.98
551.182	1936.57
551.386	1894.72
551.59	1916.22
551.794	1881.16
551.998	1900.14
552.202	1936.76
552.406	1874.76
552.61	1899.17
552.814	1946.64
553.018	1977.45
553.222	1902.66
553.426	1884.06
553.63	1962.34
553.833	1918.36
554.037	1832.91
554.241	1946.26
554.445	1922.81
554.649	1888.13
554.853	1893.94
555.056	1927.27
555.26	1954.97
555.464	1898.98
555.668	1929.59
555.871	1945.67
556.075	1974.74
556.279	1888.52
556.483	1845.89
556.686	1906.73
556.89	1898.01
557.094	1898.01
557.297	1857.71
557.501	1912.93
557.704	1813.73
557.908	1908.09
558.112	1824.97
558.315	1917
558.519	1825.74
558.722	1836.4
558.926	1816.64
559.129	1758.51
559.333	1770.72
559.536	1766.65
559.74	1720.93
559.943	1751.35
560.147	1749.8
560.35	1764.52
560.553	1788.74
560.757	1746.31
560.96	1830.2
561.164	1785.64
561.367	1850.74
561.57	1818.96
561.774	1761.61
561.977	1762.39
562.18	1770.53
562.384	1871.08
562.587	1754.83
562.79	1760.84
562.993	1722.09
563.197	1798.43
563.4	1801.33
563.603	1786.03
563.806	1846.48
564.009	1735.85
564.212	1762.2
564.416	1697.87
564.619	1730.23
564.822	1677.92
565.025	1736.81
565.228	1711.43
565.431	1703.1
565.634	1621.15
565.837	1653.5
566.04	1638.58
566.243	1669.2
566.446	1572.71
566.649	1699.81
566.852	1605.07
567.055	1622.89
567.258	1673.07
567.461	1687.6
567.664	1712.02
567.867	1589.57
568.07	1633.16
568.273	1607.97
568.475	1697.87
568.678	1583.37
568.881	1590.73
569.084	1561.28
569.287	1520.98
569.489	1517.49
569.692	1557.4
569.895	1580.07
570.098	1485.33
570.3	1496.57
570.503	1473.32
570.706	1446
570.909	1433.41
571.111	1411.51
571.314	1431.08
571.516	1433.02
571.719	1450.26
571.922	1435.15
572.124	1405.31
572.327	1489.21
572.529	1385.36
572.732	1414.81
572.935	1440.38
573.137	1502.77
573.34	1439.22
573.542	1457.43
573.745	1483.2
573.947	1459.56
574.15	1404.54
574.352	1401.24
574.554	1482.81
574.757	1363.08
574.959	1357.46
575.162	1345.45
575.364	1361.53
575.566	1420.23
575.769	1342.35
575.971	1382.06
576.173	1283.25
576.376	1347
576.578	1365.21
576.78	1373.34
576.982	1273.37
577.185	1310.96
577.387	1267.37
577.589	1316.58
577.791	1345.64
577.993	1353.39
578.196	1309.41
578.398	1314.06
578.6	1317.55
578.802	1222.22
579.004	1261.55
579.206	1285.96
579.408	1298.75
579.61	1241.21
579.812	1313.86
580.014	1260.78
580.216	1240.63
580.418	1329.75
580.62	1273.37
580.822	1240.24
581.024	1294.3
581.226	1320.26
581.428	1277.83
581.63	1366.18
581.832	1226.48
582.034	1331.5
582.236	1307.47
582.438	1288.29
582.64	1325.3
582.841	1345.06
583.043	1381.09
583.245	1329.36
583.447	1342.73
583.649	1306.31
583.85	1308.63
584.052	1340.02
584.254	1274.73
584.456	1328.2
584.657	1244.31
584.859	1291.39
585.061	1274.15
585.262	1259.62
585.464	1246.63
585.666	1263.88
585.867	1249.93
586.069	1282.67
586.27	1255.35
586.472	1259.42
586.674	1202.85
586.875	1243.53
587.077	1199.94
587.278	1228.23
587.48	1213.7
587.681	1347
587.883	1271.24
588.084	1167
588.285	1194.32
588.487	1192.97
588.688	1190.45
588.89	1140.85
589.091	1109.27
589.292	1107.33
589.494	1067.22
589.695	1050.17
589.896	1012.98
590.098	1005.61
590.299	1070.13
590.5	1051.14
590.702	1055.02
590.903	1105.2
591.104	1130.19
591.305	1121.09
591.507	1163.71
591.708	1115.27
591.909	1095.32
592.11	1154.02
592.311	1117.79
592.512	1120.31
592.714	1067.81
592.915	1073.62
593.116	1119.92
593.317	1079.43
593.518	1114.3
593.719	1147.44
593.92	1132.13
594.121	1153.64
594.322	1114.11
594.523	1098.42
594.724	1044.36
594.925	1108.69
595.126	1094.35
595.327	1109.07
595.528	1100.36
595.729	1093.19
595.929	1086.41
596.13	1105.97
596.331	1095.9
596.532	1087.57
596.733	1179.21
596.934	1114.5
597.135	1141.62
597.335	1144.92
597.536	1048.43
597.737	1139.49
597.938	1094.16
598.138	1125.15
598.339	1090.28
598.54	1098.61
598.74	1068.19
598.941	1091.83
599.142	1122.83
599.342	1137.17
599.543	1072.65
599.744	1097.64
599.944	1081.56
600.145	1105.01
600.345	1083.5
600.546	1169.91
600.746	1125.93
600.947	1154.6
601.147	1088.73
601.348	1145.69
601.548	1058.7
601.749	1086.21
601.949	1045.52
602.15	1070.32
602.35	1079.04
602.551	1125.93
602.751	1041.07
602.951	1067.22
603.152	976.36
603.352	1097.64
603.552	1097.06
603.753	1103.07
603.953	1097.84
604.153	1090.67
604.354	1086.6
604.554	1080.01
604.754	1100.16
604.954	1049.59
605.155	1130.19
605.355	1086.6
605.555	1128.84
605.755	1159.64
605.955	1111.01
606.155	1119.54
606.356	1066.45
606.556	1096.48
606.756	1055.99
606.956	1017.63
607.156	1119.92
607.356	1052.89
607.556	1091.06
607.756	1079.04
607.956	1083.69
608.156	1040.68
608.356	1023.44
608.556	1100.94
608.756	1050.95
608.956	1015.49
609.156	1054.05
609.356	1000.19
609.556	1011.43
609.755	1049.98
609.955	1030.02
610.155	1025.18
610.355	1048.43
610.555	999.22
610.755	1030.41
610.954	966.48
611.154	995.34
611.354	1062.77
611.554	985.46
611.753	982.56
611.953	970.74
612.153	1021.11
612.352	1014.91
612.552	941.48
612.752	945.16
612.951	956.4
613.151	987.4
613.351	967.64
613.55	964.73
613.75	974.03
613.949	970.35
614.149	949.81
614.348	963.57
614.548	923.46
614.747	908.55
614.947	938.58
615.146	869.21
615.346	943.23
615.545	962.79
615.745	974.23
615.944	956.98
616.144	951.17
616.343	947.1
616.542	915.91
616.742	897.11
616.941	936.25
617.14	867.47
617.34	890.72
617.539	886.26
617.738	883.36
617.938	963.38
618.137	890.91
618.336	882.97
618.535	918.43
618.734	899.63
618.934	894.21
619.133	911.45
619.332	934.7
619.531	857.01
619.73	885.49
619.929	929.66
620.128	886.46
620.328	937.8
