Data from gum_young_FLMT105791__104__17-40-32-041.txt Node

Date: Mon Mar 20 17:40:32 GMT 2023
User: antho
Spectrometer: FLMT10579
Trigger mode: 0
Integration Time (sec): 1.000000E-1
Scans to average: 10
Electric dark correction enabled: true
Nonlinearity correction enabled: false
Boxcar width: 0
XAxis mode: Wavelengths
Number of Pixels in Spectrum: 3648
>>>>>Begin Spectral Data<<<<<
345.248	-135.36
345.464	-135.36
345.681	-135.36
345.898	-140.4
346.114	-148.93
346.331	-11.56
346.548	20.8
346.764	-8.46
346.981	1.23
347.197	-5.75
347.414	13.05
347.631	-24.93
347.847	50.25
348.064	2.2
348.28	26.22
348.497	-51.08
348.713	-11.95
348.93	16.53
349.146	46.18
349.363	10.72
349.579	37.26
349.796	-2.84
350.012	-15.44
350.229	47.34
350.445	32.81
350.661	-4.39
350.878	14.6
351.094	23.7
351.311	37.85
351.527	25.25
351.743	4.52
351.96	48.89
352.176	39.59
352.392	15.56
352.609	49.66
352.825	14.98
353.041	16.15
353.257	10.53
353.474	33
353.69	7.23
353.906	26.22
354.122	8.59
354.339	53.93
354.555	32.23
354.771	15.18
354.987	40.95
355.203	78.92
355.42	11.3
355.636	2
355.852	0.45
356.068	27
356.284	-27.06
356.5	55.86
356.716	11.69
356.932	-8.27
357.148	1.61
357.364	10.72
357.58	51.6
357.796	42.69
358.012	49.86
358.228	13.24
358.444	-21.05
358.66	67.49
358.876	35.91
359.092	-8.85
359.308	24.09
359.524	57.61
359.74	-4.2
359.956	-6.91
360.172	9.17
360.388	54.7
360.604	5.1
360.819	85.7
361.035	30.87
361.251	36.68
361.467	-5.75
361.683	64.78
361.898	18.86
362.114	44.63
362.33	28.35
362.546	49.86
362.762	19.25
362.977	28.16
363.193	20.99
363.409	43.08
363.624	-2.26
363.84	11.3
364.056	3.36
364.271	24.67
364.487	48.31
364.703	11.88
364.918	-19.5
365.134	18.86
365.35	30.87
365.565	101.98
365.781	23.7
365.996	41.14
366.212	61.09
366.427	48.5
366.643	38.62
366.858	20.8
367.074	18.47
367.289	54.9
367.505	107.79
367.72	-22.8
367.936	10.53
368.151	50.44
368.367	61.68
368.582	29.71
368.798	-10.4
369.013	90.35
369.228	15.95
369.444	33.97
369.659	65.36
369.874	44.82
370.09	61.09
370.305	-41.01
370.52	30.68
370.736	84.15
370.951	27.96
371.166	77.76
371.381	86.09
371.597	42.88
371.812	-8.46
372.027	0.65
372.242	49.28
372.458	101.59
372.673	1.61
372.888	33.58
373.103	39.01
373.318	69.81
373.533	36.3
373.749	55.28
373.964	-63.48
374.179	79.11
374.394	8.59
374.609	78.73
374.824	-2.84
375.039	79.11
375.254	14.4
375.469	56.25
375.684	39.4
375.899	50.05
376.114	42.11
376.329	56.64
376.544	68.26
376.759	42.69
376.974	7.43
377.189	24.28
377.404	52.38
377.619	86.09
377.834	-2.65
378.049	7.62
378.264	-9.43
378.478	47.53
378.693	12.66
378.908	59.35
379.123	1.61
379.338	79.69
379.553	51.21
379.767	60.32
379.982	71.56
380.197	65.55
380.412	14.79
380.626	63.42
380.841	105.46
381.056	54.31
381.271	118.83
381.485	9.75
381.7	6.46
381.915	51.21
382.129	37.85
382.344	53.73
382.559	39.59
382.773	41.91
382.988	-5.36
383.202	55.09
383.417	6.46
383.632	120.58
383.846	21.76
384.061	71.94
384.275	37.85
384.49	53.15
384.704	49.08
384.919	47.92
385.133	26.03
385.348	41.33
385.562	28.55
385.777	91.32
385.991	43.27
386.206	34.75
386.42	36.1
386.634	89.96
386.849	50.05
387.063	30.48
387.277	7.23
387.492	12.85
387.706	3.55
387.92	12.27
388.135	64
388.349	73.88
388.563	44.43
388.778	55.67
388.992	59.35
389.206	78.14
389.42	113.02
389.635	41.33
389.849	82.41
390.063	94.81
390.277	82.79
390.491	133.75
390.706	70.78
390.92	71.17
391.134	33.78
391.348	77.95
391.562	36.1
391.776	53.54
391.99	24.86
392.205	98.68
392.419	20.6
392.633	50.25
392.847	100.62
393.061	30.29
393.275	128.91
393.489	62.84
393.703	62.45
393.917	89.77
394.131	38.23
394.345	79.5
394.559	82.79
394.773	52.18
394.986	73.49
395.2	32.61
395.414	87.06
395.628	49.08
395.842	81.63
396.056	79.11
396.27	12.08
396.484	73.11
396.697	76.98
396.911	110.89
397.125	86.67
397.339	76.4
397.553	50.63
397.766	107.98
397.98	91.71
398.194	98.88
398.408	44.43
398.621	96.74
398.835	92.68
399.049	89.77
399.262	125.42
399.476	98.68
399.69	96.16
399.903	160.49
400.117	83.96
400.331	97.91
400.544	73.69
400.758	195.75
400.971	102.75
401.185	133.56
401.398	62.45
401.612	117.28
401.826	128.13
402.039	109.73
402.253	79.5
402.466	128.91
402.68	91.9
402.893	96.94
403.106	106.43
403.32	109.53
403.533	123.48
403.747	94.81
403.96	94.81
404.174	159.71
404.387	88.8
404.6	112.05
404.814	154.87
405.027	122.9
405.24	111.86
405.454	89.19
405.667	137.63
405.88	63.61
406.094	138.21
406.307	145.76
406.52	98.29
406.733	90.93
406.947	72.53
407.16	146.73
407.373	128.91
407.586	92.87
407.799	82.79
408.012	132.59
408.226	116.31
408.439	169.21
408.652	86.28
408.865	117.86
409.078	152.74
409.291	145.76
409.504	103.14
409.717	138.59
409.93	144.21
410.143	136.46
410.357	85.51
410.57	54.31
410.783	98.1
410.996	121.54
411.209	143.44
411.421	149.06
411.634	146.34
411.847	105.66
412.06	119.99
412.273	123.68
412.486	145.96
412.699	201.17
412.912	101.59
413.125	161.07
413.338	139.56
413.55	162.62
413.763	163.2
413.976	151.57
414.189	109.14
414.402	113.99
414.615	190.52
414.827	97.13
415.04	177.73
415.253	164.56
415.466	161.46
415.678	212.61
415.891	142.47
416.104	158.16
416.316	159.13
416.529	127.94
416.742	188.58
416.954	196.14
417.167	143.63
417.38	133.75
417.592	181.22
417.805	127.74
418.017	130.46
418.23	174.05
418.442	139.56
418.655	113.41
418.868	164.17
419.08	171.92
419.293	189.94
419.505	185.48
419.718	169.4
419.93	203.69
420.142	162.62
420.355	184.32
420.567	203.31
420.78	181.02
420.992	147.89
421.205	188.39
421.417	128.33
421.629	146.15
421.842	141.5
422.054	125.23
422.266	186.84
422.479	194.39
422.691	148.86
422.903	179.47
423.115	151.19
423.328	137.43
423.54	208.92
423.752	186.06
423.964	129.1
424.177	183.16
424.389	162.04
424.601	270.15
424.813	183.54
425.025	207.37
425.238	204.47
425.45	152.74
425.662	181.99
425.874	418.95
426.086	177.34
426.298	188.39
426.51	187.42
426.722	192.46
426.934	132.01
427.146	197.3
427.358	175.02
427.57	189.36
427.782	166.3
427.994	186.45
428.206	171.92
428.418	157.19
428.63	222.87
428.842	229.85
429.054	181.99
429.266	212.22
429.478	168.04
429.69	168.43
429.902	135.69
430.114	190.71
430.325	191.87
430.537	138.79
430.749	133.75
430.961	123.68
431.173	157.77
431.384	185.87
431.596	101.59
431.808	160.49
432.02	202.14
432.231	223.07
432.443	259.49
432.655	218.61
432.867	152.93
433.078	211.64
433.29	274.22
433.502	225.2
433.713	259.1
433.925	213.96
434.136	270.15
434.348	171.53
434.56	149.64
434.771	296.5
434.983	148.47
435.194	204.86
435.406	205.63
435.617	260.65
435.829	272.28
436.04	243.8
436.252	245.93
436.463	279.25
436.675	269.18
436.886	258.14
437.098	252.71
437.309	310.45
437.521	226.17
437.732	237.6
437.943	236.05
438.155	266.66
438.366	183.35
438.578	301.15
438.789	248.64
439	250.19
439.211	225.78
439.423	235.08
439.634	259.69
439.845	250.77
440.057	250.77
440.268	285.65
440.479	255.62
440.69	263.95
440.902	240.5
441.113	247.48
441.324	233.34
441.535	283.71
441.746	320.52
441.957	226.75
442.168	256.2
442.38	299.79
442.591	301.73
442.802	251.55
443.013	255.62
443.224	278.09
443.435	243.41
443.646	278.67
443.857	255.42
444.068	264.92
444.279	252.71
444.49	307.35
444.701	261.62
444.912	369.54
445.123	311.61
445.334	309.87
445.545	327.88
445.756	294.75
445.967	243.6
446.178	297.66
446.388	312.77
446.599	339.32
446.81	297.47
447.021	280.61
447.232	338.35
447.443	351.33
447.653	293.2
447.864	349
448.075	329.63
448.286	348.42
448.496	333.7
448.707	365.47
448.918	325.75
449.129	398.6
449.339	322.85
449.55	316.65
449.761	324.98
449.971	380.97
450.182	355.78
450.393	357.33
450.603	324.59
450.814	380
451.024	355.78
451.235	416.43
451.446	393.37
451.656	398.6
451.867	353.85
452.077	351.33
452.288	394.53
452.498	397.63
452.709	329.63
452.919	381.36
453.13	317.42
453.34	398.02
453.55	308.51
453.761	388.33
453.971	381.17
454.182	404.61
454.392	377.29
454.602	411.78
454.813	369.93
455.023	403.06
455.233	326.33
455.444	385.23
455.654	284.29
455.864	340.09
456.075	354.23
456.285	381.75
456.495	364.7
456.705	394.92
456.916	434.45
457.126	422.24
457.336	391.63
457.546	326.53
457.756	386.98
457.967	424.76
458.177	377.68
458.387	376.13
458.597	357.33
458.807	383.1
459.017	390.27
459.227	372.64
459.437	384.85
459.647	398.02
459.857	406.93
460.068	362.76
460.278	430.57
460.488	439.87
460.698	440.84
460.908	410.81
461.117	362.37
461.327	405.97
461.537	417.2
461.747	422.82
461.957	401.51
462.167	507.29
462.377	473
462.587	410.81
462.797	424.18
463.007	417.59
463.216	440.84
463.426	472.61
463.636	478.23
463.846	383.3
464.056	396.08
464.265	465.64
464.475	407.32
464.685	415.65
464.895	466.03
465.104	420.69
465.314	439.87
465.524	417.59
465.733	394.73
465.943	510.98
466.153	486.37
466.362	456.73
466.572	448.01
466.782	416.23
466.991	435.61
467.201	486.95
467.41	411.58
467.62	474.55
467.829	458.86
468.039	472.61
468.249	468.93
468.458	456.92
468.668	508.84
468.877	493.35
469.086	528.03
469.296	535.97
469.505	483.85
469.715	557.28
469.924	477.46
470.134	519.5
470.343	511.75
470.552	495.28
470.762	492.18
470.971	439.68
471.18	472.42
471.39	492.76
471.599	472.42
471.808	526.28
472.018	471.45
472.227	548.37
472.436	546.43
472.645	524.34
472.855	505.36
473.064	607.07
473.273	549.14
473.482	560.58
473.691	556.89
473.901	531.13
474.11	536.74
474.319	620.06
474.528	507.49
474.737	614.05
474.946	576.27
475.155	559.03
475.364	566.19
475.573	557.09
475.783	552.05
475.992	599.13
476.201	611.53
476.41	584.99
476.619	561.74
476.828	587.31
477.037	564.45
477.245	571.23
477.454	642.72
477.663	596.81
477.872	600.1
478.081	673.53
478.29	603.39
478.499	677.4
478.708	648.73
478.917	690.77
479.125	629.55
479.334	643.31
479.543	678.37
479.752	655.9
479.961	661.91
480.169	702.2
480.378	653.96
480.587	792.68
480.796	696
481.004	674.11
481.213	740.57
481.422	713.83
481.63	698.91
481.839	721.97
482.048	777.57
482.256	701.43
482.465	747.54
482.674	785.9
482.882	774.86
483.091	807.22
483.299	736.11
483.508	776.99
483.716	739.02
483.925	808.57
484.134	705.5
484.342	731.85
484.551	777.57
484.759	777.77
484.967	791.13
485.176	786.68
485.384	822.91
485.593	789.2
485.801	785.9
486.01	773.31
486.218	716.74
486.426	662.87
486.635	670.43
486.843	655.71
487.051	718.29
487.26	727.78
487.468	735.53
487.676	791.52
487.885	716.93
488.093	809.15
488.301	774.47
488.509	814.77
488.717	814.97
488.926	806.83
489.134	787.26
489.342	825.04
489.55	793.07
489.758	827.75
489.967	841.7
490.175	946.13
490.383	879.48
490.591	934.89
490.799	866.31
491.007	913.39
491.215	892.08
491.423	864.56
491.631	889.95
491.839	883.36
492.047	907.38
492.255	866.7
492.463	858.56
492.671	873.28
492.879	953.88
493.087	880.45
493.295	918.62
493.503	935.48
493.711	960.86
493.919	982.56
494.127	982.36
494.334	969.96
494.542	923.27
494.75	948.07
494.958	957.18
495.166	1054.44
495.374	1006.58
495.581	988.18
495.789	1015.3
495.997	1051.34
496.205	1009.88
496.412	998.64
496.62	992.44
496.828	991.47
497.035	1007.36
497.243	1048.43
497.451	1033.71
497.658	1079.24
497.866	1033.71
498.074	1122.25
498.281	1019.95
498.489	1105.01
498.696	1066.64
498.904	1023.05
499.112	1025.96
499.319	1114.89
499.527	1073.23
499.734	1136.59
499.942	1049.21
500.149	1036.81
500.357	1091.44
500.564	1035.45
500.771	1087.57
500.979	1038.74
501.186	1043.39
501.394	1099.77
501.601	1058.7
501.808	1081.17
502.016	1077.88
502.223	1071.49
502.43	1085.24
502.638	1071.87
502.845	1066.64
503.052	1178.63
503.26	1111.01
503.467	1186.38
503.674	1156.93
503.881	1136.2
504.089	1210.98
504.296	1139.3
504.503	1088.92
504.71	1151.12
504.917	1107.52
505.125	1190.06
505.332	1201.88
505.539	1220.87
505.746	1253.61
505.953	1249.73
506.16	1225.71
506.367	1280.35
506.574	1333.43
506.781	1299.53
506.988	1246.63
507.195	1290.03
507.402	1258.26
507.609	1317.35
507.816	1266.98
508.023	1255.35
508.23	1264.65
508.437	1254.19
508.644	1305.92
508.851	1367.15
509.058	1344.48
509.265	1369.47
509.472	1371.99
509.679	1458.01
509.885	1356.88
510.092	1416.36
510.299	1398.34
510.506	1385.36
510.713	1431.86
510.92	1435.93
511.126	1457.62
511.333	1496.96
511.54	1524.27
511.746	1542.87
511.953	1517.88
512.16	1583.37
512.367	1505.87
512.573	1510.13
512.78	1532.8
512.987	1541.71
513.193	1546.94
513.4	1470.99
513.606	1524.27
513.813	1541.32
514.02	1550.82
514.226	1635.1
514.433	1611.27
514.639	1539.19
514.846	1623.47
515.052	1555.08
515.259	1634.71
515.465	1628.12
515.672	1634.9
515.878	1687.8
516.085	1670.75
516.291	1693.22
516.497	1678.88
516.704	1596.54
516.91	1618.24
517.117	1555.66
517.323	1529.51
517.529	1516.33
517.736	1503.35
517.942	1593.05
518.148	1637.42
518.354	1676.37
518.561	1671.52
518.767	1652.53
518.973	1739.53
519.179	1699.81
519.386	1763.75
519.592	1716.47
519.798	1768.2
520.004	1898.21
520.21	1859.84
520.417	1918.36
520.623	1927.66
520.829	1974.74
521.035	1936.96
521.241	1942.19
521.447	1995.27
521.653	2080.33
521.859	2009.03
522.065	2070.64
522.271	2154.34
522.477	2110.17
522.683	2127.02
522.889	2113.85
523.095	2085.95
523.301	2123.73
523.507	2109.39
523.713	2119.47
523.919	2126.44
524.125	2195.22
524.331	2177.4
524.537	2263.61
524.742	2275.24
524.948	2276.98
525.154	2319.8
525.36	2404.86
525.566	2329.49
525.772	2410.28
525.977	2281.83
526.183	2360.1
526.389	2389.36
526.595	2279.31
526.8	2263.23
527.006	2189.99
527.212	2176.62
527.417	2148.72
527.623	2135.16
527.829	2261.87
528.034	2297.91
528.24	2301.78
528.446	2350.41
528.651	2461.82
528.857	2466.85
529.062	2538.73
529.268	2506.38
529.473	2532.92
529.679	2551.91
529.884	2608.29
530.09	2598.99
530.295	2587.37
530.501	2590.08
530.706	2608.87
530.912	2570.51
531.117	2637.74
531.323	2630.18
531.528	2721.44
531.733	2693.73
531.939	2646.26
532.144	2724.54
532.35	2690.24
532.555	2699.16
532.76	2618.95
532.966	2666.41
533.171	2672.42
533.376	2616.62
533.581	2562.76
533.787	2623.21
533.992	2705.55
534.197	2720.08
534.402	2706.52
534.607	2709.81
534.813	2759.41
535.018	2730.93
535.223	2782.27
535.428	2805.52
535.633	2842.92
535.838	2882.44
536.043	2876.05
536.249	2888.45
536.454	2832.26
536.659	2874.69
536.864	2880.5
537.069	2866.75
537.274	2819.47
537.479	2814.82
537.684	2832.84
537.889	2766.58
538.094	2897.36
538.299	2830.13
538.504	2901.24
538.708	2915.77
538.913	2973.89
539.118	2916.54
539.323	2945.8
539.528	2840.59
539.733	2847.57
539.938	2886.32
540.142	2880.89
540.347	2826.45
540.552	2875.08
540.757	2804.36
540.962	2862.87
541.166	2777.62
541.371	2817.92
541.576	2811.53
541.781	2778.4
541.985	2895.81
542.19	2850.47
542.395	2996.17
542.599	2949.48
542.804	2922.35
543.008	2997.33
543.213	2917.51
543.418	2932.04
543.622	2979.9
543.827	2857.45
544.031	2958
544.236	2967.69
544.44	3031.82
544.645	3085.1
544.849	3007.41
545.054	3035.89
545.258	3068.25
545.463	3056.43
545.667	2975.63
545.872	3025.04
546.076	3018.65
546.281	3012.64
546.485	2977.38
546.689	3039.57
546.894	3042.48
547.098	3065.53
547.302	3003.92
547.507	3010.7
547.711	3094.21
547.915	3050.61
548.119	2999.47
548.324	2956.84
548.528	3066.5
548.732	3014.77
548.936	3066.11
549.141	3063.01
549.345	3025.23
549.549	3081.42
549.753	3098.47
549.957	3174.81
550.161	3115.13
550.366	3143.81
550.57	3067.86
550.774	3085.68
550.978	3075.8
551.182	3090.53
551.386	3040.15
551.59	3027.17
551.794	3030.85
551.998	3119.98
552.202	3081.23
552.406	3089.17
552.61	3090.14
552.814	3161.63
553.018	3162.6
553.222	3082.97
553.426	3049.45
553.63	3148.26
553.833	3045.19
554.037	3036.47
554.241	3106.22
554.445	3100.21
554.649	3104.48
554.853	3045.19
555.056	3107.96
555.26	3156.4
555.464	3116.68
555.668	3110.1
555.871	3135.67
556.075	3115.91
556.279	3085.1
556.483	3030.46
556.686	3088.4
556.89	3030.27
557.094	3054.49
557.297	2961.68
557.501	3052.36
557.704	2904.34
557.908	2984.16
558.112	2956.07
558.315	3079.48
558.519	2986.48
558.722	2941.54
558.926	2962.65
559.129	2840.79
559.333	2873.34
559.536	2873.92
559.74	2837.11
559.943	2816.37
560.147	2804.36
560.35	2845.44
560.553	2856.87
560.757	2800.49
560.96	2946.18
561.164	2909.95
561.367	2949.67
561.57	2932.82
561.774	2892.52
561.977	2858.8
562.18	2855.12
562.384	2963.43
562.587	2812.5
562.79	2851.83
562.993	2828.58
563.197	2845.44
563.4	2873.34
563.603	2847.18
563.806	2892.9
564.009	2793.71
564.212	2841.95
564.416	2772.39
564.619	2799.71
564.822	2788.47
565.025	2824.51
565.228	2768.52
565.431	2780.53
565.634	2710.39
565.837	2704.19
566.04	2643.55
566.243	2670.87
566.446	2574.97
566.649	2667.19
566.852	2580.97
567.055	2677.26
567.258	2676.49
567.461	2687.14
567.664	2704.58
567.867	2595.11
568.07	2641.42
568.273	2617.59
568.475	2671.45
568.678	2552.49
568.881	2579.42
569.084	2532.73
569.287	2414.35
569.489	2469.57
569.692	2544.35
569.895	2517.62
570.098	2437.02
570.3	2401.95
570.503	2390.52
570.706	2362.81
570.909	2385.87
571.111	2319.41
571.314	2315.15
571.516	2365.14
571.719	2371.34
571.922	2307.4
572.124	2315.73
572.327	2351.19
572.529	2291.51
572.732	2293.26
572.935	2362.04
573.137	2410.28
573.34	2274.66
573.542	2352.35
573.745	2348.67
573.947	2318.06
574.15	2291.13
574.352	2263.81
574.554	2317.09
574.757	2242.88
574.959	2218.28
575.162	2223.51
575.364	2199.1
575.566	2266.13
575.769	2180.3
575.971	2176.23
576.173	2085.75
576.376	2138.07
576.578	2192.12
576.78	2208.59
576.982	2101.25
577.185	2130.32
577.387	2095.83
577.589	2115.01
577.791	2099.32
577.993	2150.08
578.196	2145.43
578.398	2134.58
578.6	2152.4
578.802	2065.99
579.004	2051.46
579.206	2031.31
579.408	2108.03
579.61	2041.39
579.812	2100.09
580.014	2056.5
580.216	2065.8
580.418	2074.13
580.62	2032.09
580.822	2025.69
581.024	2084.98
581.226	2155.12
581.428	2082.65
581.63	2185.53
581.832	2052.43
582.034	2146.4
582.236	2121.79
582.438	2143.1
582.64	2176.23
582.841	2172.55
583.043	2226.03
583.245	2142.33
583.447	2145.23
583.649	2147.17
583.85	2168.87
584.052	2168.68
584.254	2116.95
584.456	2186.11
584.657	2082.65
584.859	2129.93
585.061	2074.13
585.262	2042.94
585.464	2061.34
585.666	2122.76
585.867	2048.17
586.069	2109.2
586.27	2055.53
586.472	2072.38
586.674	2002.64
586.875	2074.9
587.077	2033.44
587.278	2056.3
587.48	2008.25
587.681	2085.17
587.883	2037.9
588.084	1942.57
588.285	1976.67
588.487	1930.95
588.688	1981.9
588.89	1871.28
589.091	1852.09
589.292	1800.75
589.494	1769.95
589.695	1765.49
589.896	1687.02
590.098	1664.74
590.299	1740.3
590.5	1716.28
590.702	1745.73
590.903	1811.6
591.104	1853.26
591.305	1838.14
591.507	1893.36
591.708	1893.36
591.909	1845.89
592.11	1917
592.311	1871.28
592.512	1807.73
592.714	1799.4
592.915	1806.37
593.116	1808.11
593.317	1814.51
593.518	1845.7
593.719	1841.83
593.92	1902.27
594.121	1895.69
594.322	1843.38
594.523	1868.56
594.724	1780.02
594.925	1810.83
595.126	1809.08
595.327	1837.37
595.528	1818.19
595.729	1856.94
595.929	1826.52
596.13	1839.5
596.331	1852.09
596.532	1836.21
596.733	1926.88
596.934	1875.15
597.135	1872.44
597.335	1883.29
597.536	1862.17
597.737	1827.68
597.938	1791.45
598.138	1826.52
598.339	1799.2
598.54	1843.96
598.74	1804.43
598.941	1808.31
599.142	1862.36
599.342	1842.41
599.543	1800.75
599.744	1827.68
599.944	1817.22
600.145	1813.15
600.345	1837.76
600.546	1908.67
600.746	1898.79
600.947	1909.83
601.147	1820.13
601.348	1880.96
601.548	1822.06
601.749	1841.83
601.949	1800.75
602.15	1815.48
602.35	1776.92
602.551	1833.11
602.751	1779.83
602.951	1824.39
603.152	1722.28
603.352	1796.49
603.552	1813.54
603.753	1823.42
603.953	1842.21
604.153	1817.8
604.354	1810.63
604.554	1813.73
604.754	1790.87
604.954	1763.36
605.155	1830.01
605.355	1805.98
605.555	1837.18
605.755	1823.03
605.955	1796.88
606.155	1821.48
606.356	1802.11
606.556	1854.42
606.756	1797.26
606.956	1758.13
607.156	1809.08
607.356	1735.65
607.556	1794.36
607.756	1773.82
607.956	1793.97
608.156	1766.85
608.356	1714.53
608.556	1793.58
608.756	1745.53
608.956	1729.06
609.156	1742.24
609.356	1696.32
609.556	1695.93
609.755	1719.96
609.955	1689.54
610.155	1726.16
610.355	1729.84
610.555	1681.4
610.755	1692.83
610.954	1637.62
611.154	1714.73
611.354	1754.25
611.554	1690.9
611.753	1700.58
611.953	1614.37
612.153	1707.17
612.352	1688.38
612.552	1578.14
612.752	1584.72
612.951	1644.01
613.151	1626.96
613.351	1569.42
613.55	1658.15
613.75	1633.16
613.949	1598.87
614.149	1596.54
614.348	1589.95
614.548	1573.1
614.747	1548.1
614.947	1592.09
615.146	1512.65
615.346	1621.15
615.545	1578.52
615.745	1598.09
615.944	1612.82
616.144	1591.89
616.343	1570.77
616.542	1538.61
616.742	1530.28
616.941	1506.26
