Data from gum_young_FLMT105791__59__17-39-17-043.txt Node

Date: Mon Mar 20 17:39:17 GMT 2023
User: antho
Spectrometer: FLMT10579
Trigger mode: 0
Integration Time (sec): 1.000000E-1
Scans to average: 10
Electric dark correction enabled: true
Nonlinearity correction enabled: false
Boxcar width: 0
XAxis mode: Wavelengths
Number of Pixels in Spectrum: 3648
>>>>>Begin Spectral Data<<<<<
345.248	-150.32
345.464	-150.32
345.681	-150.32
345.898	-133.85
346.114	-167.95
346.331	-24.19
346.548	33.36
346.764	-22.05
346.981	1.19
347.197	-14.5
347.414	12.63
347.631	-40.85
347.847	48.28
348.064	-6.75
348.28	35.88
348.497	-28.25
348.713	5.26
348.93	31.03
349.146	16.69
349.363	7.39
349.579	26.19
349.796	7.78
350.012	-7.91
350.229	18.24
350.445	3.33
350.661	-26.12
350.878	9.33
351.094	10.11
351.311	-4.62
351.527	8.56
351.743	-19.73
351.96	24.06
352.176	43.04
352.392	2.36
352.609	23.09
352.825	5.26
353.041	4.49
353.257	-3.07
353.474	1.78
353.69	20.18
353.906	38.98
354.122	-41.82
354.339	34.52
354.555	1.78
354.771	-1.13
354.987	55.83
355.203	52.73
355.42	2.55
355.636	1
355.852	-4.23
356.068	15.53
356.284	-32.71
356.5	52.54
356.716	3.71
356.932	13.4
357.148	38.59
357.364	16.31
357.58	39.17
357.796	60.48
358.012	29.87
358.228	18.83
358.444	-58.09
358.66	68.62
358.876	22.51
359.092	-22.64
359.308	20.76
359.524	35.88
359.74	2.55
359.956	-14.31
360.172	21.34
360.388	12.43
360.604	-19.15
360.819	89.16
361.035	6.43
361.251	32.19
361.467	-17.02
361.683	47.5
361.898	13.01
362.114	61.26
362.33	27.54
362.546	48.86
362.762	21.15
362.977	32.97
363.193	-5.2
363.409	31.23
363.624	-18.57
363.84	3.13
364.056	-8.49
364.271	31.03
364.487	-0.55
364.703	-0.36
364.918	-36.39
365.134	12.04
365.35	-8.11
365.565	80.82
365.781	10.49
365.996	52.34
366.212	59.13
366.427	25.8
366.643	-1.52
366.858	3.71
367.074	-4.62
367.289	59.32
367.505	89.16
367.72	-22.64
367.936	-1.52
368.151	60.29
368.367	47.11
368.582	23.28
368.798	24.06
369.013	52.54
369.228	33.74
369.444	40.53
369.659	40.53
369.874	45.76
370.09	57.58
370.305	-27.48
370.52	8.75
370.736	57.58
370.951	21.15
371.166	73.66
371.381	73.07
371.597	24.25
371.812	-2.68
372.027	-28.45
372.242	-8.11
372.458	88.77
372.673	28.51
372.888	4.29
373.103	26.19
373.318	108.34
373.533	37.23
373.749	42.08
373.964	-22.64
374.179	64.74
374.394	-15.27
374.609	39.36
374.824	-11.01
375.039	47.31
375.254	26.38
375.469	62.61
375.684	9.33
375.899	70.94
376.114	-11.79
376.329	19.6
376.544	46.34
376.759	29.29
376.974	-10.82
377.189	4.1
377.404	30.84
377.619	42.85
377.834	-31.74
378.049	-9.07
378.264	-29.61
378.478	18.83
378.693	9.53
378.908	63
379.123	25.8
379.338	50.21
379.553	40.33
379.767	37.62
379.982	31.42
380.197	69.59
380.412	3.33
380.626	30.84
380.841	81.99
381.056	41.11
381.271	82.57
381.485	28.9
381.7	-22.44
381.915	33.16
382.129	13.79
382.344	40.72
382.559	36.07
382.773	62.23
382.988	-23.8
383.202	43.82
383.417	-16.05
383.632	84.7
383.846	33.94
384.061	24.64
384.275	-3.07
384.49	51.18
384.704	31.42
384.919	35.68
385.133	9.33
385.348	47.31
385.562	26.96
385.777	27.54
385.991	20.96
386.206	13.01
386.42	20.76
386.634	85.67
386.849	32
387.063	46.73
387.277	5.07
387.492	18.05
387.706	-1.13
387.92	-0.55
388.135	68.43
388.349	57.58
388.563	23.28
388.778	24.25
388.992	40.72
389.206	50.02
389.42	92.26
389.635	4.1
389.849	53.7
390.063	75.79
390.277	27.54
390.491	64.55
390.706	46.73
390.92	64.16
391.134	70.94
391.348	37.04
391.562	-5.2
391.776	9.14
391.99	19.6
392.205	69.98
392.419	22.12
392.633	51.18
392.847	69.59
393.061	13.59
393.275	98.46
393.489	33.55
393.703	41.11
393.917	66.88
394.131	26.38
394.345	51.96
394.559	72.11
394.773	31.03
394.986	46.92
395.2	53.7
395.414	59.51
395.628	0.03
395.842	48.08
396.056	45.95
396.27	8.75
396.484	60.48
396.697	50.6
396.911	76.95
397.125	70.94
397.339	75.98
397.553	42.08
397.766	127.32
397.98	68.43
398.194	88.19
398.408	32.78
398.621	62.42
398.835	49.24
399.049	60.68
399.262	92.26
399.476	77.34
399.69	76.95
399.903	134.11
400.117	67.84
400.331	111.44
400.544	43.82
400.758	175.76
400.971	76.37
401.185	97.49
401.398	47.89
401.612	123.06
401.826	78.89
402.039	69.39
402.253	75.79
402.466	93.81
402.68	63.19
402.893	100.59
403.106	75.01
403.32	84.89
403.533	100.01
403.747	73.46
403.96	62.23
404.174	89.16
404.387	45.18
404.6	75.01
404.814	113.57
405.027	81.21
405.24	92.84
405.454	60.87
405.667	115.12
405.88	11.66
406.094	85.09
406.307	98.07
406.52	66.1
406.733	38.01
406.947	65.33
407.16	124.81
407.373	117.25
407.586	66.49
407.799	34.91
408.012	121.12
408.226	100.78
408.439	128.87
408.652	42.27
408.865	106.01
409.078	115.7
409.291	105.24
409.504	61.06
409.717	90.12
409.93	99.04
410.143	94.77
410.357	41.49
410.57	50.41
410.783	73.66
410.996	126.16
411.209	82.57
411.421	127.52
411.634	97.68
411.847	74.43
412.06	111.63
412.273	97.87
412.486	77.34
412.699	194.75
412.912	75.21
413.125	131.78
413.338	93.42
413.55	129.46
413.763	95.94
413.976	115.12
414.189	59.13
414.402	84.7
414.615	136.62
414.827	92.45
415.04	130.23
415.253	131.78
415.466	122.09
415.678	163.94
415.891	110.27
416.104	89.74
416.316	111.63
416.529	99.81
416.742	134.69
416.954	149.22
417.167	132.17
417.38	110.86
417.592	151.16
417.805	79.47
418.017	82.57
418.23	131.59
418.442	86.83
418.655	113.76
418.868	118.61
419.08	135.46
419.293	148.44
419.505	131.59
419.718	136.04
419.93	157.74
420.142	124.81
420.355	171.11
420.567	159.29
420.78	155.81
420.992	106.79
421.205	145.54
421.417	74.62
421.629	105.24
421.842	77.53
422.054	88.38
422.266	157.94
422.479	145.15
422.691	105.62
422.903	169.75
423.115	99.81
423.328	129.07
423.54	125.58
423.752	137.59
423.964	91.48
424.177	136.82
424.389	151.16
424.601	202.11
424.813	127.52
425.025	146.51
425.238	169.95
425.45	130.81
425.662	126.16
425.874	367.38
426.086	123.64
426.298	147.47
426.51	143.02
426.722	106.98
426.934	115.7
427.146	183.32
427.358	92.64
427.57	160.07
427.782	139.72
427.994	146.12
428.206	139.34
428.418	93.03
428.63	150.19
428.842	143.6
429.054	148.25
429.266	181.38
429.478	118.8
429.69	135.07
429.902	86.25
430.114	179.83
430.325	136.04
430.537	81.41
430.749	136.82
430.961	83.92
431.173	133.14
431.384	131.97
431.596	63.78
431.808	100.2
432.02	172.27
432.231	149.22
432.443	171.69
432.655	154.06
432.867	125.19
433.078	165.1
433.29	201.14
433.502	174.21
433.713	174.4
433.925	182.15
434.136	191.65
434.348	132.75
434.56	86.06
434.771	230.59
434.983	146.51
435.194	149.61
435.406	187.39
435.617	178.28
435.829	184.48
436.04	187.58
436.252	183.51
436.463	221.49
436.675	202.11
436.886	185.25
437.098	193.78
437.309	226.91
437.521	160.65
437.732	182.74
437.943	205.02
438.155	193.78
438.366	162.2
438.578	255.2
438.789	184.67
439	212.77
439.211	172.27
439.423	177.89
439.634	184.09
439.845	197.85
440.057	176.34
440.268	205.99
440.479	161.04
440.69	196.1
440.902	187.97
441.113	165.88
441.324	156.97
441.535	204.63
441.746	255.39
441.957	177.7
442.168	189.9
442.38	237.57
442.591	224
442.802	186.8
443.013	219.16
443.224	237.95
443.435	198.82
443.646	177.5
443.857	200.95
444.068	177.12
444.279	183.51
444.49	242.02
444.701	199.79
444.912	299.57
445.123	250.55
445.334	228.85
445.545	197.27
445.756	215.09
445.967	200.95
446.178	249.77
446.388	264.11
446.599	261.98
446.81	241.64
447.021	207.54
447.232	268.57
447.443	268.37
447.653	220.52
447.864	259.85
448.075	247.06
448.286	252.68
448.496	249.97
448.707	258.3
448.918	244.93
449.129	302.47
449.339	220.52
449.55	275.15
449.761	252.1
449.971	266.05
450.182	245.51
450.393	291.82
450.603	242.8
450.814	293.75
451.024	268.95
451.235	261.2
451.446	314.1
451.656	310.22
451.867	262.17
452.077	274.57
452.288	349.16
452.498	311.58
452.709	254.42
452.919	273.02
453.13	255.39
453.34	300.92
453.55	263.72
453.761	302.67
453.971	289.1
454.182	273.8
454.392	281.55
454.602	320.49
454.813	266.63
455.023	317.39
455.233	242.8
455.444	279.42
455.654	217.61
455.864	287.17
456.075	290.27
456.285	279.42
456.495	279.03
456.705	287.36
456.916	339.09
457.126	334.05
457.336	292.01
457.546	260.04
457.756	272.63
457.967	325.72
458.177	275.35
458.387	328.82
458.597	254.62
458.807	293.95
459.017	275.15
459.227	280
459.437	275.93
459.647	310.42
459.857	311.19
460.068	258.68
460.278	330.18
460.488	318.55
460.698	369.9
460.908	291.82
461.117	266.05
461.327	280.19
461.537	310.22
461.747	311.77
461.957	290.85
462.167	422.98
462.377	337.54
462.587	318.75
462.797	350.33
463.007	324.95
463.216	344.13
463.426	372.61
463.636	344.51
463.846	271.67
464.056	287.94
464.265	362.92
464.475	316.62
464.685	323.2
464.895	354.4
465.104	295.88
465.314	348.2
465.524	308.67
465.733	298.79
465.943	375.9
466.153	377.06
466.362	356.33
466.572	348.78
466.782	333.08
466.991	325.14
467.201	373.77
467.41	294.92
467.62	353.04
467.829	333.67
468.039	369.7
468.249	330.18
468.458	314.87
468.668	382.1
468.877	369.31
469.086	385.01
469.296	378.42
469.505	335.41
469.715	406.13
469.924	350.71
470.134	401.67
470.343	396.44
470.552	358.85
470.762	362.73
470.971	330.95
471.18	354.01
471.39	380.94
471.599	346.06
471.808	408.84
472.018	336.76
472.227	407.1
472.436	387.91
472.645	390.05
472.855	374.93
473.064	424.34
473.273	397.02
473.482	429.18
473.691	448.56
473.901	438.29
474.11	398.76
474.319	478.59
474.528	397.99
474.737	464.83
474.946	424.53
475.155	449.33
475.364	477.04
475.573	420.27
475.783	437.9
475.992	434.61
476.201	492.34
476.41	424.73
476.619	408.26
476.828	456.89
477.037	438.09
477.245	451.08
477.454	463.28
477.663	462.12
477.872	455.92
478.081	525.28
478.29	442.94
478.499	515.01
478.708	467.74
478.917	553.37
479.125	486.14
479.334	520.82
479.543	472
479.752	498.35
479.961	495.64
480.169	521.79
480.378	493.31
480.587	608.4
480.796	510.56
481.004	509.78
481.213	544.66
481.422	529.35
481.63	511.52
481.839	584.76
482.048	580.11
482.256	560.16
482.465	547.56
482.674	572.17
482.882	583.6
483.091	620.41
483.299	530.51
483.508	582.24
483.716	575.07
483.925	584.96
484.134	565.97
484.342	558.02
484.551	607.04
484.759	584.37
484.967	601.23
485.176	589.99
485.384	603.17
485.593	625.06
485.801	599.49
486.01	562.29
486.218	551.44
486.426	495.64
486.635	526.44
486.843	527.41
487.051	546.21
487.26	573.52
487.468	567.32
487.676	597.74
487.885	574.69
488.093	590.96
488.301	587.67
488.509	628.94
488.717	643.08
488.926	641.14
489.134	588.83
489.342	634.75
489.55	595.22
489.758	619.44
489.967	634.75
490.175	733.17
490.383	625.84
490.591	723.1
490.799	635.33
491.007	689.19
491.215	658.77
491.423	676.79
491.631	638.62
491.839	664.2
492.047	707.02
492.255	638.43
492.463	643.85
492.671	657.03
492.879	745.38
493.087	664.39
493.295	685.51
493.503	693.07
493.711	731.62
493.919	729.68
494.127	744.41
494.334	720.97
494.542	689.19
494.75	733.75
494.958	725.03
495.166	761.65
495.374	775.41
495.581	760.3
495.789	751.97
495.997	812.8
496.205	712.63
496.412	739.57
496.62	758.55
496.828	779.28
497.035	749.83
497.243	791.1
497.451	786.06
497.658	787.61
497.866	772.7
498.074	846.51
498.281	728.52
498.489	871.7
498.696	789.36
498.904	800.21
499.112	781.61
499.319	844.38
499.527	785.1
499.734	836.83
499.942	772.31
500.149	814.74
500.357	834.5
500.564	762.62
500.771	837.6
500.979	781.8
501.186	801.56
501.394	807.76
501.601	819.2
501.808	831.4
502.016	828.11
502.223	808.35
502.43	835.86
502.638	836.83
502.845	800.6
503.052	896.69
503.26	826.17
503.467	899.6
503.674	857.17
503.881	883.71
504.089	930.6
504.296	883.13
504.503	819.78
504.71	868.41
504.917	834.5
505.125	903.48
505.332	903.86
505.539	916.26
505.746	968.38
505.953	933.31
506.16	923.04
506.367	986.4
506.574	1016.04
506.781	988.34
506.988	896.69
507.195	967.61
507.402	936.8
507.609	987.56
507.816	928.86
508.023	947.46
508.23	958.89
508.437	936.22
508.644	999.57
508.851	1046.07
509.058	1040.65
509.265	999.77
509.472	1051.3
509.679	1123.57
509.885	1044.33
510.092	1070.49
510.299	1055.57
510.506	1080.95
510.713	1067.97
510.92	1078.82
511.126	1124.93
511.333	1105.55
511.54	1154.77
511.746	1137.52
511.953	1194.87
512.16	1192.35
512.367	1141.01
512.573	1143.92
512.78	1158.06
512.987	1158.83
513.193	1182.67
513.4	1092.19
513.606	1165.23
513.813	1159.8
514.02	1195.84
514.226	1234.4
514.433	1226.26
514.639	1153.6
514.846	1212.11
515.052	1204.37
515.259	1220.64
515.465	1221.22
515.672	1224.13
515.878	1337.47
516.085	1311.89
516.291	1329.14
516.497	1257.84
516.704	1244.47
516.91	1228.58
517.117	1174.53
517.323	1110.98
517.529	1176.66
517.736	1183.63
517.942	1176.66
518.148	1212.89
518.354	1277.41
518.561	1265.2
518.767	1267.14
518.973	1321
519.179	1320.81
519.386	1314.41
519.592	1307.83
519.798	1347.16
520.004	1431.44
520.21	1370.41
520.417	1448.1
520.623	1498.28
520.829	1498.67
521.035	1533.35
521.241	1484.72
521.447	1554.27
521.653	1608.33
521.859	1544.59
522.065	1537.8
522.271	1627.9
522.477	1578.68
522.683	1612.4
522.889	1631.97
523.095	1617.82
523.301	1622.67
523.507	1593.02
523.713	1613.56
523.919	1620.34
524.125	1680.4
524.331	1659.48
524.537	1778.05
524.742	1746.86
524.948	1804.98
525.154	1783.28
525.36	1844.31
525.566	1770.3
525.772	1826.87
525.977	1763.13
526.183	1796.84
526.389	1834.04
526.595	1756.93
526.8	1716.25
527.006	1695.9
527.212	1639.91
527.417	1613.56
527.623	1665.68
527.829	1716.63
528.034	1808.47
528.24	1795.88
528.446	1806.34
528.651	1857.29
528.857	1876.28
529.062	1974.51
529.268	1938.67
529.473	1966.18
529.679	1942.54
529.884	2044.45
530.09	1988.65
530.295	2009.19
530.501	2011.9
530.706	2012.29
530.912	1977.03
531.117	1976.84
531.323	2008.61
531.528	2077.78
531.733	2075.65
531.939	2048.91
532.144	2067.12
532.35	2050.07
532.555	2083.4
532.76	2042.71
532.966	2058.02
533.171	2016.75
533.376	2023.92
533.581	1984.2
533.787	2034.57
533.992	2058.21
534.197	2085.53
534.402	2090.37
534.607	2104.71
534.813	2154.7
535.018	2126.41
535.223	2173.68
535.428	2134.16
535.633	2202.94
535.838	2198.68
536.043	2232.97
536.249	2277.92
536.454	2192.67
536.659	2269.2
536.864	2218.63
537.069	2196.54
537.274	2198.09
537.479	2190.54
537.684	2185.31
537.889	2159.54
538.094	2297.49
538.299	2220.96
538.504	2219.99
538.708	2247.5
538.913	2279.47
539.118	2256.22
539.323	2263
539.528	2211.27
539.733	2205.46
539.938	2238.78
540.142	2252.54
540.347	2202.16
540.552	2177.94
540.757	2171.55
540.962	2194.03
541.166	2144.04
541.371	2144.23
541.576	2208.17
541.781	2096.76
541.985	2225.8
542.19	2227.93
542.395	2341.27
542.599	2321.32
542.804	2286.44
543.008	2331.01
543.213	2236.84
543.418	2214.37
543.622	2300.59
543.827	2244.21
544.031	2324.81
544.236	2314.34
544.44	2342.82
544.645	2407.54
544.849	2318.8
545.054	2340.31
545.258	2424
545.463	2403.85
545.667	2304.85
545.872	2383.9
546.076	2353.67
546.281	2309.31
546.485	2316.86
546.689	2360.84
546.894	2355.42
547.098	2377.7
547.302	2336.82
547.507	2366.85
547.711	2380.22
547.915	2423.23
548.119	2307.56
548.324	2360.07
548.528	2419.74
548.732	2402.5
548.936	2375.76
549.141	2434.27
549.345	2381.57
549.549	2388.55
549.753	2432.72
549.957	2486.2
550.161	2471.47
550.366	2414.12
550.57	2430.79
550.774	2433.88
550.978	2429.04
551.182	2445.51
551.386	2436.02
551.59	2382.93
551.794	2389.9
551.998	2465.66
552.202	2432.33
552.406	2392.62
552.61	2471.28
552.814	2460.82
553.018	2487.55
553.222	2400.37
553.426	2407.54
553.63	2526.11
553.833	2459.27
554.037	2355.8
554.241	2440.28
554.445	2402.3
554.649	2462.75
554.853	2435.24
555.056	2444.15
555.26	2469.34
555.464	2446.67
555.668	2415.48
555.871	2489.68
556.075	2484.07
556.279	2436.21
556.483	2377.7
556.686	2420.32
556.89	2411.22
557.094	2416.84
557.297	2357.55
557.501	2403.08
557.704	2325.58
557.908	2393.2
558.112	2314.92
558.315	2419.35
558.519	2372.66
558.722	2342.05
558.926	2310.47
559.129	2245.76
559.333	2233.74
559.536	2239.94
559.74	2236.07
559.943	2234.33
560.147	2244.59
560.35	2270.36
560.553	2229.29
560.757	2226.96
560.96	2325.97
561.164	2292.84
561.367	2347.86
561.57	2277.14
561.774	2304.27
561.977	2262.03
562.18	2224.25
562.384	2316.67
562.587	2259.51
562.79	2236.07
562.993	2243.82
563.197	2281.02
563.4	2309.69
563.603	2260.29
563.806	2278.11
564.009	2213.21
564.212	2219.41
564.416	2157.6
564.619	2203.13
564.822	2155.66
565.025	2241.49
565.228	2188.99
565.431	2233.94
565.634	2110.52
565.837	2124.86
566.04	2128.35
566.243	2100.64
566.446	2001.05
566.649	2114.59
566.852	2067.9
567.055	2073.52
567.258	2100.25
567.461	2153.92
567.664	2136.68
567.867	2052.4
568.07	2058.4
568.273	2109.16
568.475	2093.08
568.678	2037.48
568.881	2017.91
569.084	2005.12
569.287	1908.44
569.489	1947.58
569.692	1995.63
569.895	2027.21
570.098	1910.19
570.3	1908.05
570.503	1887.91
570.706	1902.63
570.909	1908.83
571.111	1852.26
571.314	1831.33
571.516	1878.02
571.719	1879.96
571.922	1848.19
572.124	1862.52
572.327	1872.41
572.529	1811.57
572.732	1806.73
572.935	1858.26
573.137	1883.84
573.34	1839.86
573.542	1907.86
573.745	1863.3
573.947	1842.57
574.15	1834.43
574.352	1809.24
574.554	1884.42
574.757	1783.48
574.959	1749.57
575.162	1764.29
575.364	1746.66
575.566	1814.86
575.769	1738.14
575.971	1753.44
576.173	1637.2
576.376	1744.53
576.578	1744.73
576.78	1820.09
576.982	1655.41
577.185	1736.59
577.387	1687.18
577.589	1680.98
577.791	1736.39
577.993	1724.96
578.196	1698.23
578.398	1702.88
578.6	1725.55
578.802	1616.66
579.004	1608.72
579.206	1661.22
579.408	1655.99
579.61	1651.73
579.812	1706.75
580.014	1634.48
580.216	1695.32
580.418	1668.2
580.62	1644.17
580.822	1589.53
581.024	1673.23
581.226	1678.85
581.428	1647.46
581.63	1742.01
581.832	1611.82
582.034	1716.44
582.236	1701.52
582.438	1709.27
582.64	1711.6
582.841	1760.81
583.043	1772.43
583.245	1686.02
583.447	1720.31
583.649	1698.61
583.85	1705.4
584.052	1721.48
584.254	1659.67
584.456	1719.35
584.657	1666.26
584.859	1705.4
585.061	1680.79
585.262	1639.72
585.464	1607.17
585.666	1684.47
585.867	1643.4
586.069	1683.7
586.27	1654.05
586.472	1626.15
586.674	1605.03
586.875	1623.25
587.077	1616.27
587.278	1616.08
587.48	1594.38
587.681	1678.46
587.883	1616.27
588.084	1540.71
588.285	1592.83
588.487	1554.85
588.688	1569.38
588.89	1451.39
589.091	1457.4
589.292	1452.56
589.494	1391.14
589.695	1402.76
589.896	1295.43
590.098	1339.6
590.299	1409.74
590.5	1351.23
590.702	1414.77
590.903	1376.41
591.104	1476.97
591.305	1486.85
591.507	1481.04
591.708	1469.41
591.909	1429.11
592.11	1506.22
592.311	1480.26
592.512	1469.8
592.714	1385.91
592.915	1429.5
593.116	1445.97
593.317	1437.06
593.518	1420.59
593.719	1457.4
593.92	1495.37
594.121	1468.83
594.322	1448.1
594.523	1465.73
594.724	1376.22
594.925	1394.43
595.126	1437.44
595.327	1442.87
595.528	1436.47
595.729	1425.04
595.929	1444.03
596.13	1450.04
596.331	1436.28
596.532	1454.88
596.733	1487.43
596.934	1509.9
597.135	1507
597.335	1425.82
597.536	1419.81
597.737	1457.59
597.938	1442.09
598.138	1473.67
598.339	1425.24
598.54	1467.86
598.74	1429.69
598.941	1422.91
599.142	1461.86
599.342	1437.25
599.543	1407.99
599.744	1415.36
599.944	1392.69
600.145	1413.03
600.345	1428.53
600.546	1492.08
600.746	1482
600.947	1461.86
601.147	1434.92
601.348	1466.89
601.548	1415.55
601.749	1448.68
601.949	1418.26
602.15	1428.72
602.35	1396.76
602.551	1466.12
602.751	1368.28
602.951	1419.04
603.152	1353.55
603.352	1451.78
603.552	1426.79
603.753	1481.42
603.953	1446.55
604.153	1451.39
604.354	1432.79
604.554	1457.21
604.754	1421.56
604.954	1404.31
605.155	1449.07
605.355	1384.36
605.555	1456.62
605.755	1488.59
605.955	1442.29
606.155	1432.99
606.356	1400.44
606.556	1425.82
606.756	1394.43
606.956	1364.79
607.156	1431.63
607.356	1395.79
607.556	1427.95
607.756	1401.21
607.956	1441.32
608.156	1399.86
608.356	1355.88
608.556	1415.94
608.756	1407.02
608.956	1385.32
609.156	1358.78
609.356	1364.4
609.556	1328.56
609.755	1346.77
609.955	1333.59
610.155	1371.96
610.355	1351.23
610.555	1314.61
610.755	1337.66
610.954	1238.85
611.154	1329.91
611.354	1356.84
611.554	1337.47
611.753	1344.25
611.953	1297.94
612.153	1348.51
612.352	1315.19
612.552	1285.35
612.752	1257.26
612.951	1306.66
613.151	1284.19
613.351	1265.4
613.55	1279.15
613.75	1309.18
613.949	1247.38
614.149	1288.26
614.348	1290.78
614.548	1242.53
614.747	1219.86
614.947	1212.31
615.146	1192.74
615.346	1299.49
615.545	1259.78
615.745	1224.13
615.944	1290
616.144	1246.8
616.343	1263.85
616.542	1232.26
616.742	1206.11
616.941	1219.86
617.14	1162.13
617.34	1218.12
617.539	1199.91
617.738	1180.92
617.938	1244.47
618.137	1211.73
618.336	1154.38
