Data from gum_young_FLMT105791__142__17-41-10-040.txt Node

Date: Mon Mar 20 17:41:10 GMT 2023
User: antho
Spectrometer: FLMT10579
Trigger mode: 0
Integration Time (sec): 1.000000E-1
Scans to average: 10
Electric dark correction enabled: true
Nonlinearity correction enabled: false
Boxcar width: 0
XAxis mode: Wavelengths
Number of Pixels in Spectrum: 3648
>>>>>Begin Spectral Data<<<<<
345.248	-175.76
345.464	-175.76
345.681	-175.76
345.898	-176.54
346.114	-154.64
346.331	-52.15
346.548	30.58
346.764	-4.29
346.981	-12.04
347.197	-18.05
347.414	22.25
347.631	-7.59
347.847	55.57
348.064	13.92
348.28	16.24
348.497	-61.45
348.713	17.02
348.93	24.19
349.146	50.92
349.363	16.24
349.579	18.57
349.796	24.19
350.012	-13.98
350.229	25.15
350.445	11.21
350.661	8.11
350.878	-12.82
351.094	19.15
351.311	23.22
351.527	25.35
351.743	1.52
351.96	13.53
352.176	21.28
352.392	6.56
352.609	31.55
352.825	-29.87
353.041	3.07
353.257	-21.93
353.474	2.1
353.69	7.33
353.906	40.46
354.122	-21.54
354.339	49.95
354.555	-22.7
354.771	30.39
354.987	28.84
355.203	56.93
355.42	3.26
355.636	6.75
355.852	-25.22
356.068	40.85
356.284	-29.48
356.5	64.29
356.716	19.15
356.932	-7.39
357.148	4.04
357.364	0.74
357.58	48.21
357.796	40.85
358.012	67.97
358.228	29.42
358.444	-45.56
358.66	55.96
358.876	19.15
359.092	-11.08
359.308	-4.49
359.524	20.7
359.74	-5.84
359.956	-2.36
360.172	7.91
360.388	78.82
360.604	-11.85
360.819	79.6
361.035	20.89
361.251	29.22
361.467	-6.81
361.683	45.5
361.898	20.5
362.114	33.29
362.33	8.49
362.546	36.2
362.762	20.12
362.977	25.93
363.193	-26.96
363.409	24.19
363.624	-11.66
363.84	-0.23
364.056	18.76
364.271	19.92
364.487	5.78
364.703	19.34
364.918	-19.99
365.134	10.43
365.35	14.31
365.565	88.12
365.781	32.9
365.996	39.69
366.212	71.46
366.427	26.7
366.643	1.52
366.858	17.4
367.074	-22.89
367.289	45.3
367.505	71.46
367.72	-18.83
367.936	17.21
368.151	60.8
368.367	27.67
368.582	14.11
368.798	-26.19
369.013	60.03
369.228	15.47
369.444	20.89
369.659	51.7
369.874	21.47
370.09	65.65
370.305	-18.83
370.52	13.72
370.736	49.18
370.951	30.77
371.166	52.09
371.381	51.89
371.597	44.14
371.812	-11.08
372.027	0.55
372.242	37.17
372.458	74.37
372.673	25.93
372.888	3.84
373.103	29.61
373.318	94.32
373.533	48.4
373.749	42.98
373.964	-18.63
374.179	31.74
374.394	14.31
374.609	73.98
374.824	-19.79
375.039	77.66
375.254	-10.69
375.469	83.28
375.684	14.89
375.899	70.3
376.114	36.2
376.329	43.75
376.544	52.86
376.759	43.37
376.974	5.59
377.189	6.56
377.404	30.58
377.619	70.3
377.834	-22.89
378.049	-12.04
378.264	-14.18
378.478	37.55
378.693	-18.24
378.908	55.96
379.123	14.89
379.338	54.41
379.553	35.04
379.767	49.57
379.982	53.83
380.197	54.02
380.412	24.19
380.626	43.56
380.841	89.87
381.056	53.83
381.271	82.31
381.485	0.36
381.7	6.56
381.915	46.47
382.129	5.97
382.344	31.55
382.559	28.06
382.773	35.42
382.988	-21.93
383.202	45.5
383.417	-17.28
383.632	110.21
383.846	19.34
384.061	23.22
384.275	5.2
384.49	41.82
384.704	22.44
384.919	48.21
385.133	6.94
385.348	50.73
385.562	12.76
385.777	61.19
385.991	32.32
386.206	5.2
386.42	35.04
386.634	55.77
386.849	64.68
387.063	44.92
387.277	18.18
387.492	17.6
387.706	-4.49
387.92	-2.94
388.135	50.15
388.349	46.27
388.563	40.27
388.778	23.99
388.992	45.89
389.206	66.81
389.42	99.75
389.635	35.04
389.849	45.89
390.063	85.41
390.277	73.98
390.491	80.37
390.706	77.47
390.92	72.04
391.134	36.78
391.348	84.83
391.562	22.44
391.776	46.08
391.99	45.5
392.205	72.43
392.419	35.62
392.633	25.54
392.847	95.49
393.061	35.04
393.275	68.94
393.489	34.84
393.703	54.41
393.917	75.92
394.131	41.04
394.345	68.36
394.559	59.84
394.773	30.39
394.986	71.65
395.2	17.21
395.414	67.78
395.628	21.47
395.842	58.48
396.056	59.06
396.27	3.26
396.484	17.21
396.697	58.09
396.911	73.79
397.125	73.4
397.339	86.38
397.553	34.84
397.766	94.9
397.98	76.89
398.194	107.3
398.408	42.01
398.621	92.39
398.835	98.59
399.049	61
399.262	111.57
399.476	97.23
399.69	97.62
399.903	144.31
400.117	92.19
400.331	107.3
400.544	44.92
400.758	158.84
400.971	104.78
401.185	133.27
401.398	44.53
401.612	136.56
401.826	123.38
402.039	99.36
402.253	67.78
402.466	116.99
402.68	86.77
402.893	93.55
403.106	108.47
403.32	79.6
403.533	104.59
403.747	90.45
403.96	103.04
404.174	116.22
404.387	55.38
404.6	78.24
404.814	129.97
405.027	107.5
405.24	102.27
405.454	99.75
405.667	120.48
405.88	44.72
406.094	107.11
406.307	150.51
406.52	99.94
406.733	68.17
406.947	75.92
407.16	127.07
407.373	136.75
407.586	94.9
407.799	74.17
408.012	110.79
408.226	103.43
408.439	170.85
408.652	76.3
408.865	115.25
409.078	146.44
409.291	138.5
409.504	85.6
409.717	114.28
409.93	110.21
410.143	120.67
410.357	44.14
410.57	82.5
410.783	84.64
410.996	127.45
411.209	119.7
411.421	153.03
411.634	120.09
411.847	85.41
412.06	109.43
412.273	100.52
412.486	119.7
412.699	180.73
412.912	132.3
413.125	176.28
413.338	113.7
413.55	113.89
413.763	122.61
413.976	146.44
414.189	98.78
414.402	115.25
414.615	171.82
414.827	109.24
415.04	156.32
415.253	146.44
415.466	165.23
415.678	195.07
415.891	129.58
416.104	151.09
416.316	142.37
416.529	116.6
416.742	129.39
416.954	174.34
417.167	138.3
417.38	137.33
417.592	176.86
417.805	122.22
418.017	87.35
418.23	154.58
418.442	124.74
418.655	142.18
418.868	153.61
419.08	175.31
419.293	178.99
419.505	150.9
419.718	168.33
419.93	171.24
420.142	143.34
420.355	180.73
420.567	188.29
420.78	168.92
420.992	128.03
421.205	182.09
421.417	115.25
421.629	122.8
421.842	133.46
422.054	113.89
422.266	166.98
422.479	179.38
422.691	144.31
422.903	163.49
423.115	108.08
423.328	152.25
423.54	158.45
423.752	150.32
423.964	146.25
424.177	172.98
424.389	139.27
424.601	255.13
424.813	180.15
425.025	187.71
425.238	184.22
425.45	160.58
425.662	147.02
425.874	449.66
426.086	152.25
426.298	194.49
426.51	181.7
426.722	154.97
426.934	163.3
427.146	189.45
427.358	132.49
427.57	201.27
427.782	150.12
427.994	151.48
428.206	134.23
428.418	127.65
428.63	193.71
428.842	199.14
429.054	172.4
429.266	188.1
429.478	138.3
429.69	138.5
429.902	151.28
430.114	203.01
430.325	148.57
430.537	134.23
430.749	175.12
430.961	117.38
431.173	151.48
431.384	177.63
431.596	83.67
431.808	152.06
432.02	201.66
432.231	207.47
432.443	237.5
432.655	183.83
432.867	183.45
433.078	224.52
433.29	233.05
433.502	229.36
433.713	232.85
433.925	211.15
434.136	245.06
434.348	153.42
434.56	150.12
434.771	295.43
434.983	174.15
435.194	148.18
435.406	202.43
435.617	258.81
435.829	290.2
436.04	235.18
436.252	226.46
436.463	259.98
436.675	252.03
436.886	242.15
437.098	251.45
437.309	254.36
437.521	213.67
437.732	244.09
437.943	225.3
438.155	246.41
438.366	163.49
438.578	278.58
438.789	216.96
439	248.55
439.211	218.51
439.423	272.18
439.634	249.9
439.845	270.63
440.057	236.53
440.268	285.94
440.479	226.65
440.69	264.63
440.902	244.09
441.113	255.52
441.324	245.64
441.535	280.51
441.746	306.67
441.957	231.11
442.168	260.36
442.38	284.97
442.591	308.99
442.802	238.66
443.013	257.46
443.224	282.06
443.435	255.91
443.646	235.95
443.857	250.48
444.068	272.76
444.279	256.88
444.49	327.01
444.701	266.76
444.912	365.57
445.123	335.54
445.334	297.95
445.545	298.53
445.756	278.96
445.967	243.9
446.178	259.4
446.388	319.84
446.599	317.71
446.81	309.38
447.021	273.35
447.232	313.64
447.443	349.68
447.653	264.05
447.864	310.74
448.075	289.43
448.286	315.39
448.496	325.85
448.707	327.01
448.918	302.41
449.129	382.42
449.339	262.69
449.55	326.63
449.761	305.12
449.971	352.2
450.182	283.81
450.393	332.24
450.603	312.68
450.814	336.51
451.024	363.44
451.235	368.86
451.446	394.63
451.656	369.83
451.867	314.23
452.077	351.23
452.288	401.99
452.498	373.51
452.709	369.25
452.919	367.31
453.13	322.17
453.34	350.84
453.55	284.39
453.761	350.46
453.971	336.89
454.182	378.94
454.392	344.84
454.602	433.77
454.813	396.37
455.023	386.11
455.233	312.48
455.444	362.47
455.654	315.39
455.864	356.27
456.075	363.24
456.285	358.79
456.495	375.26
456.705	342.71
456.916	438.42
457.126	408.19
457.336	346
457.546	328.56
457.756	328.95
457.967	399.47
458.177	368.28
458.387	359.37
458.597	349.68
458.807	362.47
459.017	358.79
459.227	358.98
459.437	366.73
459.647	380.87
459.857	393.47
460.068	352.59
460.278	421.17
460.488	391.53
460.698	447.33
460.908	398.51
461.117	322.94
461.327	344.64
461.537	407.22
461.747	407.42
461.957	406.84
462.167	497.51
462.377	447.52
462.587	395.79
462.797	444.04
463.007	394.82
463.216	429.7
463.426	450.04
463.636	416.91
463.846	363.63
464.056	390.76
464.265	449.27
464.475	383.39
464.685	409.94
464.895	418.27
465.104	413.62
465.314	418.85
465.524	416.14
465.733	362.47
465.943	476.39
466.153	488.6
466.362	471.74
466.572	425.44
466.782	416.72
466.991	465.74
467.201	507.59
467.41	389.98
467.62	449.66
467.829	438.22
468.039	469.22
468.249	406.26
468.458	450.62
468.668	455.47
468.877	484.34
469.086	476
469.296	471.16
469.505	427.57
469.715	520.18
469.924	491.89
470.134	494.8
470.343	520.95
470.552	463.8
470.762	466.32
470.971	449.27
471.18	471.55
471.39	449.07
471.599	439
471.808	481.43
472.018	462.44
472.227	525.41
472.436	538.78
472.645	494.8
472.855	488.79
473.064	547.3
473.273	520.76
473.482	533.94
473.691	569.2
473.901	538.2
474.11	494.8
474.319	614.73
474.528	550.6
474.737	596.32
474.946	586.83
475.155	559.9
475.364	590.51
475.573	559.7
475.783	571.72
475.992	573.46
476.201	600.2
476.41	523.86
476.619	530.06
476.828	580.24
477.037	553.5
477.245	583.15
477.454	630.03
477.663	589.93
477.872	573.27
478.081	658.32
478.29	578.11
478.499	678.28
478.708	630.23
478.917	695.91
479.125	629.84
479.334	665.1
479.543	618.6
479.752	635.65
479.961	646.11
480.169	680.6
480.378	647.86
480.587	763.14
480.796	690.48
481.004	676.15
481.213	693
481.422	701.72
481.63	686.61
481.839	714.31
482.048	765.27
482.256	715.09
482.465	723.03
482.674	732.53
482.882	734.66
483.091	773.21
483.299	731.56
483.508	773.21
483.716	752.68
483.925	732.91
484.134	717.61
484.342	713.54
484.551	782.13
484.759	764.3
484.967	771.08
485.176	794.14
485.384	779.99
485.593	791.04
485.801	762.36
486.01	744.15
486.218	705.79
486.426	672.08
486.635	636.04
486.843	671.5
487.051	728.07
487.26	691.65
487.468	729.62
487.676	783.87
487.885	757.91
488.093	773.02
488.301	803.44
488.509	803.63
488.717	853.23
488.926	813.12
489.134	783.29
489.342	826.88
489.55	785.42
489.758	826.3
489.967	790.46
490.175	954.75
490.383	849.94
490.591	904.77
490.799	857.3
491.007	914.65
491.215	884.81
491.423	864.08
491.631	864.47
491.839	889.27
492.047	919.69
492.255	830.17
492.463	827.85
492.671	861.95
492.879	898.95
493.087	847.61
493.295	908.06
493.503	894.5
493.711	950.88
493.919	978.58
494.127	960.95
494.334	982.46
494.542	904.57
494.75	936.35
494.958	964.25
495.166	1006.1
495.374	1005.52
495.581	991.37
495.789	1022.57
495.997	1060.54
496.205	967.15
496.412	976.45
496.62	999.32
496.828	997.38
497.035	1011.33
497.243	1031.28
497.451	1040.78
497.658	1023.15
497.866	1015.4
498.074	1102.78
498.281	1006.29
498.489	1111.5
498.696	1017.14
498.904	1002.8
499.112	1028.18
499.319	1111.3
499.527	1025.47
499.734	1104.13
499.942	1019.08
500.149	1025.47
500.357	1066.35
500.564	1028.18
500.771	1055.12
500.979	1046.78
501.186	1030.12
501.394	1076.62
501.601	1055.7
501.808	1088.05
502.016	1074.3
502.223	1056.67
502.43	1063.83
502.638	1046.4
502.845	1062.48
503.052	1132.03
503.26	1099.87
503.467	1193.26
503.674	1099.87
503.881	1165.74
504.089	1182.6
504.296	1165.36
504.503	1100.26
504.71	1111.11
504.917	1106.26
505.125	1146.18
505.332	1148.11
505.539	1191.9
505.746	1226.97
505.953	1233.36
506.16	1265.72
506.367	1257
506.574	1307.57
506.781	1309.31
506.988	1232.59
507.195	1239.76
507.402	1259.91
507.609	1278.89
507.816	1250.99
508.023	1273.27
508.23	1257.97
508.437	1207.98
508.644	1260.87
508.851	1333.53
509.058	1327.72
509.265	1288.77
509.472	1348.06
509.679	1429.43
509.885	1362.4
510.092	1370.34
510.299	1399.6
510.506	1374.99
510.713	1375.96
510.92	1415.1
511.126	1427.5
511.333	1465.47
511.54	1464.89
511.746	1496.28
511.953	1514.3
512.16	1537.16
512.367	1464.5
512.573	1457.72
512.78	1467.99
512.987	1489.3
513.193	1480
513.4	1447.45
513.606	1493.18
513.813	1526.11
514.02	1520.11
514.226	1533.67
514.433	1577.65
514.639	1497.25
514.846	1521.08
515.052	1552.27
515.259	1580.56
515.465	1624.15
515.672	1574.75
515.878	1702.81
516.085	1648.37
516.291	1665.03
516.497	1647.01
516.704	1603.42
516.91	1554.4
517.117	1519.91
517.323	1467.41
517.529	1510.61
517.736	1543.75
517.942	1572.23
518.148	1583.85
518.354	1615.63
518.561	1621.24
518.767	1649.14
518.973	1666.39
519.179	1721.41
519.386	1681.69
519.592	1680.53
519.798	1728.39
520.004	1855.1
520.21	1807.05
520.417	1864.59
520.623	1912.64
520.829	1930.66
521.035	1935.31
521.241	1959.72
521.447	1966.5
521.653	2081.01
521.859	1941.51
522.065	2008.93
522.271	2072.29
522.477	2057.56
522.683	2075.19
522.889	2063.76
523.095	2046.71
523.301	2051.36
523.507	2023.27
523.713	2072.29
523.919	2057.37
524.125	2181.95
524.331	2170.91
524.537	2269.91
524.742	2245.11
524.948	2256.74
525.154	2279.6
525.36	2336.75
525.566	2252.09
525.772	2315.25
525.977	2219.54
526.183	2278.63
526.389	2336.75
526.595	2198.22
526.8	2204.42
527.006	2181.95
527.212	2112.01
527.417	2065.51
527.623	2117.82
527.829	2219.92
528.034	2258.67
528.24	2282.5
528.446	2264.49
528.651	2383.83
528.857	2394.68
529.062	2452.03
529.268	2450.29
529.473	2488.07
529.679	2509.19
529.884	2548.52
530.09	2521.59
530.295	2490.59
530.501	2520.62
530.706	2545.42
530.912	2493.11
531.117	2553.36
531.323	2538.44
531.528	2601.22
531.733	2663.22
531.939	2596.18
532.144	2632.61
532.35	2596.96
532.555	2652.37
532.76	2567.7
532.966	2608.39
533.171	2568.86
533.376	2514.81
533.581	2508.41
533.787	2541.93
533.992	2632.02
534.197	2589.59
534.402	2622.14
534.607	2650.04
534.813	2718.82
535.018	2671.16
535.223	2690.34
535.428	2662.44
535.633	2732.58
535.838	2768.03
536.043	2756.8
536.249	2891.45
536.454	2785.08
536.659	2823.06
536.864	2818.02
537.069	2766.48
537.274	2782.18
537.479	2770.17
537.684	2748.85
537.889	2730.64
538.094	2893.58
538.299	2772.88
538.504	2813.56
538.708	2838.75
538.913	2854.06
539.118	2835.65
539.323	2886.41
539.528	2790.32
539.733	2800.97
539.938	2825.96
540.142	2837.59
540.347	2779.08
540.552	2765.9
540.757	2755.25
540.962	2746.72
541.166	2711.07
541.371	2725.6
541.576	2747.88
541.781	2698.09
541.985	2816.66
542.19	2793.42
542.395	2927.68
542.599	2888.35
542.804	2873.05
543.008	2916.44
543.213	2850.38
543.418	2830.61
543.622	2873.05
543.827	2792.83
544.031	2910.44
544.236	2868.98
544.44	2897.46
544.645	2979.61
544.849	2908.5
545.054	2951.32
545.258	3032.5
545.463	3028.62
545.667	2923.61
545.872	2956.16
546.076	2955.58
546.281	2970.89
546.485	2927.29
546.689	2968.56
546.894	3009.25
547.098	2984.64
547.302	2929.04
547.507	2943.18
547.711	2950.93
547.915	3027.85
548.119	2907.53
548.324	2919.74
548.528	2994.72
548.732	2961.59
548.936	2974.18
549.141	3037.15
549.345	2967.21
549.549	2996.66
549.753	3010.02
549.957	3043.54
550.161	3051.87
550.366	3031.53
550.57	2974.38
550.774	3019.13
550.978	3018.16
551.182	3056.52
551.386	2978.44
551.59	3033.47
551.794	2969.14
551.998	2996.46
552.202	3026.88
552.406	3017.58
552.61	3076.48
552.814	3011.57
553.018	3072.8
553.222	2999.17
553.426	3035.6
553.63	3080.94
553.833	3030.95
554.037	2969.92
554.241	3033.86
554.445	3044.71
554.649	3032.11
554.853	2992.59
555.056	3043.35
555.26	3088.3
555.464	3063.89
555.668	3038.12
555.871	3059.82
556.075	3100.31
556.279	3017.39
556.483	2958.1
556.686	3018.36
556.89	3028.04
557.094	3029.01
557.297	2922.45
557.501	2991.81
557.704	2877.89
557.908	2964.11
558.112	2933.11
558.315	2974.18
558.519	2920.51
558.722	2910.44
558.926	2879.83
559.129	2812.79
559.333	2794.19
559.536	2813.18
559.74	2798.65
559.943	2773.07
560.147	2761.64
560.35	2784.5
560.553	2833.13
560.757	2777.14
560.96	2866.26
561.164	2834.88
561.367	2901.53
561.57	2845.53
561.774	2831.39
561.977	2799.23
562.18	2798.65
562.384	2862.78
562.587	2803.1
562.79	2806.98
562.993	2777.53
563.197	2807.75
563.4	2851.54
563.603	2846.31
563.806	2861.81
564.009	2768.03
564.212	2781.4
564.416	2732.97
564.619	2735.48
564.822	2684.53
565.025	2793.61
565.228	2717.66
565.431	2742.85
565.634	2637.64
565.837	2650.24
566.04	2603.16
566.243	2610.32
566.446	2536.7
566.649	2644.42
566.852	2579.32
567.055	2599.47
567.258	2608.19
567.461	2666.12
567.664	2665.74
567.867	2556.07
568.07	2622.53
568.273	2614.39
568.475	2604.71
568.678	2535.73
568.881	2522.17
569.084	2518.49
569.287	2390.23
569.489	2422.97
569.692	2497.18
569.895	2491.56
570.098	2359.81
570.3	2407.66
570.503	2374.15
570.706	2347.41
570.909	2335.98
571.111	2277.66
571.314	2265.45
571.516	2308.85
571.719	2310.98
571.922	2304.2
572.124	2314.28
572.327	2333.46
572.529	2269.52
572.732	2249.76
572.935	2321.83
573.137	2341.79
573.34	2284.44
573.542	2313.7
573.745	2315.63
573.947	2306.53
574.15	2279.02
574.352	2247.05
574.554	2320.48
574.757	2205.39
574.959	2184.47
575.162	2201.52
575.364	2184.86
575.566	2255.38
575.769	2129.64
575.971	2156.57
576.173	2063.57
576.376	2159.67
576.578	2208.1
576.78	2214.69
576.982	2068.03
577.185	2110.26
577.387	2082.17
577.589	2095.93
577.791	2124.6
577.993	2151.14
578.196	2075
578.398	2081.78
578.6	2102.51
578.802	2043.42
579.004	2007.77
579.206	2022.5
579.408	2050.59
579.61	1985.68
579.812	2062.79
580.014	2006.61
580.216	2034.7
580.418	2037.99
580.62	2077.13
580.822	1985.49
581.024	2096.51
581.226	2108.52
581.428	2075.39
581.63	2146.69
581.832	2008.55
582.034	2127.51
582.236	2071.71
582.438	2129.44
582.64	2193.77
582.841	2187.37
583.043	2185.05
583.245	2094.76
583.447	2141.46
583.649	2093.99
583.85	2094.76
584.052	2169.74
584.254	2035.28
584.456	2144.36
584.657	2035.09
584.859	2105.81
585.061	2074.81
585.262	2050.01
585.464	1977.16
585.666	2087.21
585.867	2002.73
586.069	2084.69
586.27	2042.64
586.472	2023.85
586.674	1993.63
586.875	1984.13
587.077	2007.38
587.278	2029.66
587.48	2005.64
587.681	2110.65
587.883	2015.71
588.084	1931.05
588.285	1974.45
588.487	1911.67
588.688	1940.15
588.89	1834.95
589.091	1778.95
589.292	1769.46
589.494	1742.92
589.695	1688.28
589.896	1648.18
590.098	1617.95
590.299	1709.4
590.5	1696.81
590.702	1745.82
590.903	1741.76
591.104	1784.19
591.305	1813.64
591.507	1878.54
591.708	1819.45
591.909	1802.2
592.11	1883.58
592.311	1812.86
592.512	1758.03
592.714	1769.65
592.915	1767.72
593.116	1754.93
593.317	1833.79
593.518	1807.63
593.719	1808.02
593.92	1810.73
594.121	1853.55
594.322	1789.22
594.523	1794.84
594.724	1771.59
594.925	1750.28
595.126	1775.27
595.327	1762.68
595.528	1785.54
595.729	1796.59
595.929	1797.36
596.13	1771.4
596.331	1808.4
596.532	1799.69
596.733	1898.88
596.934	1852
597.135	1833.01
597.335	1816.93
597.536	1817.51
597.737	1795.23
597.938	1781.09
598.138	1800.85
598.339	1823.52
598.54	1823.13
598.74	1786.7
598.941	1820.61
599.142	1849.09
599.342	1794.07
599.543	1771.98
599.744	1787.29
599.944	1796.2
600.145	1806.66
600.345	1804.92
600.546	1904.5
600.746	1818.09
600.947	1822.16
601.147	1782.25
601.348	1867.3
601.548	1763.65
601.749	1810.73
601.949	1719.86
602.15	1759.58
602.35	1766.17
602.551	1824.1
602.751	1736.91
602.951	1758.81
603.152	1690.99
603.352	1802.2
603.552	1753.57
603.753	1800.46
603.953	1813.44
604.153	1775.85
604.354	1790.97
604.554	1777.02
604.754	1766.55
604.954	1762.68
605.155	1782.05
605.355	1766.94
605.555	1809.57
605.755	1833.01
605.955	1764.81
606.155	1792.52
606.356	1740.98
606.556	1764.23
606.756	1741.95
606.956	1725.29
607.156	1794.45
607.356	1708.62
607.556	1768.1
607.756	1757.26
607.956	1787.87
608.156	1730.91
608.356	1707.07
608.556	1773.92
608.756	1711.92
608.956	1708.24
609.156	1702.42
609.356	1640.04
609.556	1653.21
609.755	1677.62
609.955	1662.51
610.155	1678.59
610.355	1671.23
610.555	1650.89
610.755	1611.56
610.954	1584.05
611.154	1678.98
611.354	1687.89
611.554	1649.73
611.753	1635.39
611.953	1604.97
612.153	1667.94
612.352	1659.61
612.552	1572.23
612.752	1567.77
612.951	1582.69
613.151	1610.59
613.351	1576.49
613.55	1575.52
613.75	1611.17
613.949	1565.64
614.149	1613.3
614.348	1577.65
614.548	1575.13
614.747	1523.98
614.947	1544.71
615.146	1493.57
615.346	1591.99
615.545	1596.06
615.745	1580.36
615.944	1573.58
616.144	1557.31
616.343	1581.53
616.542	1528.05
616.742	1530.57
616.941	1501.51
