Data from gum_young_FLMT105791__30__17-38-29-045.txt Node

Date: Mon Mar 20 17:38:29 GMT 2023
User: antho
Spectrometer: FLMT10579
Trigger mode: 0
Integration Time (sec): 1.000000E-1
Scans to average: 10
Electric dark correction enabled: true
Nonlinearity correction enabled: false
Boxcar width: 0
XAxis mode: Wavelengths
Number of Pixels in Spectrum: 3648
>>>>>Begin Spectral Data<<<<<
345.248	-148.36
345.464	-148.36
345.681	-148.36
345.898	-146.62
346.114	-135.57
346.331	-19.13
346.548	29.69
346.764	-12.35
346.981	-9.06
347.197	-8.67
347.414	8.57
347.631	-19.33
347.847	55.65
348.064	1.02
348.28	41.12
348.497	-55.56
348.713	-11.96
348.93	42.09
349.146	34.34
349.363	-2.28
349.579	19.04
349.796	11.29
350.012	-18.55
350.229	28.72
350.445	3.34
350.661	3.73
350.878	18.84
351.094	1.21
351.311	19.23
351.527	4.12
351.743	-10.61
351.96	47.13
352.176	11.48
352.392	50.42
352.609	37.83
352.825	-2.66
353.041	2.18
353.257	16.52
353.474	8.19
353.69	8.57
353.906	2.18
354.122	-0.92
354.339	49.26
354.555	7.41
354.771	2.18
354.987	61.85
355.203	76
355.42	-7.31
355.636	-12.35
355.852	-11.58
356.068	27.37
356.284	-37.73
356.5	55.85
356.716	20.39
356.932	11.87
357.148	49.65
357.364	-1.7
357.58	57.79
357.796	44.61
358.012	72.7
358.228	39.77
358.444	-33.28
358.66	58.37
358.876	37.64
359.092	-12.55
359.308	11.67
359.524	20.78
359.74	8.96
359.956	-3.63
360.172	13.22
360.388	40.74
360.604	-5.96
360.819	86.07
361.035	2.37
361.251	61.47
361.467	10.7
361.683	28.92
361.898	26.2
362.114	17.68
362.33	24.85
362.546	33.57
362.762	11.87
362.977	14.77
363.193	-5.57
363.409	27.37
363.624	-30.56
363.84	-5.38
364.056	5.09
364.271	22.91
364.487	42.29
364.703	25.62
364.918	-36.38
365.134	21.17
365.35	-6.35
365.565	107.58
365.781	23.49
365.996	21.94
366.212	74.45
366.427	39.19
366.643	0.24
366.858	20
367.074	-20.88
367.289	63.79
367.505	88.2
367.72	-21.07
367.936	12.25
368.151	52.55
368.367	35.5
368.582	33.76
368.798	7.02
369.013	49.84
369.228	-3.63
369.444	26.59
369.659	58.75
369.874	22.91
370.09	69.41
370.305	-39.48
370.52	6.05
370.736	59.53
370.951	-7.31
371.166	65.15
371.381	70.38
371.597	43.45
371.812	-7.51
372.027	-9.06
372.242	23.88
372.458	74.83
372.673	53.33
372.888	28.53
373.103	38.99
373.318	78.71
373.533	47.32
373.749	26.98
373.964	2.76
374.179	55.85
374.394	11.87
374.609	55.07
374.824	-0.34
375.039	68.63
375.254	17.1
375.469	77.16
375.684	26.98
375.899	51.59
376.114	25.82
376.329	20.78
376.544	43.45
376.759	59.14
376.974	5.47
377.189	4.31
377.404	26.98
377.619	54.1
377.834	-25.14
378.049	-41.03
378.264	-18.55
378.478	32.79
378.693	-0.92
378.908	33.95
379.123	16.13
379.338	57.98
379.553	52.55
379.767	24.85
379.982	49.45
380.197	42.87
380.412	15.16
380.626	38.22
380.841	74.45
381.056	38.99
381.271	88.98
381.485	3.34
381.7	0.82
381.915	13.8
382.129	13.8
382.344	44.22
382.559	22.33
382.773	78.71
382.988	-33.28
383.202	56.24
383.417	-8.48
383.632	108.16
383.846	46.74
384.061	26.98
384.275	29.69
384.49	31.82
384.704	27.37
384.919	32.4
385.133	15.35
385.348	51
385.562	-24.75
385.777	52.75
385.991	31.24
386.206	20.97
386.42	7.41
386.634	44.8
386.849	28.14
387.063	34.34
387.277	-6.35
387.492	4.31
387.706	5.67
387.92	-8.48
388.135	66.5
388.349	20.78
388.563	39.96
388.778	27.56
388.992	28.34
389.206	65.15
389.42	107.19
389.635	30.47
389.849	67.08
390.063	70.38
390.277	20.97
390.491	93.43
390.706	36.28
390.92	61.08
391.134	50.23
391.348	66.5
391.562	-8.48
391.776	27.56
391.99	-0.15
392.205	61.27
392.419	27.75
392.633	42.29
392.847	94.98
393.061	10.32
393.275	77.74
393.489	29.11
393.703	32.21
393.917	80.84
394.131	12.45
394.345	16.71
394.559	41.7
394.773	19.23
394.986	72.12
395.2	39.77
395.414	69.99
395.628	18.65
395.842	38.8
396.056	5.28
396.27	-5.76
396.484	48.1
396.697	40.15
396.911	85.1
397.125	23.3
397.339	70.57
397.553	35.5
397.766	97.89
397.98	80.26
398.194	82.39
398.408	38.41
398.621	64.18
398.835	69.6
399.049	64.95
399.262	74.64
399.476	91.11
399.69	94.4
399.903	131.99
400.117	59.14
400.331	85.88
400.544	45.39
400.758	138.97
400.971	49.45
401.185	87.82
401.398	51.78
401.612	120.95
401.826	68.83
402.039	89.95
402.253	40.54
402.466	84.91
402.68	42.09
402.893	79.68
403.106	56.24
403.32	55.07
403.533	52.17
403.747	61.66
403.96	80.45
404.174	79.1
404.387	53.72
404.6	59.14
404.814	102.35
405.027	76.19
405.24	62.82
405.454	76.97
405.667	112.23
405.88	18.65
406.094	73.09
406.307	125.21
406.52	85.88
406.733	57.79
406.947	11.29
407.16	129.47
407.373	126.76
407.586	62.63
407.799	46.74
408.012	76
408.226	99.05
408.439	121.92
408.652	40.35
408.865	89.17
409.078	118.62
409.291	121.92
409.504	58.37
409.717	92.85
409.93	75.61
410.143	94.21
410.357	51
410.57	25.82
410.783	61.47
410.996	87.23
411.209	89.17
411.421	105.06
411.634	98.28
411.847	60.5
412.06	83.55
412.273	73.28
412.486	69.41
412.699	146.72
412.912	113
413.125	109.13
413.338	95.95
413.55	106.22
413.763	100.02
413.976	77.55
414.189	79.1
414.402	111.65
414.615	143.81
414.827	56.24
415.04	128.12
415.253	131.02
415.466	131.41
415.678	156.6
415.891	116.68
416.104	112.81
416.316	122.88
416.529	88.98
416.742	141.48
416.954	143.42
417.167	104.87
417.38	90.14
417.592	130.63
417.805	74.06
418.017	47.9
418.23	123.66
418.442	87.23
418.655	115.52
418.868	79.68
419.08	128.12
419.293	147.1
419.505	99.05
419.718	127.53
419.93	144.39
420.142	87.43
420.355	139.93
420.567	150.59
420.78	136.25
420.992	111.45
421.205	166.28
421.417	71.54
421.629	91.69
421.842	69.22
422.054	71.35
422.266	148.27
422.479	148.46
422.691	83.94
422.903	133.93
423.115	52.17
423.328	107.77
423.54	135.28
423.752	124.05
423.964	93.43
424.177	119.98
424.389	136.45
424.601	236.61
424.813	122.69
425.025	168.8
425.238	139.74
425.45	133.93
425.662	105.83
425.874	397.62
426.086	107.97
426.298	136.64
426.51	134.51
426.722	128.7
426.934	82
427.146	140.71
427.358	96.53
427.57	138.58
427.782	139.16
427.994	139.93
428.206	89.17
428.418	73.28
428.63	149.04
428.842	172.48
429.054	113
429.266	148.07
429.478	111.07
429.69	112.42
429.902	104.09
430.114	182.36
430.325	136.83
430.537	114.36
430.749	125.4
430.961	57.79
431.173	99.44
431.384	146.91
431.596	90.14
431.808	123.47
432.02	115.72
432.231	160.28
432.443	166.86
432.655	160.28
432.867	112.03
433.078	165.7
433.29	224.02
433.502	169.19
433.713	174.03
433.925	158.92
434.136	194.18
434.348	114.36
434.56	89.56
434.771	235.84
434.983	101.38
435.194	134.51
435.406	143.23
435.617	169.96
435.829	191.08
436.04	185.27
436.252	189.15
436.463	219.18
436.675	196.51
436.886	181.2
437.098	181.98
437.309	204.45
437.521	151.17
437.732	193.99
437.943	152.72
438.155	190.7
438.366	136.45
438.578	202.9
438.789	167.45
439	168.41
439.211	181.2
439.423	174.03
439.634	179.85
439.845	177.71
440.057	150.59
440.268	209.1
440.479	162.99
440.69	189.53
440.902	160.08
441.113	172.1
441.324	174.23
441.535	189.92
441.746	227.31
441.957	155.82
442.168	187.98
442.38	191.28
442.591	222.08
442.802	186.63
443.013	167.83
443.224	234.1
443.435	185.85
443.646	182.95
443.857	183.91
444.068	182.75
444.279	181.4
444.49	259.48
444.701	184.5
444.912	301.91
445.123	207.94
445.334	234.48
445.545	217.43
445.756	221.7
445.967	189.53
446.178	237.39
446.388	234.87
446.599	230.61
446.81	228.48
447.021	215.69
447.232	269.55
447.443	261.99
447.653	217.43
447.864	242.81
448.075	228.48
448.286	255.6
448.496	247.27
448.707	250.95
448.918	231.19
449.129	281.56
449.339	222.47
449.55	244.75
449.761	223.44
449.971	261.03
450.182	222.66
450.393	268.19
450.603	242.81
450.814	300.36
451.024	262.19
451.235	306.36
451.446	301.33
451.656	321.28
451.867	250.37
452.077	264.71
452.288	321.28
452.498	298.23
452.709	268.97
452.919	288.34
453.13	267.42
453.34	278.46
453.55	211.04
453.761	293.38
453.971	303.84
454.182	265.68
454.392	272.65
454.602	337.17
454.813	280.79
455.023	304.23
455.233	255.21
455.444	286.79
455.654	233.71
455.864	268
456.075	273.62
456.285	255.79
456.495	271.29
456.705	291.83
456.916	306.75
457.126	325.54
457.336	299.78
457.546	230.03
457.756	258.12
457.967	324.38
458.177	274.01
458.387	304.81
458.597	263.93
458.807	283.89
459.017	270.52
459.227	278.08
459.437	281.56
459.647	306.94
459.857	305.39
460.068	284.08
460.278	317.99
460.488	326.51
460.698	361.77
460.908	301.33
461.117	266.64
461.327	276.53
461.537	306.17
461.747	294.74
461.957	302.68
462.167	394.71
462.377	352.09
462.587	304.62
462.797	337.94
463.007	336.39
463.216	355.57
463.426	341.43
463.636	345.31
463.846	291.83
464.056	292.8
464.265	352.09
464.475	280.59
464.685	319.73
464.895	344.92
465.104	311.98
465.314	336.78
465.524	288.15
465.733	288.34
465.943	410.21
466.153	376.69
466.362	368.17
466.572	351.12
466.782	320.89
466.991	314.89
467.201	355.96
467.41	291.06
467.62	348.79
467.829	314.31
468.039	337.75
468.249	319.15
468.458	346.08
468.668	367.78
468.877	367.01
469.086	399.75
469.296	389.09
469.505	352.67
469.715	426.1
469.924	366.04
470.134	408.47
470.343	415.64
470.552	370.11
470.762	362.36
470.971	338.14
471.18	343.76
471.39	355.96
471.599	342.59
471.808	393.36
472.018	341.62
472.227	432.49
472.436	435.2
472.645	424.35
472.855	339.88
473.064	420.67
473.273	407.69
473.482	398.39
473.691	444.89
473.901	409.05
474.11	420.29
474.319	477.64
474.528	425.13
474.737	466.79
474.946	414.09
475.155	414.28
475.364	452.06
475.573	430.75
475.783	460.2
475.992	451.09
476.201	471.24
476.41	456.71
476.619	397.81
476.828	430.36
477.037	414.47
477.245	436.75
477.454	507.47
477.663	451.09
477.872	436.17
478.081	522.2
478.29	420.09
478.499	524.72
478.708	485.97
478.917	558.82
479.125	492.17
479.334	517.55
479.543	474.15
479.752	497.01
479.961	498.17
480.169	529.95
480.378	513.09
480.587	607.64
480.796	522.39
481.004	523.75
481.213	504.95
481.422	539.44
481.63	537.7
481.839	569.28
482.048	581.48
482.256	562.3
482.465	559.59
482.674	547
482.882	574.12
483.091	613.45
483.299	557.27
483.508	596.21
483.716	562.88
483.925	589.82
484.134	567.34
484.342	580.13
484.551	607.45
484.759	620.23
484.967	609.19
485.176	598.34
485.384	618.88
485.593	630.89
485.801	630.31
486.01	566.76
486.218	567.15
486.426	503.6
486.635	544.48
486.843	511.93
487.051	571.8
487.26	551.26
487.468	590.98
487.676	606.67
487.885	586.72
488.093	592.72
488.301	617.71
488.509	615.2
488.717	653.75
488.926	634.76
489.134	629.34
489.342	632.05
489.55	612.48
489.758	640.96
489.967	671.58
490.175	743.46
490.383	658.79
490.591	737.84
490.799	647.94
491.007	755.08
491.215	676.61
491.423	682.04
491.631	691.92
491.839	671.19
492.047	722.92
492.255	651.62
492.463	636.31
492.671	660.73
492.879	702.19
493.087	681.65
493.295	707.61
493.503	707.81
493.711	749.08
493.919	767.09
494.127	761.86
494.334	756.63
494.542	699.28
494.75	766.32
494.958	712.84
495.166	798.87
495.374	789.76
495.581	790.15
495.789	814.37
495.997	812.04
496.205	756.24
496.412	786.86
496.62	785.11
496.828	807.01
497.035	793.06
497.243	776.59
497.451	786.66
497.658	825.22
497.866	801.58
498.074	865.32
498.281	764.38
498.489	885.09
498.696	799.06
498.904	779.69
499.112	792.28
499.319	869.2
499.527	810.88
499.734	880.63
499.942	785.11
500.149	819.21
500.357	848.86
500.564	803.71
500.771	855.64
500.979	842.27
501.186	843.62
501.394	829.87
501.601	836.46
501.808	836.84
502.016	823.47
502.223	855.44
502.43	843.24
502.638	839.56
502.845	833.74
503.052	941.27
503.26	893.8
503.467	950.96
503.674	855.25
503.881	955.42
504.089	955.61
504.296	932.94
504.503	856.6
504.71	887.02
504.917	887.99
505.125	928.29
505.332	948.05
505.539	966.27
505.746	1032.53
505.953	1000.17
506.16	994.17
506.367	1031.17
506.574	1059.46
506.781	1068.56
506.988	965.3
507.195	997.07
507.402	997.27
507.609	1023.23
507.816	1010.44
508.023	998.62
508.23	1021.29
508.437	1010.44
508.644	1068.18
508.851	1098.6
509.058	1089.1
509.265	1086.78
509.472	1127.46
509.679	1192.95
509.885	1095.88
510.092	1104.6
510.299	1125.14
510.506	1105.57
510.713	1142.19
510.92	1151.29
511.126	1154.59
511.333	1185.98
511.54	1191.4
511.746	1229.76
511.953	1238.67
512.16	1261.73
512.367	1209.03
512.573	1192.76
512.78	1239.06
512.987	1232.09
513.193	1203.61
513.4	1145.48
513.606	1203.02
513.813	1242.16
514.02	1240.42
514.226	1294.09
514.433	1327.6
514.639	1228.21
514.846	1274.71
515.052	1251.07
515.259	1256.11
515.465	1286.53
515.672	1273.36
515.878	1355.7
516.085	1314.04
516.291	1356.86
516.497	1303.77
516.704	1292.73
516.91	1242.36
517.117	1216.78
517.323	1164.47
517.529	1199.73
517.736	1219.3
517.942	1233.83
518.148	1266.57
518.354	1320.63
518.561	1302.61
518.767	1325.86
518.973	1360.15
519.179	1384.57
519.386	1329.35
519.592	1378.37
519.798	1368.87
520.004	1484.93
520.21	1443.85
520.417	1499.46
520.623	1533.95
520.829	1541.11
521.035	1540.92
521.241	1549.06
521.447	1583.35
521.653	1675.57
521.859	1567.27
522.065	1641.67
522.271	1674.41
522.477	1617.26
522.683	1656.97
522.889	1617.45
523.095	1632.95
523.301	1638.18
523.507	1647.87
523.713	1678.67
523.919	1613.77
524.125	1713.74
524.331	1713.94
524.537	1774
524.742	1751.33
524.948	1788.92
525.154	1771.29
525.36	1891.22
525.566	1780
525.772	1857.5
525.977	1769.54
526.183	1875.91
526.389	1820.3
526.595	1751.52
526.8	1730.4
527.006	1697.86
527.212	1648.84
527.417	1677.71
527.623	1647.67
527.829	1749.2
528.034	1790.66
528.24	1769.93
528.446	1802.87
528.651	1910.2
528.857	1874.94
529.062	1942.56
529.268	1917.56
529.473	1928.61
529.679	1962.13
529.884	2009.79
530.09	1986.54
530.295	1983.25
530.501	1962.51
530.706	1955.35
530.912	1978.01
531.117	1988.67
531.323	1974.72
531.528	2062.1
531.733	2050.48
531.939	2026.06
532.144	2044.08
532.35	2036.91
532.555	2058.42
532.76	1972.01
532.966	2035.17
533.171	2011.53
533.376	2003.59
533.581	1982.08
533.787	2002.04
533.992	2067.33
534.197	2047.57
534.402	2021.8
534.607	2070.04
534.813	2125.84
535.018	2059.39
535.223	2093.29
535.428	2092.91
535.633	2144.44
535.838	2138.82
536.043	2158.2
536.249	2250.62
536.454	2156.07
536.659	2158.39
536.864	2135.34
537.069	2141.73
537.274	2125.65
537.479	2171.95
537.684	2176.8
537.889	2096.01
538.094	2244.61
538.299	2173.89
538.504	2179.32
538.708	2220.2
538.913	2215.55
539.118	2154.71
539.323	2212.84
539.528	2154.71
539.733	2178.35
539.938	2188.42
540.142	2196.37
540.347	2175.83
540.552	2132.43
540.757	2107.82
540.962	2139.41
541.166	2095.23
541.371	2089.81
541.576	2125.26
541.781	2061.91
541.985	2171.95
542.19	2183.19
542.395	2230.08
542.599	2284.72
542.804	2236.67
543.008	2270.18
543.213	2220.59
543.418	2159.17
543.622	2224.65
543.827	2167.11
544.031	2234.15
544.236	2291.5
544.44	2244.22
544.645	2330.44
544.849	2266.12
545.054	2277.74
545.258	2344
545.463	2295.37
545.667	2271.35
545.872	2318.82
546.076	2313
546.281	2298.08
546.485	2282.2
546.689	2294.02
546.894	2345.36
547.098	2340.32
547.302	2274.83
547.507	2300.22
547.711	2322.3
547.915	2341.87
548.119	2253.72
548.324	2258.17
548.528	2326.18
548.732	2304.87
548.936	2373.65
549.141	2331.22
549.345	2313.78
549.549	2321.14
549.753	2313.2
549.957	2377.71
550.161	2394.38
550.366	2315.91
550.57	2363.38
550.774	2336.83
550.978	2343.61
551.182	2380.23
551.386	2306.61
551.59	2339.55
551.794	2343.23
551.998	2369.19
552.202	2329.28
552.406	2324.82
552.61	2350.78
552.814	2343.61
553.018	2390.11
553.222	2345.36
553.426	2317.07
553.63	2413.56
553.833	2307
554.037	2321.92
554.241	2378.49
554.445	2370.55
554.649	2361.63
554.853	2365.9
555.056	2413.17
555.26	2413.36
555.464	2402.13
555.668	2370.35
555.871	2405.81
556.075	2399.41
556.279	2361.05
556.483	2317.27
556.686	2334.32
556.89	2309.52
557.094	2350.98
557.297	2268.25
557.501	2330.05
557.704	2216.32
557.908	2297.89
558.112	2278.9
558.315	2336.83
558.519	2285.1
558.722	2235.89
558.926	2232.6
559.129	2173.5
559.333	2163.82
559.536	2190.36
559.74	2138.24
559.943	2126.23
560.147	2141.34
560.35	2163.82
560.553	2221.36
560.757	2164.4
560.96	2258.37
561.164	2210.12
561.367	2278.32
561.57	2219.42
561.774	2217.68
561.977	2182.61
562.18	2159.94
562.384	2251
562.587	2196.17
562.79	2213.22
562.993	2195.4
563.197	2210.9
563.4	2229.11
563.603	2196.17
563.806	2219.81
564.009	2157.42
564.212	2187.65
564.416	2088.84
564.619	2161.11
564.822	2128.36
565.025	2219.62
565.228	2115.77
565.431	2135.34
565.634	2048.54
565.837	2065.98
566.04	2030.91
566.243	2064.62
566.446	1979.95
566.649	2064.62
566.852	2000.49
567.055	2021.03
567.258	2084.38
567.461	2116.93
567.664	2080.31
567.867	1991.19
568.07	2045.05
568.273	2012.89
568.475	2089.22
568.678	1990.8
568.881	1976.08
569.084	1982.47
569.287	1918.34
569.489	1929.38
569.692	1947.4
569.895	1949.34
570.098	1899.16
570.3	1896.83
570.503	1860.02
570.706	1860.41
570.909	1860.6
571.111	1803.64
571.314	1810.81
571.516	1830.38
571.719	1833.87
571.922	1784.07
572.124	1831.93
572.327	1864.28
572.529	1810.81
572.732	1840.45
572.935	1830.38
573.137	1891.6
573.34	1810.23
573.542	1847.23
573.745	1864.09
573.947	1841.81
574.15	1809.26
574.352	1781.94
574.554	1860.6
574.757	1782.91
574.959	1756.17
575.162	1759.47
575.364	1730.6
575.566	1854.21
575.769	1735.44
575.971	1755.2
576.173	1622.29
576.376	1733.89
576.578	1783.1
576.78	1770.9
576.982	1653.29
577.185	1743.58
577.387	1661.62
577.589	1715.1
577.791	1722.27
577.993	1758.89
578.196	1705.22
578.398	1682.16
578.6	1736.99
578.802	1620.36
579.004	1620.94
579.206	1668.79
579.408	1715.49
579.61	1669.57
579.812	1716.07
580.014	1659.49
580.216	1676.16
580.418	1661.24
580.62	1656.2
580.822	1642.44
581.024	1697.47
581.226	1729.05
581.428	1626.56
581.63	1746.29
581.832	1714.52
582.034	1698.82
582.236	1694.76
582.438	1750.94
582.64	1772.06
582.841	1741.84
583.043	1799.19
583.245	1736.6
583.447	1742.8
583.649	1727.69
583.85	1739.51
584.052	1753.46
584.254	1672.28
584.456	1722.46
584.657	1648.26
584.859	1700.76
585.061	1690.69
585.262	1680.03
585.464	1647.67
585.666	1699.41
585.867	1636.24
586.069	1724.59
586.27	1654.65
586.472	1653.49
586.674	1624.62
586.875	1637.02
587.077	1659.11
587.278	1658.91
587.48	1613.19
587.681	1724.79
587.883	1673.64
588.084	1576.38
588.285	1569.79
588.487	1560.1
588.688	1590.52
588.89	1512.63
589.091	1476.79
589.292	1491.9
589.494	1416.92
589.695	1424.67
589.896	1335.16
590.098	1348.92
590.299	1409.17
590.5	1409.37
590.702	1443.08
590.903	1474.46
591.104	1504.5
591.305	1482.21
591.507	1555.06
591.708	1495
591.909	1462.84
592.11	1544.99
592.311	1543.63
592.512	1483.96
592.714	1424.67
592.915	1450.25
593.116	1458.97
593.317	1507.79
593.518	1493.26
593.719	1474.08
593.92	1516.51
594.121	1523.29
594.322	1504.3
594.523	1507.79
594.724	1442.11
594.925	1457.03
595.126	1456.45
595.327	1470.98
595.528	1454.7
595.729	1486.67
595.929	1478.15
596.13	1454.32
596.331	1533.56
596.532	1527.36
596.733	1553.9
596.934	1536.46
597.135	1520.58
597.335	1481.25
597.536	1492.29
597.737	1508.18
597.938	1498.3
598.138	1482.8
598.339	1468.26
598.54	1520.58
598.74	1473.5
598.941	1494.23
599.142	1550.8
599.342	1510.7
599.543	1473.69
599.744	1497.71
599.944	1495.58
600.145	1501.78
600.345	1485.31
600.546	1556.03
600.746	1508.76
600.947	1588.58
601.147	1485.12
601.348	1521.74
601.548	1450.44
601.749	1493.45
601.949	1444.82
602.15	1457.61
602.35	1471.17
602.551	1501.2
602.751	1435.91
602.951	1481.05
603.152	1394.06
603.352	1489.77
603.552	1481.25
603.753	1470.4
603.953	1522.32
604.153	1457.22
604.354	1454.51
604.554	1493.06
604.754	1487.45
604.954	1471.56
605.155	1506.43
605.355	1470.98
605.555	1525.81
605.755	1520.58
605.955	1503.53
606.155	1507.4
606.356	1485.31
606.556	1466.33
606.756	1509.34
606.956	1433.78
607.156	1509.15
607.356	1420.22
607.556	1493.84
607.756	1448.7
607.956	1499.65
608.156	1481.63
608.356	1390.57
608.556	1490.55
608.756	1469.62
608.956	1395.8
609.156	1444.43
609.356	1381.27
609.556	1369.45
609.755	1445.79
609.955	1387.47
610.155	1418.67
610.355	1429.32
610.555	1391.93
610.755	1387.47
610.954	1349.11
611.154	1407.23
611.354	1452.96
611.554	1366.74
611.753	1407.62
611.953	1367.32
612.153	1399.87
612.352	1384.76
612.552	1305.9
612.752	1318.11
612.951	1359.77
613.151	1334.39
613.351	1331.87
613.55	1333.61
613.75	1370.81
613.949	1326.25
614.149	1348.53
614.348	1332.45
614.548	1316.56
614.747	1261.34
614.947	1325.28
615.146	1262.51
615.346	1357.64
615.545	1347.75
615.745	1311.91
615.944	1334.19
616.144	1289.05
616.343	1334.39
616.542	1267.16
616.742	1261.92
616.941	1296.99
617.14	1223.95
617.34	1276.46
617.539	1283.82
617.738	1227.24
617.938	1324.89
618.137	1271.61
618.336	1216.01
618.535	1260.57
