Data from gum_young_FLMT105791__41__17-38-40-044.txt Node

Date: Mon Mar 20 17:38:40 GMT 2023
User: antho
Spectrometer: FLMT10579
Trigger mode: 0
Integration Time (sec): 1.000000E-1
Scans to average: 10
Electric dark correction enabled: true
Nonlinearity correction enabled: false
Boxcar width: 0
XAxis mode: Wavelengths
Number of Pixels in Spectrum: 3648
>>>>>Begin Spectral Data<<<<<
345.248	-171.95
345.464	-171.95
345.681	-171.95
345.898	-142.11
346.114	-144.24
346.331	-16.57
346.548	14.82
346.764	-3.97
346.981	9.2
347.197	3
347.414	0.48
347.631	-12.69
347.847	45.05
348.064	-2.81
348.28	10.17
348.497	-40.4
348.713	-6.3
348.93	7.65
349.146	17.15
349.363	-4.94
349.579	18.31
349.796	4.36
350.012	-14.05
350.229	29.16
350.445	15.6
350.661	-24.51
350.878	-10.17
351.094	31.68
351.311	27.42
351.527	19.28
351.743	-18.5
351.96	38.85
352.176	35.75
352.392	-4.55
352.609	29.16
352.825	0.1
353.041	4.55
353.257	-16.18
353.474	11.53
353.69	-4.55
353.906	51.63
354.122	-8.04
354.339	45.05
354.555	17.73
354.771	4.75
354.987	55.31
355.203	59.19
355.42	3
355.636	-4.94
355.852	-16.57
356.068	18.5
356.284	-44.66
356.5	69.07
356.716	46.6
356.932	1.26
357.148	32.07
357.364	-16.37
357.58	43.3
357.796	43.88
358.012	61.51
358.228	29.16
358.444	-39.43
358.66	80.89
358.876	10.56
359.092	-34.58
359.308	37.68
359.524	19.28
359.74	-36.72
359.956	-8.62
360.172	-12.69
360.388	43.5
360.604	6.68
360.819	57.25
361.035	29.93
361.251	49.5
361.467	-21.6
361.683	39.62
361.898	9.01
362.114	43.11
362.33	7.85
362.546	15.21
362.762	1.07
362.977	10.17
363.193	-21.41
363.409	51.05
363.624	-3.58
363.84	9.4
364.056	-5.72
364.271	21.41
364.487	31.1
364.703	-25.09
364.918	-20.83
365.134	0.29
365.35	21.41
365.565	89.22
365.781	22.77
365.996	20.63
366.212	92.32
366.427	22.77
366.643	-4.94
366.858	9.59
367.074	9.98
367.289	59.19
367.505	110.92
367.72	-25.67
367.936	16.76
368.151	70.43
368.367	51.25
368.582	15.6
368.798	-9.2
369.013	75.66
369.228	-5.52
369.444	5.72
369.659	56.86
369.874	27.61
370.09	67.71
370.305	-33.03
370.52	19.67
370.736	59.96
370.951	3.78
371.166	69.65
371.381	73.91
371.597	43.5
371.812	-32.65
372.027	-13.85
372.242	26.06
372.458	82.83
372.673	-2.23
372.888	3.2
373.103	41.95
373.318	98.71
373.533	19.47
373.749	44.85
373.964	-18.12
374.179	57.45
374.394	20.25
374.609	59.77
374.824	-1.65
375.039	63.06
375.254	-10.37
375.469	57.64
375.684	40.98
375.899	44.46
376.114	22.38
376.329	17.92
376.544	60.35
376.759	10.95
376.974	1.45
377.189	-2.81
377.404	36.33
377.619	31.29
377.834	-6.88
378.049	-14.24
378.264	-6.68
378.478	37.68
378.693	26.06
378.908	40.2
379.123	-12.69
379.338	66.55
379.553	31.87
379.767	31.48
379.982	54.54
380.197	46.79
380.412	4.55
380.626	57.83
380.841	90.58
381.056	55.9
381.271	95.23
381.485	6.3
381.7	-18.12
381.915	47.18
382.129	26.45
382.344	52.99
382.559	3.2
382.773	69.07
382.988	-8.62
383.202	31.29
383.417	20.05
383.632	110.34
383.846	39.43
384.061	21.8
384.275	31.87
384.49	54.93
384.704	39.82
384.919	36.13
385.133	29.55
385.348	47.76
385.562	10.37
385.777	67.52
385.991	22.96
386.206	20.25
386.42	20.83
386.634	75.08
386.849	49.5
387.063	45.82
387.277	9.4
387.492	28.58
387.706	-4.75
387.92	-14.24
388.135	64.42
388.349	44.08
388.563	43.3
388.778	46.98
388.992	48.53
389.206	61.13
389.42	92.71
389.635	28.97
389.849	43.11
390.063	67.52
390.277	70.62
390.491	89.8
390.706	68.1
390.92	71.78
391.134	62.48
391.348	69.07
391.562	10.56
391.776	48.92
391.99	0.87
392.205	79.73
392.419	6.68
392.633	46.4
392.847	85.35
393.061	22.77
393.275	72.56
393.489	26.64
393.703	29.16
393.917	97.55
394.131	6.49
394.345	77.6
394.559	49.31
394.773	43.69
394.986	45.43
395.2	42.72
395.414	71.78
395.628	27.42
395.842	64.42
396.056	46.6
396.27	-0.48
396.484	53.38
396.697	60.74
396.911	87.28
397.125	35.55
397.339	62.1
397.553	62.48
397.766	102.01
397.98	95.42
398.194	105.11
398.408	37.68
398.621	82.63
398.835	103.75
399.049	85.54
399.262	118.67
399.476	110.73
399.69	104.14
399.903	128.94
400.117	67.91
400.331	74.11
400.544	79.73
400.758	164.59
400.971	101.43
401.185	138.43
401.398	67.13
401.612	146.57
401.826	119.64
402.039	108.21
402.253	90.58
402.466	121
402.68	107.24
402.893	116.54
403.106	116.54
403.32	92.9
403.533	111.7
403.747	115.96
403.96	109.56
404.174	116.93
404.387	78.56
404.6	87.67
404.814	132.23
405.027	97.75
405.24	108.79
405.454	64.81
405.667	155.48
405.88	74.11
406.094	95.81
406.307	131.46
406.52	129.52
406.733	108.01
406.947	55.51
407.16	165.94
407.373	137.27
407.586	114.21
407.799	92.71
408.012	152.19
408.226	88.83
408.439	151.99
408.652	85.54
408.865	126.42
409.078	173.69
409.291	138.43
409.504	91.16
409.717	158.58
409.93	125.26
410.143	150.64
410.357	81.28
410.57	62.1
410.783	114.21
410.996	130.49
411.209	139.4
411.421	164.78
411.634	120.8
411.847	104.91
412.06	157.42
412.273	119.83
412.486	170.79
412.699	196.17
412.912	124.1
413.125	158.39
413.338	127.39
413.55	153.35
413.763	173.89
413.976	161.29
414.189	133.2
414.402	135.91
414.615	194.04
414.827	130.3
415.04	191.52
415.253	170.79
415.466	159.55
415.678	194.43
415.891	150.06
416.104	158.97
416.316	148.7
416.529	143.28
416.742	159.16
416.954	194.62
417.167	167.3
417.38	154.13
417.592	190.16
417.805	145.99
418.017	101.23
418.23	187.26
418.442	144.44
418.655	141.53
418.868	180.09
419.08	213.41
419.293	205.86
419.505	186.09
419.718	201.98
419.93	236.27
420.142	157.03
420.355	205.08
420.567	189.97
420.78	189.19
420.992	173.11
421.205	244.22
421.417	166.72
421.629	202.76
421.842	171.56
422.054	144.05
422.266	227.56
422.479	239.76
422.691	167.88
422.903	214.38
423.115	158.39
423.328	189.39
423.54	181.44
423.752	188.23
423.964	176.21
424.177	209.73
424.389	188.42
424.601	272.89
424.813	205.28
425.025	232.79
425.238	236.86
425.45	180.09
425.662	199.66
425.874	477.3
426.086	228.14
426.298	228.33
426.51	227.56
426.722	220.19
426.934	204.11
427.146	213.41
427.358	170.21
427.57	232.4
427.782	216.13
427.994	187.64
428.206	207.21
428.418	167.3
428.63	252.55
428.842	248.67
429.054	209.34
429.266	218.26
429.478	168.27
429.69	198.11
429.902	182.41
430.114	220
430.325	197.72
430.537	139.98
430.749	177.76
430.961	141.73
431.173	162.07
431.384	211.28
431.596	131.84
431.808	205.47
432.02	242.86
432.231	267.27
432.443	292.85
432.655	233.56
432.867	216.51
433.078	238.21
433.29	294.21
433.502	279.29
433.713	265.92
433.925	250.42
434.136	302.73
434.348	217.68
434.56	182.22
434.771	345.35
434.983	209.15
435.194	232.98
435.406	268.05
435.617	268.63
435.829	321.52
436.04	310.09
436.252	294.21
436.463	335.47
436.675	311.25
436.886	320.55
437.098	309.7
437.309	361.82
437.521	263.79
437.732	289.75
437.943	289.17
438.155	282.39
438.366	253.52
438.578	341.67
438.789	280.26
439	289.56
439.211	259.91
439.423	266.5
439.634	293.62
439.845	314.55
440.057	293.82
440.268	334.12
440.479	287.62
440.69	313.58
440.902	311.84
441.113	309.51
441.324	291.3
441.535	347.49
441.746	377.52
441.957	308.93
442.168	312.8
442.38	359.69
442.591	378.29
442.802	318.42
443.013	331.4
443.224	337.22
443.435	314.74
443.646	313
443.857	345.55
444.068	317.07
444.279	313.19
444.49	398.25
444.701	332.18
444.912	451.53
445.123	375.19
445.334	395.15
445.545	368.99
445.756	348.45
445.967	346.9
446.178	360.66
446.388	394.18
446.599	386.82
446.81	351.55
447.021	359.5
447.232	403.67
447.443	419.75
447.653	370.74
447.864	437.38
448.075	392.24
448.286	433.7
448.496	376.74
448.707	447.85
448.918	392.63
449.129	469.55
449.339	395.53
449.55	440.87
449.761	400.77
449.971	452.69
450.182	397.47
450.393	438.16
450.603	397.28
450.814	464.7
451.024	440.1
451.235	492.41
451.446	505.39
451.656	508.49
451.867	414.33
452.077	436.22
452.288	503.26
452.498	492.8
452.709	420.33
452.919	465.09
453.13	416.27
453.34	459.28
453.55	380.81
453.761	474.39
453.971	451.33
454.182	472.45
454.392	445.72
454.602	524.38
454.813	478.85
455.023	478.27
455.233	430.8
455.444	477.1
455.654	398.25
455.864	473.62
456.075	447.85
456.285	440.29
456.495	470.13
456.705	494.15
456.916	523.6
457.126	519.34
457.336	482.72
457.546	408.52
457.756	479.82
457.967	544.91
458.177	484.85
458.387	507.91
458.597	455.02
458.807	460.83
459.017	445.91
459.227	477.1
459.437	491.83
459.647	516.82
459.857	510.43
460.068	483.3
460.278	524.38
460.488	511.59
460.698	548.01
460.908	508.1
461.117	459.86
461.327	502.29
461.537	511.4
461.747	530.38
461.957	509.65
462.167	619.89
462.377	558.67
462.587	537.16
462.797	572.62
463.007	539.88
463.216	556.35
463.426	591.22
463.636	568.36
463.846	502.87
464.056	521.08
464.265	546.27
464.475	493.57
464.685	547.05
464.895	560.41
465.104	545.11
465.314	576.11
465.524	522.25
465.733	516.24
465.943	630.74
466.153	603.43
466.362	559.06
466.572	545.5
466.782	531.16
466.991	543.95
467.201	596.64
467.41	505.97
467.62	586.76
467.829	568.55
468.039	569.91
468.249	560.41
468.458	584.63
468.668	589.67
468.877	613.31
469.086	655.93
469.296	614.47
469.505	570.49
469.715	645.86
469.924	631.13
470.134	658.45
470.343	683.64
470.552	610.59
470.762	576.69
470.971	586.38
471.18	604.01
471.39	638.3
471.599	582.31
471.808	653.22
472.018	603.62
472.227	654.96
472.436	722
472.645	669.49
472.855	650.89
473.064	733.62
473.273	699.72
473.482	672.01
473.691	705.53
473.901	694.68
474.11	663.87
474.319	754.35
474.528	711.73
474.737	761.33
474.946	725.49
475.155	722.58
475.364	748.93
475.573	736.92
475.783	731.11
475.992	744.28
476.201	779.74
476.41	757.45
476.619	726.26
476.828	739.82
477.037	732.85
477.245	743.5
477.454	821.97
477.663	760.94
477.872	810.93
478.081	856.85
478.29	773.15
478.499	906.25
478.708	821
478.917	881.45
479.125	801.24
479.334	867.31
479.543	847.93
479.752	881.07
479.961	843.87
480.169	890.17
480.378	834.18
480.587	981.81
480.796	919.62
481.004	874.09
481.213	921.17
481.422	921.36
481.63	934.73
481.839	956.05
482.048	989.56
482.256	970.77
482.465	963.21
482.674	948.49
482.882	962.63
483.091	1043.81
483.299	972.71
483.508	993.25
483.716	993.83
483.925	987.43
484.134	954.11
484.342	974.84
484.551	1023.08
484.759	997.31
484.967	1038
485.176	1061.64
485.384	1058.93
485.593	1060.48
485.801	1013.01
486.01	962.25
486.218	933.57
486.426	884.55
486.635	886.49
486.843	868.67
487.051	920.78
487.26	934.15
487.468	962.05
487.676	988.01
487.885	974.26
488.093	1047.69
488.301	1044.98
488.509	1105.81
488.717	1079.46
488.926	1055.83
489.134	1067.84
489.342	1048.27
489.55	1051.18
489.758	1112.59
489.967	1100.77
490.175	1204.24
490.383	1142.82
490.591	1257.13
490.799	1131.19
491.007	1199
491.215	1158.71
491.423	1171.88
491.631	1171.11
491.839	1142.24
492.047	1179.44
492.255	1107.56
492.463	1104.46
492.671	1135.65
492.879	1207.72
493.087	1170.33
493.295	1216.25
493.503	1233.69
493.711	1270.88
493.919	1267.59
494.127	1272.05
494.334	1269.92
494.542	1226.52
494.75	1264.69
494.958	1242.99
495.166	1339.28
495.374	1332.69
495.581	1335.21
495.789	1326.3
495.997	1358.85
496.205	1279.41
496.412	1293.55
496.62	1340.05
496.828	1338.31
497.035	1356.71
497.243	1334.05
497.451	1338.12
497.658	1373.18
497.866	1360.01
498.074	1411.55
498.281	1305.95
498.489	1406.7
498.696	1335.21
498.904	1345.48
499.112	1358.46
499.319	1398.37
499.527	1393.91
499.734	1432.08
499.942	1362.53
500.149	1359.62
500.357	1419.49
500.564	1343.93
500.771	1417.75
500.979	1365.63
501.186	1371.05
501.394	1403.02
501.601	1378.22
501.808	1412.13
502.016	1395.08
502.223	1387.71
502.43	1417.36
502.638	1406.7
502.845	1407.86
503.052	1499.31
503.26	1425.11
503.467	1529.34
503.674	1459.79
503.881	1478.58
504.089	1502.99
504.296	1512.29
504.503	1445.84
504.71	1484.98
504.917	1454.36
505.125	1531.67
505.332	1536.32
505.539	1542.52
505.746	1616.53
505.953	1627.77
506.16	1596.57
506.367	1668.07
506.574	1726.77
506.781	1685.31
506.988	1633.77
507.195	1635.13
507.402	1654.89
507.609	1664
507.816	1646.95
508.023	1619.05
508.23	1629.7
508.437	1620.79
508.644	1679.69
508.851	1698.49
509.058	1718.25
509.265	1708.95
509.472	1763.97
509.679	1837.98
509.885	1779.47
510.092	1759.71
510.299	1776.95
510.506	1793.61
510.713	1815.51
510.92	1806.01
511.126	1851.93
511.333	1880.03
511.54	1882.54
511.746	1881.77
511.953	1937.96
512.16	1952.88
512.367	1909.67
512.573	1892.62
512.78	1914.32
512.987	1904.63
513.193	1882.54
513.4	1851.55
513.606	1895.33
513.813	1962.37
514.02	1932.73
514.226	2017.2
514.433	1971.86
514.639	1935.05
514.846	1973.61
515.052	1945.71
515.259	2007.9
515.465	2017.97
515.672	2026.69
515.878	2094.12
516.085	2070.09
516.291	2100.12
516.497	2037.16
516.704	2034.06
516.91	1986.59
517.117	1898.63
517.323	1854.65
517.529	1874.6
517.736	1871.5
517.942	1939.31
518.148	1958.69
518.354	1994.34
518.561	2039.48
518.767	2002.67
518.973	2074.35
519.179	2133.06
519.386	2090.24
519.592	2106.9
519.798	2110.59
520.004	2263.84
520.21	2228.77
520.417	2280.11
520.623	2308.79
520.829	2324.68
521.035	2335.72
521.241	2308.21
521.447	2357.81
521.653	2509.51
521.859	2421.74
522.065	2427.94
522.271	2533.34
522.477	2520.75
522.683	2538.38
522.889	2481.03
523.095	2492.07
523.301	2465.34
523.507	2472.7
523.713	2508.74
523.919	2488.78
524.125	2616.27
524.331	2628.28
524.537	2683.3
524.742	2696.28
524.948	2735.03
525.154	2736
525.36	2788.12
525.566	2704.81
525.772	2774.56
525.977	2700.55
526.183	2759.06
526.389	2796.84
526.595	2637.58
526.8	2642.42
527.006	2564.92
527.212	2568.99
527.417	2479.48
527.623	2513.19
527.829	2587.01
528.034	2682.33
528.24	2698.41
528.446	2737.36
528.651	2842.37
528.857	2835.01
529.062	2931.3
529.268	2912.12
529.473	2929.17
529.679	2924.71
529.884	3012.67
530.09	2978.19
530.295	2907.47
530.501	2980.51
530.706	3000.27
530.912	2976.83
531.117	3029.53
531.323	3018.87
531.528	3044.64
531.733	3077.77
531.939	3036.12
532.144	3051.23
532.35	3062.47
532.555	3061.69
532.76	3001.82
532.966	3019.65
533.171	2961.52
533.376	2952.42
533.581	2968.69
533.787	3009.19
533.992	3039.8
534.197	2995.62
534.402	3066.34
534.607	3091.14
534.813	3148.88
535.018	3080.87
535.223	3150.23
535.428	3150.62
535.633	3219.01
535.838	3292.83
536.043	3236.26
536.249	3316.66
536.454	3182.59
536.659	3205.26
536.864	3204.68
537.069	3206.81
537.274	3238
537.479	3227.54
537.684	3225.21
537.889	3120.2
538.094	3325.57
538.299	3259.51
538.504	3291.86
538.708	3220.18
538.913	3375.56
539.118	3303.87
539.323	3313.95
539.528	3211.26
539.733	3279.07
539.938	3250.01
540.142	3255.44
540.347	3216.88
540.552	3206.03
540.757	3160.31
540.962	3190.73
541.166	3104.12
541.371	3168.45
541.576	3196.15
541.781	3099.28
541.985	3275.01
542.19	3216.69
542.395	3350.18
542.599	3348.24
542.804	3280.62
543.008	3332.36
543.213	3266.48
543.418	3238.78
543.622	3302.13
543.827	3245.56
544.031	3350.57
544.236	3380.4
544.44	3403.27
544.645	3443.57
544.849	3338.75
545.054	3406.17
545.258	3464.68
545.463	3444.15
545.667	3349.02
545.872	3379.24
546.076	3402.1
546.281	3418.96
546.485	3355.61
546.689	3443.57
546.894	3398.42
547.098	3439.3
547.302	3388.93
547.507	3422.25
547.711	3429.23
547.915	3485.03
548.119	3345.92
548.324	3371.49
548.528	3396.87
548.732	3421.48
548.936	3452.87
549.141	3455.97
549.345	3431.36
549.549	3478.63
549.753	3478.63
549.957	3493.94
550.161	3511.57
550.366	3527.85
550.57	3437.56
550.774	3472.05
550.978	3426.13
551.182	3478.44
551.386	3428.07
551.59	3426.13
551.794	3503.63
551.998	3523.97
552.202	3477.67
552.406	3476.12
552.61	3533.08
552.814	3509.44
553.018	3506.15
553.222	3413.73
553.426	3464.49
553.63	3589.85
553.833	3478.25
554.037	3442.99
554.241	3491.03
554.445	3496.46
554.649	3534.24
554.853	3479.99
555.056	3568.53
555.26	3564.08
555.464	3488.32
555.668	3525.52
555.871	3567.37
556.075	3508.67
556.279	3472.24
556.483	3431.36
556.686	3396.68
556.89	3402.88
557.094	3484.45
557.297	3366.45
557.501	3504.6
557.704	3369.17
557.908	3439.3
558.112	3382.34
558.315	3458.1
558.519	3374.79
558.722	3339.72
558.926	3337.78
559.129	3239.16
559.333	3232.96
559.536	3252.53
559.74	3237.81
559.943	3235.68
560.147	3200.22
560.35	3215.91
560.553	3249.24
560.757	3207.78
560.96	3322.67
561.164	3319.96
561.367	3381.95
561.57	3353.67
561.774	3292.83
561.977	3248.85
562.18	3228.31
562.384	3311.82
562.587	3261.25
562.79	3267.06
562.993	3271.33
563.197	3270.36
563.4	3305.04
563.603	3287.41
563.806	3331.39
564.009	3228.12
564.212	3225.21
564.416	3190.14
564.619	3162.25
564.822	3105.09
565.025	3239.36
565.228	3153.14
565.431	3152.36
565.634	3063.63
565.837	3095.4
566.04	3067.31
566.243	3015.77
566.446	2996.98
566.649	3079.13
566.852	2975.09
567.055	3036.7
567.258	3055.68
567.461	3098.89
567.664	3107.03
567.867	3021.58
568.07	3055.1
568.273	3026.04
568.475	3080.68
568.678	2947.38
568.881	2947.77
569.084	2927.42
569.287	2822.8
569.489	2890.61
569.692	2922.19
569.895	2933.62
570.098	2872.98
570.3	2844.89
570.503	2750.15
570.706	2830.74
570.909	2741.43
571.111	2718.76
571.314	2729.03
571.516	2757.51
571.719	2764.48
571.922	2729.61
572.124	2731.93
572.327	2759.64
572.529	2700.74
572.732	2723.21
572.935	2723.02
573.137	2822.41
573.34	2698.03
573.542	2787.73
573.745	2778.82
573.947	2771.84
574.15	2670.71
574.352	2701.51
574.554	2763.32
574.757	2651.72
574.959	2654.82
575.162	2643
575.364	2613.17
575.566	2716.63
575.769	2564.54
575.971	2648.23
576.173	2474.44
576.376	2571.12
576.578	2641.45
576.78	2669.93
576.982	2524.24
577.185	2542.45
577.387	2509.51
577.589	2555.43
577.791	2543.8
577.993	2557.37
578.196	2561.05
578.398	2555.24
578.6	2528.69
578.802	2470.76
579.004	2470.18
579.206	2508.54
579.408	2523.07
579.61	2462.24
579.812	2517.26
580.014	2472.7
580.216	2483.94
580.418	2573.45
580.62	2514.35
580.822	2497.69
581.024	2519.2
581.226	2575
581.428	2504.28
581.63	2635.06
581.832	2503.5
582.034	2590.88
582.236	2583.52
582.438	2581.2
582.64	2640.1
582.841	2623.82
583.043	2745.3
583.245	2578.68
583.447	2589.72
583.649	2588.75
583.85	2625.95
584.052	2621.88
584.254	2534.7
584.456	2596.5
584.657	2521.33
584.859	2618.59
585.061	2534.31
585.262	2520.75
585.464	2450.81
585.666	2557.17
585.867	2474.83
586.069	2537.6
586.27	2495.56
586.472	2439.37
586.674	2470.18
586.875	2490.14
587.077	2448.48
587.278	2455.46
587.48	2482.39
587.681	2576.16
587.883	2482.19
588.084	2408.96
588.285	2412.83
588.487	2352.38
588.688	2363.43
588.89	2275.27
589.091	2181.3
589.292	2226.64
589.494	2140.23
589.695	2097.22
589.896	2056.34
590.098	2086.17
590.299	2149.53
590.5	2066.02
590.702	2189.25
590.903	2198.74
591.104	2245.05
591.305	2237.3
591.507	2276.63
591.708	2290
591.909	2237.68
592.11	2296.78
592.311	2271.4
592.512	2198.74
592.714	2138.68
592.915	2233.81
593.116	2245.24
593.317	2293.48
593.518	2272.36
593.719	2268.68
593.92	2290.58
594.121	2316.73
594.322	2295.23
594.523	2252.99
594.724	2219.86
594.925	2235.75
595.126	2233.03
595.327	2193.9
595.528	2265.2
595.729	2265.2
595.929	2226.06
596.13	2246.98
596.331	2275.66
596.532	2266.75
596.733	2330.68
596.934	2330.1
597.135	2280.31
597.335	2314.41
597.536	2219.86
597.737	2255.7
597.938	2228.19
598.138	2240.98
598.339	2268.1
598.54	2276.63
598.74	2218.5
598.941	2233.03
599.142	2311.7
599.342	2242.91
599.543	2239.81
599.744	2223.73
599.944	2245.82
600.145	2281.47
600.345	2243.88
600.546	2302.01
600.746	2303.56
600.947	2358.97
601.147	2246.98
601.348	2320.41
601.548	2257.83
601.749	2242.33
601.949	2210.75
602.15	2198.74
602.35	2196.03
602.551	2249.89
602.751	2203.2
602.951	2203.2
603.152	2136.55
603.352	2281.28
603.552	2187.5
603.753	2283.41
603.953	2264.23
604.153	2266.75
604.354	2247.95
604.554	2250.66
604.754	2314.41
604.954	2202.42
605.155	2298.52
605.355	2246.98
605.555	2277.98
605.755	2312.66
605.955	2276.43
606.155	2303.95
606.356	2240.4
606.556	2248.73
606.756	2209.98
606.956	2220.63
607.156	2310.34
607.356	2221.22
607.556	2237.1
607.756	2242.53
607.956	2229.35
608.156	2236.91
608.356	2162.51
608.556	2250.66
608.756	2189.83
608.956	2170.65
609.156	2176.85
609.356	2168.13
609.556	2149.14
609.755	2167.16
609.955	2135.77
610.155	2159.22
610.355	2139.65
610.555	2095.86
610.755	2119.3
610.954	2066.99
611.154	2134.03
611.354	2154.76
611.554	2097.8
611.753	2107.1
611.953	2061.57
612.153	2141.2
612.352	2115.62
612.552	2051.11
612.752	2045.68
612.951	2086.17
613.151	2047.23
613.351	2060.6
613.55	2074.35
613.75	2091.6
613.949	2033.67
614.149	2013.32
614.348	2047.62
614.548	1976.51
614.747	1971.47
614.947	2027.27
615.146	1966.44
615.346	2070.87
615.545	2045.29
615.745	2010.42
615.944	2020.11
616.144	2011.19
616.343	2000.73
616.542	1989.69
