Data from gum_young_FLMT105791__117__17-40-45-040.txt Node

Date: Mon Mar 20 17:40:45 GMT 2023
User: antho
Spectrometer: FLMT10579
Trigger mode: 0
Integration Time (sec): 1.000000E-1
Scans to average: 10
Electric dark correction enabled: true
Nonlinearity correction enabled: false
Boxcar width: 0
XAxis mode: Wavelengths
Number of Pixels in Spectrum: 3648
>>>>>Begin Spectral Data<<<<<
345.248	-135.11
345.464	-135.11
345.681	-135.11
345.898	-149.83
346.114	-145.57
346.331	-45.01
346.548	19.31
346.764	-0.26
346.981	-1.42
347.197	-9.95
347.414	18.92
347.631	1.1
347.847	47.98
348.064	2.07
348.28	28.8
348.497	-51.02
348.713	-10.53
348.93	41.2
349.146	34.81
349.363	9.04
349.579	36.94
349.796	1.1
350.012	13.69
350.229	52.83
350.445	19.7
350.661	-17.5
350.878	24.35
351.094	39.46
351.311	27.06
351.527	19.5
351.743	10.4
351.96	53.02
352.176	44.11
352.392	33.26
352.609	41.01
352.825	-7.04
353.041	27.84
353.257	1.1
353.474	3.04
353.69	21.83
353.906	0.32
354.122	-20.99
354.339	73.37
354.555	24.15
354.771	9.04
354.987	61.74
355.203	68.33
355.42	-5.49
355.636	-6.65
355.852	9.43
356.068	27.64
356.284	-40.75
356.5	71.82
356.716	43.92
356.932	-6.26
357.148	23.77
357.364	19.89
357.58	37.33
357.796	55.93
358.012	42.75
358.228	51.67
358.444	-37.26
358.66	33.07
358.876	26.87
359.092	-13.82
359.308	10.4
359.524	19.7
359.74	21.44
359.956	-2.58
360.172	11.17
360.388	50.7
360.604	6.33
360.819	99.91
361.035	20.28
361.251	43.92
361.467	-14.6
361.683	64.07
361.898	9.43
362.114	50.89
362.33	40.62
362.546	64.84
362.762	10.2
362.977	14.08
363.193	-9.75
363.409	81.12
363.624	-26.61
363.84	4.97
364.056	3.81
364.271	23.19
364.487	49.73
364.703	0.32
364.918	-18.47
365.134	15.05
365.35	18.73
365.565	117.15
365.781	32.1
365.996	35
366.212	88.28
366.427	22.99
366.643	3.62
366.858	28.03
367.074	-17.5
367.289	58.64
367.505	102.43
367.72	1.1
367.936	27.06
368.151	47.4
368.367	40.43
368.582	53.22
368.798	7.3
369.013	60
369.228	6.52
369.444	33.45
369.659	52.25
369.874	40.23
370.09	94.1
370.305	-17.31
370.52	24.93
370.736	79.57
370.951	18.92
371.166	58.83
371.381	79.57
371.597	26.67
371.812	4.59
372.027	-4.13
372.242	22.99
372.458	100.1
372.673	8.85
372.888	27.25
373.103	21.64
373.318	96.81
373.533	42.17
373.749	44.11
373.964	-8.2
374.179	56.9
374.394	-7.23
374.609	67.55
374.824	-13.24
375.039	71.23
375.254	28.22
375.469	73.56
375.684	53.41
375.899	69.68
376.114	55.54
376.329	43.92
376.544	53.99
376.759	61.35
376.974	8.07
377.189	20.47
377.404	39.46
377.619	83.83
377.834	-24.48
378.049	-7.62
378.264	10.01
378.478	2.45
378.693	16.4
378.908	51.67
379.123	41.78
379.338	66.97
379.553	44.3
379.767	49.15
379.982	77.05
380.197	60.58
380.412	48.95
380.626	72.59
380.841	92.93
381.056	42.56
381.271	74.33
381.485	21.05
381.7	11.56
381.915	34.03
382.129	24.35
382.344	49.53
382.559	25.32
382.773	68.52
382.988	-26.8
383.202	42.17
383.417	2.45
383.632	129.36
383.846	35.58
384.061	36.36
384.275	14.47
384.49	75.69
384.704	63.68
384.919	49.73
385.133	52.63
385.348	65.42
385.562	18.54
385.777	63.87
385.991	30.93
386.206	27.45
386.42	35
386.634	73.37
386.849	62.71
387.063	35.78
387.277	18.92
387.492	41.2
387.706	9.82
387.92	11.95
388.135	63.1
388.349	29.97
388.563	62.52
388.778	56.51
388.992	66.97
389.206	65.81
389.42	91.38
389.635	40.04
389.849	71.62
390.063	62.71
390.277	38.68
390.491	114.83
390.706	95.07
390.92	97.39
391.134	61.55
391.348	77.05
391.562	19.12
391.776	64.45
391.99	34.03
392.205	63.87
392.419	26.87
392.633	17.95
392.847	93.32
393.061	50.5
393.275	115.02
393.489	55.54
393.703	64.65
393.917	78.98
394.131	26.48
394.345	70.46
394.559	91.58
394.773	43.53
394.986	62.71
395.2	80.15
395.414	100.3
395.628	29.77
395.842	74.33
396.056	63.1
396.27	36.94
396.484	68.13
396.697	48.95
396.911	89.83
397.125	54.77
397.339	67.36
397.553	62.13
397.766	114.05
397.98	65.42
398.194	132.85
398.408	47.21
398.621	84.99
398.835	96.23
399.049	75.69
399.262	104.56
399.476	116.38
399.69	79.95
399.903	151.45
400.117	91
400.331	129.16
400.544	48.18
400.758	180.31
400.971	130.13
401.185	140.79
401.398	70.85
401.612	154.55
401.826	115.8
402.039	108.05
402.253	92.93
402.466	106.69
402.68	91.19
402.893	127.42
403.106	106.5
403.32	130.91
403.533	113.86
403.747	113.86
403.96	122.38
404.174	126.45
404.387	58.64
404.6	88.87
404.814	125.87
405.027	122.96
405.24	119.28
405.454	89.83
405.667	151.83
405.88	57.48
406.094	109.21
406.307	121.03
406.52	112.7
406.733	72.2
406.947	45.47
407.16	158.03
407.373	152.61
407.586	93.13
407.799	76.27
408.012	159.58
408.226	106.69
408.439	143.5
408.652	84.99
408.865	110.76
409.078	146.8
409.291	151.83
409.504	89.45
409.717	141.18
409.93	101.07
410.143	105.14
410.357	63.87
410.57	77.43
410.783	97.78
410.996	123.16
411.209	118.12
411.421	160.75
411.634	142.73
411.847	121.41
412.06	103.78
412.273	153.19
412.486	127.61
412.699	206.28
412.912	138.46
413.125	141.76
413.338	138.27
413.55	140.98
413.763	128.58
413.976	141.37
414.189	109.02
414.402	116.57
414.615	174.11
414.827	85.96
415.04	173.92
415.253	152.8
415.466	169.46
415.678	186.13
415.891	145.44
416.104	118.12
416.316	142.53
416.529	127.42
416.742	149.31
416.954	207.44
417.167	138.08
417.38	141.37
417.592	164.81
417.805	127.03
418.017	123.16
418.23	175.08
418.442	114.44
418.655	139.63
418.868	165.78
419.08	189.23
419.293	185.16
419.505	157.26
419.718	160.55
419.93	184.19
420.142	145.25
420.355	229.33
420.567	195.81
420.78	199.11
420.992	181.67
421.205	235.92
421.417	136.72
421.629	158.42
421.842	146.02
422.054	132.07
422.266	202.01
422.479	199.5
422.691	172.56
422.903	199.5
423.115	130.13
423.328	156.87
423.54	168.3
423.752	163.26
423.964	160.75
424.177	188.84
424.389	154.35
424.601	277.77
424.813	185.74
425.025	199.11
425.238	223.71
425.45	176.44
425.662	167.91
425.874	460.67
426.086	179.15
426.298	212.48
426.51	180.7
426.722	196.59
426.934	165.01
427.146	201.24
427.358	141.76
427.57	228.17
427.782	168.69
427.994	184.77
428.206	175.08
428.418	151.83
428.63	214.8
428.842	239.6
429.054	190.78
429.266	207.05
429.478	147.76
429.69	183.61
429.902	163.07
430.114	232.63
430.325	169.27
430.537	149.51
430.749	160.55
430.961	130.71
431.173	165.78
431.384	196.2
431.596	100.3
431.808	167.14
432.02	199.5
432.231	220.61
432.443	241.93
432.655	230.69
432.867	173.73
433.078	212.28
433.29	270.79
433.502	248.32
433.713	246.77
433.925	215.96
434.136	255.1
434.348	168.88
434.56	163.07
434.771	270.6
434.983	164.04
435.194	167.14
435.406	207.44
435.617	275.44
435.829	283
436.04	250.06
436.252	257.62
436.463	275.44
436.675	267.31
436.886	261.88
437.098	279.51
437.309	289.01
437.521	246.58
437.732	244.83
437.943	249.09
438.155	233.98
438.366	203.95
438.578	275.44
438.789	233.59
439	266.73
439.211	225.84
439.423	235.34
439.634	258.01
439.845	271.57
440.057	279.51
440.268	310.32
440.479	244.25
440.69	270.99
440.902	269.05
441.113	233.21
441.324	237.47
441.535	288.04
441.746	310.71
441.957	258.2
442.168	272.73
442.38	293.27
442.591	297.34
442.802	260.72
443.013	275.83
443.224	307.02
443.435	284.16
443.646	281.06
443.857	261.3
444.068	251.42
444.279	243.28
444.49	341.51
444.701	291.14
444.912	378.32
445.123	333.57
445.334	315.16
445.545	292.49
445.756	309.54
445.967	268.86
446.178	301.21
446.388	348.49
446.599	329.31
446.81	324.27
447.021	276.41
447.232	353.91
447.443	367.86
447.653	293.07
447.864	365.92
448.075	338.22
448.286	356.43
448.496	327.56
448.707	356.82
448.918	315.36
449.129	402.74
449.339	314.19
449.55	354.88
449.761	332.02
449.971	370.19
450.182	334.34
450.393	388.4
450.603	344.42
450.814	404.48
451.024	340.54
451.235	405.84
451.446	414.17
451.656	420.95
451.867	354.11
452.077	382
452.288	397.7
452.498	408.94
452.709	363.41
452.919	392.08
453.13	354.3
453.34	390.34
453.55	306.64
453.761	369.8
453.971	362.44
454.182	398.86
454.392	392.08
454.602	430.05
454.813	403.12
455.023	390.92
455.233	362.24
455.444	386.46
455.654	320.01
455.864	401.77
456.075	360.11
456.285	349.07
456.495	395.95
456.705	416.3
456.916	448.85
457.126	441.29
457.336	393.82
457.546	335.89
457.756	386.07
457.967	454.47
458.177	394.02
458.387	405.84
458.597	369.02
458.807	385.3
459.017	395.18
459.227	392.85
459.437	374.84
459.647	426.76
459.857	410.49
460.068	368.64
460.278	427.92
460.488	417.07
460.698	490.31
460.908	403.9
461.117	379.49
461.327	383.36
461.537	408.35
461.747	446.14
461.957	426.76
462.167	506.78
462.377	463.38
462.587	443.23
462.797	446.52
463.007	459.7
463.216	445.55
463.426	499.8
463.636	461.83
463.846	402.15
464.056	434.9
464.265	478.49
464.475	428.12
464.685	431.02
464.895	446.52
465.104	443.42
465.314	467.45
465.524	438
465.733	412.81
465.943	496.12
466.153	512.2
466.362	465.9
466.572	477.91
466.782	457.76
466.991	451.37
467.201	522.28
467.41	405.25
467.62	473.84
467.829	461.25
468.039	483.92
468.249	478.88
468.458	451.95
468.668	495.15
468.877	491.86
469.086	556.57
469.296	503.48
469.505	483.14
469.715	537.78
469.924	524.02
470.134	557.73
470.343	550.76
470.552	478.68
470.762	507.17
470.971	470.16
471.18	480.62
471.39	483.53
471.599	495.54
471.808	533.9
472.018	462.6
472.227	562
472.436	587.76
472.645	527.51
472.855	521.31
473.064	586.41
473.273	574.78
473.482	544.37
473.691	556.18
473.901	576.91
474.11	575.75
474.319	646.66
474.528	552.31
474.737	646.28
474.946	564.51
475.155	591.45
475.364	659.84
475.573	582.15
475.783	609.27
475.992	631.75
476.201	633.49
476.41	575.75
476.619	567.81
476.828	587.38
477.037	573.23
477.245	578.08
477.454	667.78
477.663	602.1
477.872	599.97
478.081	688.9
478.29	631.75
478.499	721.06
478.708	656.93
478.917	711.38
479.125	650.93
479.334	682.51
479.543	667.01
479.752	700.72
479.961	693.36
480.169	733.46
480.378	699.56
480.587	810.96
480.796	711.76
481.004	709.05
481.213	747.22
481.422	720.48
481.63	750.12
481.839	787.32
482.048	818.32
482.256	773.76
482.465	781.12
482.674	760.97
482.882	771.82
483.091	824.52
483.299	750.9
483.508	808.64
483.716	748.77
483.925	786.74
484.134	776.86
484.342	764.85
484.551	809.99
484.759	783.84
484.967	821.62
485.176	847.39
485.384	812.71
485.593	833.82
485.801	806.31
486.01	776.47
486.218	722.03
486.426	705.95
486.635	713.31
486.843	705.76
487.051	727.07
487.26	756.52
487.468	787.91
487.676	812.71
487.885	785.97
488.093	852.23
488.301	830.72
488.509	854.75
488.717	853.78
488.926	869.47
489.134	837.89
489.342	857.65
489.55	817.94
489.758	841.96
489.967	882.26
490.175	976.03
490.383	888.65
490.591	972.93
490.799	888.46
491.007	934.38
491.215	945.23
491.423	931.67
491.631	921.78
491.839	935.73
492.047	941.74
492.255	890.59
492.463	870.83
492.671	874.32
492.879	959.76
493.087	953.56
493.295	949.49
493.503	935.15
493.711	986.5
493.919	1006.06
494.127	1018.85
494.334	1033
494.542	933.02
494.75	1012.26
494.958	1014.01
495.166	1042.1
495.374	1043.26
495.581	1046.36
495.789	1081.43
495.997	1092.28
496.205	1037.26
496.412	1017.5
496.62	1026.21
496.828	1061.28
497.035	1035.32
497.243	1087.44
497.451	1057.8
497.658	1067.48
497.866	1095.58
498.074	1146.92
498.281	1099.06
498.489	1149.05
498.696	1100.23
498.904	1033.58
499.112	1064.77
499.319	1148.66
499.527	1098.29
499.734	1130.64
499.942	1074.26
500.149	1089.18
500.357	1151.96
500.564	1062.06
500.771	1094.22
500.979	1081.63
501.186	1072.13
501.394	1121.93
501.601	1099.06
501.808	1119.6
502.016	1119.21
502.223	1109.14
502.43	1160.29
502.638	1107.2
502.845	1110.88
503.052	1203.3
503.26	1134.91
503.467	1238.56
503.674	1183.73
503.881	1201.75
504.089	1235.07
504.296	1195.94
504.503	1140.53
504.71	1179.47
504.917	1164.55
505.125	1204.27
505.332	1217.64
505.539	1227.52
505.746	1299.4
505.953	1298.43
506.16	1325.75
506.367	1348.8
506.574	1338.15
506.781	1359.07
506.988	1290.87
507.195	1291.65
507.402	1310.05
507.609	1375.73
507.816	1322.84
508.023	1318.58
508.23	1348.8
508.437	1332.92
508.644	1357.91
508.851	1386.78
509.058	1428.05
509.265	1405.77
509.472	1421.46
509.679	1534.41
509.885	1446.84
510.092	1417
510.299	1443.35
510.506	1456.53
510.713	1466.21
510.92	1461.56
511.126	1495.28
511.333	1508.65
511.54	1532.09
511.746	1567.93
511.953	1580.91
512.16	1620.24
512.367	1568.9
512.573	1562.89
512.78	1580.53
512.987	1550.49
513.193	1565.41
513.4	1499.35
513.606	1579.75
513.813	1603.77
514.02	1604.94
514.226	1668.1
514.433	1691.54
514.639	1601.84
514.846	1662.48
515.052	1650.08
515.259	1632.64
515.465	1671.78
515.672	1689.22
515.878	1759.94
516.085	1725.64
516.291	1759.94
516.497	1702.97
516.704	1723.9
516.91	1656.86
517.117	1613.85
517.323	1569.29
517.529	1611.52
517.736	1589.83
517.942	1614.62
518.148	1682.44
518.354	1696.19
518.561	1713.44
518.767	1687.28
518.973	1740.17
519.179	1796.17
519.386	1802.95
519.592	1794.23
519.798	1804.11
520.004	1922.1
520.21	1898.08
520.417	1931.6
520.623	2006.58
520.829	2027.69
521.035	2005.8
521.241	2030.79
521.447	2031.38
521.653	2163.12
521.859	2082.91
522.065	2096.47
522.271	2163.9
522.477	2140.65
522.683	2223.18
522.889	2188.89
523.095	2137.94
523.301	2191.99
523.507	2119.92
523.713	2173.39
523.919	2174.94
524.125	2260.58
524.331	2266
524.537	2366.75
524.742	2362.68
524.948	2351.83
525.154	2369.66
525.36	2459.36
525.566	2339.63
525.772	2393.88
525.977	2359
526.183	2429.33
526.389	2423.71
526.595	2349.9
526.8	2303.01
527.006	2243.72
527.212	2206.14
527.417	2149.75
527.623	2230.55
527.829	2324.9
528.034	2356.48
528.24	2365.59
528.446	2418.48
528.651	2504.51
528.857	2535.89
529.062	2589.75
529.268	2565.54
529.473	2573.67
529.679	2621.34
529.884	2670.16
530.09	2614.36
530.295	2596.92
530.501	2641.29
530.706	2634.9
530.912	2661.44
531.117	2677.13
531.323	2673.07
531.528	2685.27
531.733	2743.59
531.939	2731.38
532.144	2714.53
532.35	2767.03
532.555	2717.05
532.76	2692.25
532.966	2698.83
533.171	2641.29
533.376	2615.14
533.581	2631.99
533.787	2680.23
533.992	2749.21
534.197	2745.33
534.402	2753.28
534.607	2782.73
534.813	2840.08
535.018	2761.22
535.223	2801.71
535.428	2808.88
535.633	2868.17
535.838	2904.21
536.043	2920.48
536.249	2988.68
536.454	2934.43
536.659	2974.73
536.864	2895.68
537.069	2902.46
537.274	2901.88
537.479	2885.8
537.684	2904.98
537.889	2856.35
538.094	2997.21
538.299	2942.57
538.504	2974.15
538.708	2954.58
538.913	2996.82
539.118	3014.25
539.323	3007.67
539.528	2964.66
539.733	2952.06
539.938	2947.61
540.142	2950.51
540.347	2889.09
540.552	2894.71
540.757	2901.69
540.962	2859.84
541.166	2838.53
541.371	2821.48
541.576	2903.82
541.781	2831.55
541.985	2965.04
542.19	2887.16
542.395	3061.92
542.599	3031.69
542.804	2973.37
543.008	3011.74
543.213	2982.29
543.418	2940.05
543.622	3040.22
543.827	2931.14
544.031	3025.3
544.236	3050.68
544.44	3072.96
544.645	3149.1
544.849	3024.72
545.054	3059.98
545.258	3153.17
545.463	3112.68
545.667	3067.15
545.872	3115.97
546.076	3084.78
546.281	3084.59
546.485	3082.84
546.689	3067.92
546.894	3122.75
547.098	3107.45
547.302	3044.87
547.507	3096.02
547.711	3135.54
547.915	3172.16
548.119	3046.03
548.324	3016.77
548.528	3114.03
548.732	3121.78
548.936	3158.6
549.141	3150.27
549.345	3117.52
549.549	3150.27
549.753	3195.21
549.957	3246.56
550.161	3210.71
550.366	3171
550.57	3134.57
550.774	3148.52
550.978	3170.42
551.182	3175.84
551.386	3136.7
551.59	3216.53
551.794	3139.42
551.998	3176.81
552.202	3191.73
552.406	3128.95
552.61	3206.26
552.814	3214.59
553.018	3243.46
553.222	3163.05
553.426	3178.36
553.63	3208
553.833	3184.17
554.037	3127.79
554.241	3157.43
554.445	3228.73
554.649	3164.8
554.853	3139.42
555.056	3207.03
555.26	3238.23
555.464	3183.2
555.668	3157.24
555.871	3193.66
556.075	3220.21
556.279	3159.37
556.483	3146.39
556.686	3184.56
556.89	3115.2
557.094	3143.48
557.297	3049.71
557.501	3146.78
557.704	3021.23
557.908	3085.94
558.112	3034.4
558.315	3152.98
558.519	3067.34
558.722	3030.14
558.926	2988.49
559.129	2949.16
559.333	2925.91
559.536	2940.05
559.74	2920.09
559.943	2882.31
560.147	2917.77
560.35	2928.04
560.553	2936.76
560.757	2891.81
560.96	3041.57
561.164	2974.15
561.367	2998.95
561.57	2956.13
561.774	2951.67
561.977	2947.61
562.18	2897.62
562.384	2986.36
562.587	2894.33
562.79	2907.5
562.993	2894.71
563.197	2924.94
563.4	3014.64
563.603	2940.82
563.806	2955.16
564.009	2869.91
564.212	2889.29
564.416	2823.61
564.619	2892.19
564.822	2846.08
565.025	2912.73
565.228	2842.01
565.431	2819.54
565.634	2763.55
565.837	2782.53
566.04	2744.95
566.243	2720.34
566.446	2611.26
566.649	2776.91
566.852	2698.45
567.055	2703.87
567.258	2702.71
567.461	2779.43
567.664	2799
567.867	2694.18
568.07	2714.53
568.273	2718.79
568.475	2745.72
568.678	2641.29
568.881	2663.57
569.084	2593.44
569.287	2527.17
569.489	2557.21
569.692	2559.72
569.895	2578.71
570.098	2516.13
570.3	2487.65
570.503	2436.89
570.706	2464.4
570.909	2433.59
571.111	2378.76
571.314	2385.35
571.516	2464.21
571.719	2409.38
571.922	2399.49
572.124	2422.16
572.327	2464.21
572.529	2367.14
572.732	2355.71
572.935	2375.86
573.137	2484.36
573.34	2364.43
573.542	2415.38
573.745	2386.13
573.947	2420.23
574.15	2353.77
574.352	2347.57
574.554	2402.98
574.757	2338.27
574.959	2251.47
575.162	2312.11
575.364	2286.15
575.566	2325.87
575.769	2244.88
575.971	2269.3
576.173	2125.54
576.376	2255.93
576.578	2269.49
576.78	2327.23
576.982	2167.58
577.185	2232.68
577.387	2176.3
577.589	2226.87
577.791	2226.87
577.993	2240.23
578.196	2199.74
578.398	2215.43
578.6	2218.15
578.802	2138.52
579.004	2166.42
579.206	2110.81
579.408	2199.94
579.61	2156.73
579.812	2210.98
580.014	2144.91
580.216	2143.17
580.418	2182.3
580.62	2163.12
580.822	2134.64
581.024	2184.63
581.226	2235.78
581.428	2160.41
581.63	2260.77
581.832	2148.2
582.034	2228.22
582.236	2176.69
582.438	2237.91
582.64	2231.32
582.841	2252.44
583.043	2264.65
583.245	2232.48
583.447	2238.1
583.649	2240.62
583.85	2234.62
584.052	2227.83
584.254	2131.54
584.456	2229
584.657	2145.3
584.859	2198.39
585.061	2168.94
585.262	2162.35
585.464	2098.8
585.666	2195.48
585.867	2107.13
586.069	2209.04
586.27	2074
586.472	2096.09
586.674	2100.35
586.875	2059.08
587.077	2105.77
587.278	2118.37
587.48	2086.01
587.681	2204.59
587.883	2129.41
588.084	2041.45
588.285	2042.42
588.487	2011.81
588.688	2028.47
588.89	1916.87
589.091	1906.99
589.292	1900.6
589.494	1815.54
589.695	1798.49
589.896	1732.62
590.098	1718.47
590.299	1801.4
590.5	1792.1
590.702	1791.32
590.903	1816.9
591.104	1904.08
591.305	1916.87
591.507	1937.6
591.708	1904.08
591.909	1896.33
592.11	1945.74
592.311	1921.13
592.512	1886.84
592.714	1849.45
592.915	1871.92
593.116	1841.31
593.317	1922.49
593.518	1901.76
593.719	1926.75
593.92	1936.25
594.121	1942.64
594.322	1887.42
594.523	1900.98
594.724	1839.76
594.925	1876.57
595.126	1877.54
595.327	1890.33
595.528	1905.05
595.729	1861.65
595.929	1864.95
596.13	1920.55
596.331	1900.4
596.532	1911.25
596.733	1955.04
596.934	1929.66
597.135	1921.91
597.335	1908.15
597.536	1879.28
597.737	1916.1
597.938	1845.38
598.138	1892.46
598.339	1884.71
598.54	1885.1
598.74	1902.53
598.941	1889.94
599.142	1935.86
599.342	1908.15
599.543	1847.51
599.744	1912.61
599.944	1918.81
600.145	1903.11
600.345	1904.47
600.546	1947.68
600.746	1933.73
600.947	1956.39
601.147	1904.28
601.348	1921.52
601.548	1869.6
601.749	1877.15
601.949	1845.38
602.15	1880.25
602.35	1837.63
602.551	1913.19
602.751	1817.48
602.951	1851.77
603.152	1790.74
603.352	1874.63
603.552	1834.53
603.753	1918.42
603.953	1886.26
604.153	1885.68
604.354	1870.76
604.554	1907.18
604.754	1882.19
604.954	1835.11
605.155	1886.84
605.355	1870.95
605.555	1902.34
605.755	1929.27
605.955	1870.18
606.155	1902.34
606.356	1870.76
606.556	1873.86
606.756	1831.82
606.956	1835.3
607.156	1899.24
607.356	1807.21
607.556	1834.92
607.756	1857.2
607.956	1844.41
608.156	1853.71
608.356	1752.38
608.556	1822.13
608.756	1827.17
608.956	1796.55
609.156	1810.89
609.356	1787.64
609.556	1754.51
609.755	1785.32
609.955	1758
610.155	1734.75
610.355	1757.42
610.555	1746.57
610.755	1718.28
610.954	1674.3
611.154	1759.74
611.354	1770.01
611.554	1671.2
611.753	1773.11
611.953	1712.85
612.153	1763.81
612.352	1742.69
612.552	1695.61
612.752	1652.21
612.951	1709.95
613.151	1709.17
613.351	1695.8
613.55	1674.49
613.75	1726.42
613.949	1619.66
614.149	1688.06
614.348	1657.25
614.548	1652.79
614.747	1602.42
614.947	1640.97
615.146	1601.84
615.346	1692.12
615.545	1670.62
615.745	1670.04
615.944	1674.11
616.144	1652.6
616.343	1669.65
616.542	1593.12
616.742	1603
616.941	1618.11
617.14	1510.2
