Data from gum_young_FLMT105791__9__17-38-08-045.txt Node

Date: Mon Mar 20 17:38:08 GMT 2023
User: antho
Spectrometer: FLMT10579
Trigger mode: 0
Integration Time (sec): 1.000000E-1
Scans to average: 10
Electric dark correction enabled: true
Nonlinearity correction enabled: false
Boxcar width: 0
XAxis mode: Wavelengths
Number of Pixels in Spectrum: 3648
>>>>>Begin Spectral Data<<<<<
345.248	-145.38
345.464	-145.38
345.681	-145.38
345.898	-142.86
346.114	-134.14
346.331	-10.53
346.548	12.72
346.764	-3.75
346.981	14.85
347.197	-6.26
347.414	14.27
347.631	-22.73
347.847	55.93
348.064	-7.62
348.28	6.72
348.497	-21.96
348.713	-31.65
348.93	22.02
349.146	30.35
349.363	-10.33
349.579	8.07
349.796	21.83
350.012	-10.14
350.229	43.72
350.445	21.64
350.661	-24.09
350.878	24.54
351.094	11.75
351.311	28.22
351.527	23.57
351.743	8.07
351.96	24.93
352.176	31.71
352.392	18.34
352.609	-2.78
352.825	-24.09
353.041	-6.46
353.257	-18.86
353.474	4.78
353.69	18.15
353.906	22.99
354.122	-31.26
354.339	51.67
354.555	-7.23
354.771	-7.81
354.987	52.83
355.203	28.22
355.42	-22.73
355.636	-6.65
355.852	-8.59
356.068	14.47
356.284	-10.14
356.5	50.31
356.716	23.19
356.932	21.44
357.148	23.57
357.364	-0.84
357.58	48.57
357.796	38.88
358.012	43.72
358.228	30.16
358.444	-28.74
358.66	64.84
358.876	22.6
359.092	-8.98
359.308	25.7
359.524	73.95
359.74	-23.51
359.956	1.49
360.172	6.14
360.388	69.3
360.604	-7.62
360.819	76.08
361.035	11.37
361.251	9.04
361.467	-0.45
361.683	50.31
361.898	14.85
362.114	17.57
362.33	5.55
362.546	34.03
362.762	-4.52
362.977	38.3
363.193	-5.49
363.409	42.95
363.624	8.07
363.84	-4.91
364.056	6.72
364.271	47.98
364.487	5.36
364.703	3.04
364.918	-22.73
365.134	7.3
365.35	20.47
365.565	78.98
365.781	6.52
365.996	29.19
366.212	74.72
366.427	16.21
366.643	-1.03
366.858	-14.4
367.074	3.81
367.289	46.82
367.505	95.84
367.72	-27.96
367.936	17.57
368.151	23.96
368.367	36.55
368.582	18.92
368.798	-24.09
369.013	50.12
369.228	10.79
369.444	26.67
369.659	51.08
369.874	24.15
370.09	53.22
370.305	-39.98
370.52	-8.4
370.736	38.3
370.951	23.77
371.166	63.29
371.381	62.52
371.597	40.43
371.812	-17.7
372.027	-13.63
372.242	8.46
372.458	71.43
372.673	17.76
372.888	7.3
373.103	56.12
373.318	77.82
373.533	25.7
373.749	35.39
373.964	-43.27
374.179	45.47
374.394	-8.2
374.609	76.66
374.824	-6.26
375.039	53.99
375.254	0.13
375.469	67.36
375.684	9.24
375.899	32.29
376.114	24.35
376.329	-0.65
376.544	40.04
376.759	38.68
376.974	4.2
377.189	13.3
377.404	15.63
377.619	50.89
377.834	-22.54
378.049	-13.82
378.264	-5.1
378.478	18.92
378.693	-4.71
378.908	45.47
379.123	11.17
379.338	53.02
379.553	26.29
379.767	12.34
379.982	38.68
380.197	39.27
380.412	10.01
380.626	35
380.841	91.58
381.056	57.67
381.271	82.28
381.485	10.98
381.7	-0.06
381.915	17.95
382.129	3.04
382.344	51.08
382.559	8.07
382.773	46.24
382.988	9.24
383.202	31.9
383.417	-25.25
383.632	123.55
383.846	37.72
384.061	10.59
384.275	13.5
384.49	34.23
384.704	32.29
384.919	49.15
385.133	32.68
385.348	49.15
385.562	19.5
385.777	59.8
385.991	21.44
386.206	-9.95
386.42	21.05
386.634	94.68
386.849	46.43
387.063	46.24
387.277	1.1
387.492	14.66
387.706	-16.15
387.92	-0.06
388.135	61.16
388.349	47.79
388.563	12.14
388.778	31.71
388.992	53.22
389.206	45.47
389.42	100.49
389.635	19.12
389.849	32.68
390.063	77.05
390.277	49.15
390.491	84.22
390.706	42.17
390.92	60.19
391.134	33.84
391.348	52.05
391.562	0.71
391.776	45.08
391.99	-13.63
392.205	69.88
392.419	9.43
392.633	37.72
392.847	83.83
393.061	-1.81
393.275	89.45
393.489	47.79
393.703	46.63
393.917	69.1
394.131	24.74
394.345	64.07
394.559	47.79
394.773	15.44
394.986	59.61
395.2	41.59
395.414	42.37
395.628	11.17
395.842	36.17
396.056	23.19
396.27	-27.19
396.484	60.19
396.697	33.26
396.911	81.7
397.125	71.04
397.339	52.63
397.553	41.2
397.766	113.28
397.98	70.46
398.194	74.14
398.408	49.73
398.621	42.95
398.835	43.33
399.049	39.27
399.262	79.95
399.476	83.05
399.69	68.91
399.903	134.59
400.117	54.96
400.331	86.93
400.544	38.1
400.758	170.82
400.971	56.7
401.185	73.37
401.398	46.63
401.612	124.51
401.826	89.64
402.039	79.95
402.253	66.97
402.466	74.53
402.68	52.44
402.893	77.63
403.106	67.94
403.32	56.32
403.533	47.6
403.747	66
403.96	91.77
404.174	103.01
404.387	50.31
404.6	72.98
404.814	106.88
405.027	90.22
405.24	68.72
405.454	50.5
405.667	128.78
405.88	24.93
406.094	84.02
406.307	87.32
406.52	67.55
406.733	39.65
406.947	17.37
407.16	131.1
407.373	115.22
407.586	38.68
407.799	59.8
408.012	96.23
408.226	95.65
408.439	129.16
408.652	57.28
408.865	90.42
409.078	111.15
409.291	89.06
409.504	49.73
409.717	110.18
409.93	84.6
410.143	91
410.357	32.48
410.57	70.27
410.783	92.55
410.996	100.88
411.209	85.77
411.421	115.02
411.634	94.48
411.847	67.17
412.06	67.55
412.273	90.42
412.486	91.58
412.699	177.99
412.912	99.72
413.125	149.7
413.338	92.55
413.55	101.85
413.763	79.37
413.976	109.02
414.189	69.1
414.402	74.33
414.615	127.81
414.827	53.8
415.04	124.71
415.253	101.65
415.466	118.7
415.678	122
415.891	99.72
416.104	128.78
416.316	104.17
416.529	63.68
416.742	137.5
416.954	153.38
417.167	91.19
417.38	97
417.592	122.96
417.805	81.12
418.017	79.76
418.23	117.73
418.442	109.21
418.655	104.95
418.868	94.1
419.08	127.23
419.293	141.37
419.505	133.23
419.718	142.34
419.93	156.1
420.142	112.7
420.355	157.84
420.567	145.44
420.78	131.49
420.992	101.27
421.205	166.36
421.417	75.88
421.629	116.38
421.842	89.25
422.054	112.7
422.266	136.33
422.479	136.14
422.691	107.27
422.903	146.02
423.115	95.26
423.328	121.03
423.54	124.13
423.752	120.83
423.964	102.82
424.177	130.33
424.389	112.12
424.601	205.5
424.813	141.95
425.025	153.19
425.238	142.92
425.45	108.43
425.662	118.31
425.874	400.41
426.086	89.45
426.298	134.2
426.51	155.13
426.722	124.13
426.934	134.4
427.146	149.7
427.358	106.69
427.57	151.64
427.782	145.25
427.994	120.45
428.206	106.88
428.418	103.59
428.63	162.49
428.842	146.6
429.054	139.43
429.266	150.48
429.478	119.09
429.69	112.12
429.902	82.47
430.114	165.78
430.325	124.13
430.537	97.97
430.749	119.86
430.961	74.92
431.173	95.07
431.384	165.01
431.596	48.76
431.808	123.35
432.02	128
432.231	156.1
432.443	177.41
432.655	162.3
432.867	88.28
433.078	148.73
433.29	205.69
433.502	184
433.713	177.8
433.925	168.3
434.136	207.83
434.348	108.05
434.56	127.42
434.771	204.92
434.983	108.63
435.194	138.46
435.406	150.28
435.617	199.69
435.829	215.77
436.04	179.35
436.252	197.56
436.463	210.15
436.675	187.87
436.886	171.4
437.098	188.65
437.309	219.64
437.521	174.5
437.732	171.01
437.943	174.5
438.155	176.44
438.366	139.63
438.578	214.61
438.789	186.32
439	204.73
439.211	179.35
439.423	195.62
439.634	214.22
439.845	199.5
440.057	196.98
440.268	219.84
440.479	157.65
440.69	212.09
440.902	175.47
441.113	154.16
441.324	185.74
441.535	176.25
441.746	244.44
441.957	171.4
442.168	157.45
442.38	229.72
442.591	230.49
442.802	177.6
443.013	193.88
443.224	233.59
443.435	211.51
443.646	190.78
443.857	195.43
444.068	199.3
444.279	186.71
444.49	257.81
444.701	220.81
444.912	298.31
445.123	244.64
445.334	248.9
445.545	239.02
445.756	231.46
445.967	180.7
446.178	233.4
446.388	247.74
446.599	251.23
446.81	241.34
447.021	215.96
447.232	248.71
447.443	285.71
447.653	216.93
447.864	257.43
448.075	242.12
448.286	272.93
448.496	264.21
448.707	276.61
448.918	213.44
449.129	307.41
449.339	244.06
449.55	238.83
449.761	224.88
449.971	298.31
450.182	229.53
450.393	270.6
450.603	248.9
450.814	313.03
451.024	273.31
451.235	277.58
451.446	316.13
451.656	335.7
451.867	266.53
452.077	295.21
452.288	325.43
452.498	306.83
452.709	268.08
452.919	299.08
453.13	238.24
453.34	292.69
453.55	241.34
453.761	288.62
453.971	300.05
454.182	313.42
454.392	295.79
454.602	330.66
454.813	297.72
455.023	312.84
455.233	258.39
455.444	285.13
455.654	214.03
455.864	265.18
456.075	271.38
456.285	272.54
456.495	294.04
456.705	297.72
456.916	362.24
457.126	373.67
457.336	303.54
457.546	267.89
457.756	274.48
457.967	324.27
458.177	270.6
458.387	310.12
458.597	262.85
458.807	257.43
459.017	310.32
459.227	312.84
459.437	277.38
459.647	313.22
459.857	325.04
460.068	283.97
460.278	342.29
460.488	322.33
460.698	366.51
460.908	324.07
461.117	293.27
461.327	300.05
461.537	301.02
461.747	349.84
461.957	316.32
462.167	409.52
462.377	341.9
462.587	326.21
462.797	355.85
463.007	325.24
463.216	369.61
463.426	393.44
463.636	366.12
463.846	294.62
464.056	336.28
464.265	391.69
464.475	279.32
464.685	334.92
464.895	363.99
465.104	334.54
465.314	382.97
465.524	371.35
465.733	305.86
465.943	414.94
466.153	420.37
466.362	383.36
466.572	348.49
466.782	335.7
466.991	330.86
467.201	401.77
467.41	293.66
467.62	377.55
467.829	348.49
468.039	377.94
468.249	372.32
468.458	362.63
468.668	374.26
468.877	386.85
469.086	440.13
469.296	426.57
469.505	345.58
469.715	432.77
469.924	375.22
470.134	415.52
470.343	415.52
470.552	356.04
470.762	384.33
470.971	357.79
471.18	397.89
471.39	403.32
471.599	346.36
471.808	416.1
472.018	368.06
472.227	447.49
472.436	435.09
472.645	392.85
472.855	410.29
473.064	431.22
473.273	414.55
473.482	440.9
473.691	462.41
473.901	432.96
474.11	414.17
474.319	487.21
474.528	431.99
474.737	495.54
474.946	438.58
475.155	443.62
475.364	488.57
475.573	456.6
475.783	463.57
475.992	459.31
476.201	508.72
476.41	454.27
476.619	429.86
476.828	479.46
477.037	406.61
477.245	435.29
477.454	512.01
477.663	472.87
477.872	472.87
478.081	538.36
478.29	443.62
478.499	568.39
478.708	520.53
478.917	566.26
479.125	490.5
479.334	510.85
479.543	491.28
479.752	510.85
479.961	520.92
480.169	568
480.378	517.24
480.587	619.54
480.796	569.16
481.004	547.27
481.213	559.67
481.422	576.53
481.63	580.21
481.839	582.92
482.048	602.3
482.256	560.45
482.465	594.93
482.674	597.65
482.882	609.46
483.091	636.98
483.299	589.51
483.508	659.06
483.716	603.07
483.925	600.36
484.134	595.51
484.342	595.9
484.551	629.03
484.759	629.81
484.967	633.49
485.176	636.2
485.384	641.04
485.593	638.91
485.801	622.25
486.01	612.37
486.218	584.86
486.426	547.66
486.635	545.92
486.843	545.72
487.051	574.01
487.26	593.38
487.468	646.28
487.676	627.68
487.885	612.37
488.093	637.56
488.301	648.6
488.509	665.46
488.717	718.16
488.926	655.58
489.134	642.21
489.342	669.91
489.55	633.3
489.758	668.75
489.967	653.83
490.175	794.49
490.383	694.13
490.591	768.92
490.799	707.89
491.007	749.35
491.215	755.55
491.423	720.09
491.631	722.81
491.839	721.84
492.047	760.2
492.255	667.2
492.463	680.96
492.671	723.39
492.879	789.07
493.087	735.59
493.295	757.68
493.503	770.47
493.711	765.43
493.919	790.04
494.127	806.31
494.334	799.72
494.542	733.07
494.75	760.78
494.958	767.95
495.166	828.98
495.374	817.55
495.581	818.32
495.789	801.27
495.997	862.89
496.205	789.65
496.412	790.62
496.62	807.47
496.828	857.46
497.035	832.27
497.243	846.03
497.451	847
497.658	874.32
497.866	847.39
498.074	924.69
498.281	857.65
498.489	925.66
498.696	854.36
498.904	834.21
499.112	843.32
499.319	935.35
499.527	860.75
499.734	898.92
499.942	857.85
500.149	841.38
500.357	930.7
500.564	843.32
500.771	891.75
500.979	877.22
501.186	854.94
501.394	901.44
501.601	871.41
501.808	900.09
502.016	890.98
502.223	894.27
502.43	890.4
502.638	897.76
502.845	888.27
503.052	974.68
503.26	917.52
503.467	998.51
503.674	930.7
503.881	947.17
504.089	1025.63
504.296	997.73
504.503	925.08
504.71	977
504.917	946.39
505.125	984.56
505.332	996.38
505.539	1027.76
505.746	1080.46
505.953	1041.33
506.16	1039
506.367	1087.24
506.574	1112.24
506.781	1108.36
506.988	1035.51
507.195	1100.03
507.402	1075.62
507.609	1123.28
507.816	1068.06
508.023	1066.71
508.23	1076.78
508.437	1009.36
508.644	1129.68
508.851	1171.52
509.058	1149.05
509.265	1170.94
509.472	1183.34
509.679	1244.96
509.885	1181.99
510.092	1173.46
510.299	1147.31
510.506	1197.1
510.713	1200.97
510.92	1193.42
511.126	1237.79
511.333	1281.57
511.54	1259.68
511.746	1294.94
511.953	1285.25
512.16	1310.44
512.367	1291.07
512.573	1285.45
512.78	1297.07
512.987	1297.27
513.193	1293
513.4	1231.01
513.606	1308.12
513.813	1356.55
514.02	1311.22
514.226	1353.84
514.433	1353.45
514.639	1306.57
514.846	1330.79
515.052	1337.37
515.259	1356.36
515.465	1388.91
515.672	1381.93
515.878	1460.6
516.085	1402.08
516.291	1451.88
516.497	1398.4
516.704	1390.07
516.91	1346.67
517.117	1298.82
517.323	1260.45
517.529	1323.81
517.736	1306.57
517.942	1342.6
518.148	1339.31
518.354	1376.12
518.561	1416.42
518.767	1352.48
518.973	1466.41
519.179	1488.5
519.386	1466.6
519.592	1439.86
519.798	1472.41
520.004	1576.84
520.21	1557.86
520.417	1582.66
520.623	1645.43
520.829	1576.65
521.035	1646.79
521.241	1625.67
521.447	1692.9
521.653	1767.1
521.859	1660.74
522.065	1688.44
522.271	1765.94
522.477	1746.18
522.683	1778.34
522.889	1685.92
523.095	1743.27
523.301	1736.88
523.507	1739.59
523.713	1776.4
523.919	1734.75
524.125	1851
524.331	1790.55
524.537	1900.6
524.742	1890.52
524.948	1882
525.154	1894.98
525.36	1963.37
525.566	1897.11
525.772	1952.33
525.977	1884.13
526.183	1951.36
526.389	1973.06
526.595	1852.93
526.8	1852.35
527.006	1791.71
527.212	1781.05
527.417	1770.01
527.623	1791.32
527.829	1853.52
528.034	1909.12
528.24	1910.67
528.446	1925.4
528.651	2018.39
528.857	2010.26
529.062	2049.2
529.268	2063.15
529.473	2108.1
529.679	2069.16
529.884	2172.42
530.09	2142.59
530.295	2113.91
530.501	2133.48
530.706	2160.02
530.912	2098.22
531.117	2136.58
531.323	2173
531.528	2196.45
531.733	2179.98
531.939	2123.41
532.144	2211.17
532.35	2167
532.555	2230.93
532.76	2190.64
532.966	2119.53
533.171	2130.57
533.376	2101.9
533.581	2104.42
533.787	2149.37
533.992	2206.72
534.197	2198.19
534.402	2206.52
534.607	2195.67
534.813	2288.09
535.018	2241.2
535.223	2239.85
535.428	2244.3
535.633	2308.43
535.838	2271.43
536.043	2286.15
536.249	2362.3
536.454	2332.46
536.659	2337.88
536.864	2285.77
537.069	2258.25
537.274	2272.78
537.479	2269.88
537.684	2322
537.889	2251.47
538.094	2396.39
538.299	2297
538.504	2328
538.708	2356.87
538.913	2403.56
539.118	2369.85
539.323	2349.12
539.528	2331.88
539.733	2291
539.938	2314.25
540.142	2349.7
540.347	2312.11
540.552	2275.88
540.757	2270.46
540.962	2288.48
541.166	2167.19
541.371	2259.42
541.576	2287.7
541.781	2218.15
541.985	2336.72
542.19	2348.93
542.395	2402.21
542.599	2412.09
542.804	2391.94
543.008	2424.88
543.213	2354.16
543.418	2323.55
543.622	2390.97
543.827	2337.88
544.031	2411.51
544.236	2392.71
544.44	2416.16
544.645	2460.33
544.849	2428.36
545.054	2428.17
545.258	2524.46
545.463	2474.28
545.667	2377.21
545.872	2460.14
546.076	2437.86
546.281	2465.56
546.485	2452.39
546.689	2474.67
546.894	2487.46
547.098	2452.78
547.302	2392.52
547.507	2467.11
547.711	2467.89
547.915	2496.56
548.119	2409.76
548.324	2416.54
548.528	2511.48
548.732	2460.14
548.936	2510.32
549.141	2507.99
549.345	2476.22
549.549	2489.01
549.753	2476.8
549.957	2538.8
550.161	2531.05
550.366	2542.87
550.57	2495.98
550.774	2459.56
550.978	2480.09
551.182	2464.98
551.386	2463.63
551.59	2485.91
551.794	2505.67
551.998	2560.11
552.202	2464.98
552.406	2470.21
552.61	2519.23
552.814	2534.54
553.018	2583.75
553.222	2502.18
553.426	2469.24
553.63	2540.54
553.833	2488.42
554.037	2456.84
554.241	2494.24
554.445	2503.92
554.649	2515.55
554.853	2465.56
555.056	2507.02
555.26	2582.97
555.464	2493.27
555.668	2544.81
555.871	2578.32
556.075	2533.57
556.279	2478.93
556.483	2426.23
556.686	2475.06
556.89	2500.44
557.094	2484.94
557.297	2427.59
557.501	2495.21
557.704	2413.06
557.908	2488.81
558.112	2404.73
558.315	2469.44
558.519	2451.81
558.722	2415.19
558.926	2444.44
559.129	2296.62
559.333	2343.7
559.536	2339.43
559.74	2347.18
559.943	2305.91
560.147	2327.23
560.35	2304.17
560.553	2324.71
560.757	2325.48
560.96	2385.35
561.164	2329.36
561.367	2413.25
561.57	2413.64
561.774	2358.23
561.977	2328.78
562.18	2306.3
562.384	2405.69
562.587	2315.21
562.79	2340.4
562.993	2261.35
563.197	2330.13
563.4	2377.99
563.603	2378.76
563.806	2381.48
564.009	2273.56
564.212	2355.51
564.416	2232.29
564.619	2303.98
564.822	2231.32
565.025	2306.69
565.228	2229.97
565.431	2285.38
565.634	2184.82
565.837	2216.02
566.04	2179.79
566.243	2195.87
566.446	2119.34
566.649	2218.15
566.852	2109.46
567.055	2180.95
567.258	2186.37
567.461	2229.58
567.664	2223.38
567.867	2146.46
568.07	2168.94
568.273	2177.27
568.475	2213.69
568.678	2090.66
568.881	2103.06
569.084	2135.42
569.287	2007.93
569.489	2070.9
569.692	2106.94
569.895	2135.42
570.098	2024.21
570.3	2042.22
570.503	1970.34
570.706	1985.46
570.909	1978.87
571.111	1923.65
571.314	1939.15
571.516	1952.71
571.719	1977.9
571.922	1970.93
572.124	1941.67
572.327	1974.8
572.529	1913
572.732	1932.18
572.935	1959.11
573.137	2014.71
573.34	1937.41
573.542	2000.38
573.745	1973.06
573.947	1971.7
574.15	1889.75
574.352	1889.55
574.554	1963.37
574.757	1883.74
574.959	1858.17
575.162	1840.73
575.364	1833.95
575.566	1934.7
575.769	1818.83
575.971	1872.7
576.173	1762.45
576.376	1850.8
576.578	1840.92
576.78	1900.79
576.982	1779.7
577.185	1823.1
577.387	1791.32
577.589	1742.89
577.791	1818.83
577.993	1816.9
578.196	1773.11
578.398	1803.33
578.6	1821.16
578.802	1742.5
579.004	1698.71
579.206	1768.85
579.408	1794.62
579.61	1746.37
579.812	1842.47
580.014	1766.52
580.216	1754.9
580.418	1783.77
580.62	1760.32
580.822	1703.75
581.024	1793.84
581.226	1812.05
581.428	1788.61
581.63	1848.48
581.832	1776.98
582.034	1810.89
582.236	1810.89
582.438	1832.59
582.64	1873.66
582.841	1856.62
583.043	1902.73
583.245	1801.98
583.447	1853.9
583.649	1812.05
583.85	1805.27
584.052	1828.72
584.254	1755.48
584.456	1838.6
584.657	1785.7
584.859	1809.15
585.061	1775.63
585.262	1808.95
585.464	1749.28
585.666	1785.9
585.867	1738.43
586.069	1797.72
586.27	1751.8
586.472	1759.94
586.674	1762.07
586.875	1757.22
587.077	1759.74
587.278	1750.83
587.48	1693.87
587.681	1834.53
587.883	1738.82
588.084	1653.57
588.285	1686.7
588.487	1655.12
588.688	1679.92
588.89	1572.58
589.091	1567.54
589.292	1535.58
589.494	1483.65
589.695	1481.52
589.896	1452.65
590.098	1420.49
590.299	1494.31
590.5	1471.83
590.702	1498.57
590.903	1549.53
591.104	1589.63
591.305	1593.89
591.507	1609.2
591.708	1610.17
591.909	1537.9
592.11	1652.41
592.311	1632.26
592.512	1576.84
592.714	1521.63
592.915	1534.61
593.116	1560.18
593.317	1573.55
593.518	1591.96
593.719	1558.83
593.92	1605.71
594.121	1634.58
594.322	1573.74
594.523	1606.29
594.724	1529.96
594.925	1569.29
595.126	1555.34
595.327	1564.25
595.528	1564.83
595.729	1547.01
595.929	1571.03
596.13	1577.62
596.331	1609.97
596.532	1579.36
596.733	1633.03
596.934	1608.42
597.135	1585.95
597.335	1586.14
597.536	1535.38
597.737	1546.23
597.938	1550.11
598.138	1584.79
598.339	1563.67
598.54	1592.73
598.74	1546.43
598.941	1563.48
599.142	1615.98
599.342	1625.47
599.543	1559.21
599.744	1580.91
599.944	1579.75
600.145	1540.23
600.345	1581.69
600.546	1663.64
600.746	1608.81
600.947	1647.56
601.147	1577.62
601.348	1627.99
601.548	1550.11
601.749	1556.31
601.949	1518.53
602.15	1534.8
602.35	1549.33
602.551	1586.34
602.751	1540.81
602.951	1547.01
603.152	1498.18
603.352	1580.14
603.552	1555.14
603.753	1593.12
603.953	1593.12
604.153	1553.4
604.354	1572.58
604.554	1572.97
604.754	1576.84
604.954	1533.25
605.155	1592.73
605.355	1600.09
605.555	1606.68
605.755	1619.66
605.955	1545.65
606.155	1593.51
606.356	1548.36
606.556	1556.11
606.756	1590.79
606.956	1521.82
607.156	1574.71
607.356	1526.86
607.556	1566.58
607.756	1541
607.956	1577.62
608.156	1536.93
608.356	1492.18
608.556	1561.15
608.756	1538.09
608.956	1498.96
609.156	1516.2
609.356	1500.31
609.556	1489.27
609.755	1521.43
609.955	1478.23
610.155	1494.11
610.355	1503.8
610.555	1502.06
610.755	1460.6
610.954	1441.61
611.154	1460.6
611.354	1506.13
611.554	1454.01
611.753	1445.1
611.953	1427.85
612.153	1469.9
612.352	1477.65
612.552	1415.07
612.752	1393.56
612.951	1431.34
613.151	1408.67
613.351	1417.39
613.55	1430.76
613.75	1446.84
613.949	1417.2
614.149	1450.71
614.348	1417.2
614.548	1384.07
614.747	1383.68
614.947	1367.4
615.146	1351.13
615.346	1404.6
615.545	1417.58
615.745	1408.87
615.944	1381.16
616.144	1405.57
616.343	1399.37
616.542	1344.35
616.742	1357.52
616.941	1369.53
617.14	1293.59
617.34	1344.93
617.539	1363.53
617.738	1303.85
617.938	1397.63
618.137	1319.74
618.336	1346.48
618.535	1373.99
618.734	1333.3
