Data from gum_young_FLMT105791__29__17-38-28-045.txt Node

Date: Mon Mar 20 17:38:28 GMT 2023
User: antho
Spectrometer: FLMT10579
Trigger mode: 0
Integration Time (sec): 1.000000E-1
Scans to average: 10
Electric dark correction enabled: true
Nonlinearity correction enabled: false
Boxcar width: 0
XAxis mode: Wavelengths
Number of Pixels in Spectrum: 3648
>>>>>Begin Spectral Data<<<<<
345.248	-142.5
345.464	-142.5
345.681	-142.5
345.898	-147.15
346.114	-130.1
346.331	-30.9
346.548	13.08
346.764	-0.29
346.981	-6.1
347.197	-21.22
347.414	12.3
347.631	-21.99
347.847	56.48
348.064	-6.3
348.28	38.65
348.497	-45.82
348.713	12.11
348.93	26.64
349.146	51.44
349.363	1.07
349.579	32.07
349.796	13.47
350.012	0.1
350.229	24.32
350.445	17.92
350.661	-7.85
350.878	-0.48
351.094	20.25
351.311	6.1
351.527	34.97
351.743	12.11
351.96	37.88
352.176	35.55
352.392	53.57
352.609	27.8
352.825	0.1
353.041	8.04
353.257	19.47
353.474	10.37
353.69	5.52
353.906	10.17
354.122	-2.81
354.339	26.83
354.555	-15.02
354.771	5.72
354.987	71.4
355.203	66.16
355.42	4.94
355.636	-9.98
355.852	2.81
356.068	6.68
356.284	-15.98
356.5	64.42
356.716	29.55
356.932	35.17
357.148	48.15
357.364	21.41
357.58	57.25
357.796	48.73
358.012	32.07
358.228	40.59
358.444	-58.61
358.66	63.26
358.876	24.12
359.092	3.58
359.308	12.11
359.524	46.6
359.74	2.03
359.956	3.39
360.172	32.26
360.388	22.18
360.604	-9.4
360.819	110.73
361.035	28.97
361.251	28
361.467	28.38
361.683	28.38
361.898	46.21
362.114	45.43
362.33	11.72
362.546	51.83
362.762	13.08
362.977	53.18
363.193	-2.62
363.409	41.75
363.624	-5.91
363.84	18.89
364.056	-6.1
364.271	37.3
364.487	34.2
364.703	-5.13
364.918	-2.62
365.134	6.68
365.35	-6.1
365.565	92.51
365.781	44.85
365.996	37.88
366.212	77.4
366.427	32.84
366.643	-9.2
366.858	6.3
367.074	-20.83
367.289	59.96
367.505	89.8
367.72	-36.72
367.936	11.92
368.151	32.26
368.367	48.34
368.582	20.83
368.798	6.88
369.013	44.08
369.228	8.04
369.444	27.8
369.659	66.36
369.874	21.41
370.09	60.35
370.305	-50.08
370.52	-10.17
370.736	65
370.951	6.68
371.166	74.11
371.381	70.04
371.597	56.48
371.812	-11.33
372.027	-7.07
372.242	5.33
372.458	97.75
372.673	-10.75
372.888	-1.26
373.103	23.15
373.318	100.46
373.533	40.2
373.749	63.26
373.964	-23.93
374.179	60.16
374.394	10.37
374.609	38.27
374.824	14.82
375.039	69.26
375.254	1.07
375.469	71.4
375.684	28.97
375.899	86.7
376.114	23.35
376.329	35.17
376.544	33.62
376.759	45.43
376.974	-1.07
377.189	25.87
377.404	12.69
377.619	62.87
377.834	-22.18
378.049	-18.89
378.264	-16.57
378.478	35.55
378.693	12.11
378.908	34.39
379.123	29.74
379.338	71.2
379.553	4.75
379.767	26.06
379.982	59
380.197	30.71
380.412	26.45
380.626	21.02
380.841	107.43
381.056	31.87
381.271	62.48
381.485	22.96
381.7	12.3
381.915	21.02
382.129	30.13
382.344	35.75
382.559	34.58
382.773	56.09
382.988	-11.92
383.202	9.4
383.417	-4.17
383.632	104.91
383.846	33.03
384.061	37.1
384.275	21.6
384.49	54.54
384.704	54.93
384.919	28.77
385.133	38.85
385.348	40.01
385.562	-15.02
385.777	52.8
385.991	21.41
386.206	13.27
386.42	20.83
386.634	51.25
386.849	68.1
387.063	22.77
387.277	8.62
387.492	8.62
387.706	9.4
387.92	25.67
388.135	71.59
388.349	46.4
388.563	38.46
388.778	52.6
388.992	55.12
389.206	49.11
389.42	101.62
389.635	49.5
389.849	75.85
390.063	48.73
390.277	38.46
390.491	65.97
390.706	64.03
390.92	55.51
391.134	27.8
391.348	61.71
391.562	-14.05
391.776	32.26
391.99	9.01
392.205	92.13
392.419	20.83
392.633	51.63
392.847	58.03
393.061	24.7
393.275	80.7
393.489	7.85
393.703	28.19
393.917	60.74
394.131	14.24
394.345	48.34
394.559	70.23
394.773	51.44
394.986	32.45
395.2	35.94
395.414	84.76
395.628	8.62
395.842	58.8
396.056	14.82
396.27	-31.1
396.484	47.18
396.697	34.2
396.911	67.91
397.125	47.95
397.339	96.97
397.553	56.28
397.766	86.51
397.98	75.27
398.194	63.45
398.408	36.13
398.621	68.88
398.835	57.25
399.049	61.32
399.262	91.35
399.476	77.6
399.69	68.68
399.903	134.36
400.117	53.96
400.331	87.48
400.544	46.21
400.758	132.81
400.971	70.43
401.185	93.87
401.398	15.6
401.612	92.51
401.826	81.08
402.039	73.33
402.253	50.47
402.466	56.86
402.68	51.25
402.893	80.5
403.106	58.61
403.32	71.59
403.533	88.83
403.747	40.01
403.96	72.17
404.174	90.58
404.387	34.2
404.6	86.9
404.814	96.58
405.027	92.51
405.24	71.2
405.454	80.11
405.667	111.7
405.88	8.23
406.094	72.36
406.307	105.11
406.52	96.58
406.733	44.27
406.947	0.68
407.16	144.44
407.373	133.39
407.586	35.94
407.799	63.45
408.012	94.45
408.226	71.98
408.439	135.72
408.652	48.73
408.865	89.41
409.078	107.82
409.291	70.62
409.504	39.04
409.717	101.04
409.93	85.93
410.143	92.13
410.357	61.13
410.57	27.03
410.783	76.82
410.996	88.45
411.209	90.38
411.421	127.39
411.634	82.83
411.847	51.44
412.06	91.16
412.273	80.31
412.486	98.52
412.699	178.54
412.912	79.92
413.125	97.55
413.338	92.71
413.55	115.96
413.763	74.88
413.976	95.23
414.189	46.98
414.402	75.46
414.615	159.94
414.827	60.55
415.04	148.12
415.253	124.87
415.466	122.35
415.678	160.71
415.891	98.33
416.104	116.54
416.316	85.93
416.529	64.23
416.742	133.2
416.954	110.34
417.167	77.79
417.38	94.45
417.592	125.65
417.805	71.59
418.017	63.45
418.23	128.75
418.442	94.06
418.655	76.24
418.868	108.98
419.08	125.06
419.293	127.2
419.505	129.52
419.718	119.64
419.93	142.5
420.142	107.24
420.355	168.85
420.567	164.59
420.78	101.23
420.992	111.7
421.205	167.49
421.417	67.91
421.629	107.43
421.842	105.5
422.054	78.37
422.266	140.95
422.479	134.56
422.691	115.96
422.903	165.94
423.115	111.7
423.328	126.42
423.54	129.52
423.752	115.18
423.964	79.34
424.177	136.49
424.389	101.62
424.601	197.91
424.813	151.03
425.025	147.34
425.238	139.98
425.45	106.46
425.662	116.54
425.874	402.51
426.086	123.32
426.298	131.07
426.51	134.94
426.722	136.49
426.934	127
427.146	158.58
427.358	94.65
427.57	135.14
427.782	102.01
427.994	128.36
428.206	102.78
428.418	87.28
428.63	151.41
428.842	135.72
429.054	128.36
429.266	178.73
429.478	92.9
429.69	159.36
429.902	87.86
430.114	121.77
430.325	137.46
430.537	105.3
430.749	102.2
430.961	85.54
431.173	131.65
431.384	142.69
431.596	70.04
431.808	109.76
432.02	133.01
432.231	131.84
432.443	179.51
432.655	159.74
432.867	83.99
433.078	145.02
433.29	182.8
433.502	165.56
433.713	206.63
433.925	149.48
434.136	173.89
434.348	82.63
434.56	87.48
434.771	243.64
434.983	121.58
435.194	110.15
435.406	145.21
435.617	165.56
435.829	204.31
436.04	153.74
436.252	184.16
436.463	186.29
436.675	175.24
436.886	178.93
437.098	185.32
437.309	226.01
437.521	173.89
437.732	172.53
437.943	171.18
438.155	153.35
438.366	122.16
438.578	208.96
438.789	180.48
439	171.37
439.211	181.44
439.423	207.41
439.634	182.8
439.845	215.74
440.057	181.83
440.268	201.4
440.479	148.51
440.69	197.33
440.902	174.47
441.113	173.89
441.324	188.23
441.535	181.64
441.746	221.94
441.957	152.38
442.168	153.16
442.38	212.06
442.591	225.81
442.802	164.78
443.013	178.73
443.224	195.2
443.435	169.04
443.646	176.79
443.857	193.84
444.068	171.56
444.279	175.44
444.49	248.67
444.701	208.57
444.912	292.27
445.123	244.8
445.334	198.49
445.545	209.15
445.756	214.58
445.967	180.48
446.178	221.55
446.388	249.26
446.599	238.6
446.81	232.4
447.021	182.8
447.232	259.91
447.443	248.48
447.653	193.84
447.864	231.43
448.075	209.73
448.286	248.87
448.496	227.75
448.707	249.84
448.918	242.47
449.129	320.36
449.339	224.26
449.55	233.56
449.761	239.18
449.971	264.37
450.182	218.45
450.393	286.46
450.603	215.74
450.814	292.66
451.024	290.14
451.235	301.18
451.446	303.51
451.656	309.9
451.867	242.67
452.077	261.46
452.288	301.76
452.498	299.05
452.709	236.47
452.919	285.68
453.13	251
453.34	275.02
453.55	226.2
453.761	298.86
453.971	258.94
454.182	269.41
454.392	296.72
454.602	334.31
454.813	322.49
455.023	286.46
455.233	231.62
455.444	264.17
455.654	241.7
455.864	262.62
456.075	280.64
456.285	265.53
456.495	267.08
456.705	270.76
456.916	317.07
457.126	344
457.336	291.69
457.546	259.14
457.756	251.58
457.967	330.05
458.177	278.12
458.387	285.1
458.597	252.94
458.807	295.56
459.017	283.55
459.227	280.84
459.437	280.64
459.647	336.64
459.857	312.8
460.068	265.34
460.278	345.94
460.488	314.74
460.698	337.8
460.908	268.44
461.117	282
461.327	314.16
461.537	312.8
461.747	291.69
461.957	311.25
462.167	373.84
462.377	335.47
462.587	319.78
462.797	343.03
463.007	322.69
463.216	358.92
463.426	326.75
463.636	375.97
463.846	275.61
464.056	290.52
464.265	331.4
464.475	273.86
464.685	295.95
464.895	324.04
465.104	322.49
465.314	323.65
465.524	291.49
465.733	271.15
465.943	362.02
466.153	378.49
466.362	348.45
466.572	336.25
466.782	294.79
466.991	308.93
467.201	370.15
467.41	277.35
467.62	337.6
467.829	344.19
468.039	354.65
468.249	313
468.458	341.87
468.668	364.54
468.877	354.65
469.086	408.32
469.296	361.63
469.505	341.87
469.715	407.16
469.924	367.64
470.134	397.67
470.343	402.9
470.552	343.03
470.762	339.74
470.971	316.87
471.18	373.45
471.39	337.6
471.599	320.94
471.808	382.75
472.018	336.83
472.227	418.2
472.436	425.95
472.645	382.36
472.855	374.61
473.064	407.35
473.273	423.05
473.482	428.08
473.691	413.36
473.901	386.62
474.11	394.57
474.319	443.39
474.528	404.83
474.737	452.69
474.946	439.13
475.155	434.28
475.364	450.95
475.573	437.19
475.783	449.78
475.992	450.17
476.201	454.43
476.41	407.74
476.619	394.95
476.828	434.48
477.037	420.33
477.245	414.52
477.454	480.4
477.663	444.55
477.872	446.49
478.081	504.23
478.29	425.76
478.499	517.4
478.708	496.28
478.917	520.7
479.125	474.78
479.334	494.15
479.543	468.19
479.752	496.86
479.961	516.43
480.169	508.1
480.378	472.45
480.587	616.6
480.796	535.42
481.004	507.91
481.213	532.71
481.422	531.16
481.63	474.58
481.839	540.46
482.048	593.54
482.256	546.66
482.465	556.35
482.674	551.31
482.882	587.34
483.091	615.83
483.299	564.48
483.508	585.21
483.716	561.96
483.925	579.98
484.134	562.16
484.342	536.39
484.551	596.26
484.759	586.76
484.967	595.68
485.176	605.94
485.384	592.38
485.593	614.47
485.801	612.92
486.01	596.06
486.218	563.9
486.426	491.44
486.635	512.36
486.843	529.03
487.051	547.63
487.26	576.3
487.468	584.44
487.676	604.39
487.885	558.09
488.093	604.39
488.301	616.21
488.509	640.63
488.717	663.29
488.926	618.54
489.134	611.56
489.342	642.37
489.55	580.95
489.758	626.68
489.967	609.82
490.175	733.04
490.383	639.85
490.591	720.64
490.799	636.94
491.007	700.49
491.215	661.94
491.423	681.31
491.631	681.31
491.839	684.8
492.047	690.61
492.255	656.71
492.463	629
492.671	636.56
492.879	706.69
493.087	686.74
493.295	706.89
493.503	737.11
493.711	705.72
493.919	728.97
494.127	736.72
494.334	765.79
494.542	685.19
494.75	733.04
494.958	707.27
495.166	771.21
495.374	782.06
495.581	781.87
495.789	771.02
495.997	810.93
496.205	734.59
496.412	746.41
496.62	774.31
496.828	786.13
497.035	766.56
497.243	804.34
497.451	799.89
497.658	805.31
497.866	797.37
498.074	869.05
498.281	779.74
498.489	854.52
498.696	796.4
498.904	803.76
499.112	799.11
499.319	874.48
499.527	835.92
499.734	863.82
499.942	779.93
500.149	803.95
500.357	808.99
500.564	826.82
500.771	811.51
500.979	784.58
501.186	796.98
501.394	854.52
501.601	810.35
501.808	863.63
502.016	833.4
502.223	832.82
502.43	834.37
502.638	833.02
502.845	847.93
503.052	931.44
503.26	865.95
503.467	921.17
503.674	873.51
503.881	918.26
504.089	947.13
504.296	938.22
504.503	846.77
504.71	930.28
504.917	873.32
505.125	930.47
505.332	925.24
505.539	944.81
505.746	1031.99
505.953	980.85
506.16	983.36
506.367	1018.43
506.574	1037.61
506.781	1022.69
506.988	988.4
507.195	1025.02
507.402	992.08
507.609	1081.79
507.816	981.62
508.023	1031.99
508.23	1029.09
508.437	959.92
508.644	1072.29
508.851	1093.61
509.058	1074.43
509.265	1079.46
509.472	1094.19
509.679	1154.83
509.885	1063.38
510.092	1110.46
510.299	1096.32
510.506	1072.88
510.713	1110.46
510.92	1115.69
511.126	1156.57
511.333	1175.95
511.54	1172.46
511.746	1207.72
511.953	1220.7
512.16	1229.62
512.367	1176.92
512.573	1185.83
512.78	1161.03
512.987	1208.3
513.193	1231.17
513.4	1135.65
513.606	1244.15
513.813	1237.56
514.02	1223.22
514.226	1315.83
514.433	1262.75
514.639	1181.57
514.846	1243.95
515.052	1202.69
515.259	1263.33
515.465	1285.8
515.672	1282.7
515.878	1379.96
516.085	1301.11
516.291	1366.4
516.497	1272.82
516.704	1290.65
516.91	1256.94
517.117	1205.98
517.323	1167.62
517.529	1228.45
517.736	1189.7
517.942	1261.2
518.148	1279.41
518.354	1310.02
518.561	1267.2
518.767	1295.1
518.973	1356.71
519.179	1348
519.386	1344.51
519.592	1355.16
519.798	1336.18
520.004	1457.46
520.21	1424.33
520.417	1482.65
520.623	1507.64
520.829	1540.77
521.035	1537.09
521.241	1518.69
521.447	1550.66
521.653	1651.79
521.859	1581.27
522.065	1573.91
522.271	1668.26
522.477	1582.04
522.683	1673.88
522.889	1600.64
523.095	1615.76
523.301	1590.57
523.507	1596.77
523.713	1634.35
523.919	1595.61
524.125	1717.86
524.331	1674.65
524.537	1741.69
524.742	1745.57
524.948	1792.26
525.154	1776.95
525.36	1869.95
525.566	1758.74
525.772	1796.71
525.977	1718.83
526.183	1809.7
526.389	1818.41
526.595	1763.2
526.8	1709.53
527.006	1684.92
527.212	1629.9
527.417	1611.11
527.623	1646.95
527.829	1722.9
528.034	1770.95
528.24	1783.35
528.446	1802.72
528.651	1869.18
528.857	1895.72
529.062	1903.08
529.268	1888.16
529.473	1958.3
529.679	1897.66
529.884	2009.26
530.09	1960.24
530.295	1925.56
530.501	1971.67
530.706	1975.74
530.912	1938.73
531.117	1963.34
531.323	1981.55
531.528	2038.51
531.733	2033.28
531.939	1990.27
532.144	2006.93
532.35	2030.96
532.555	2038.9
532.76	2014.68
532.966	2014.68
533.171	1966.05
533.376	1961.21
533.581	1921.68
533.787	2002.28
533.992	2029.99
534.197	2037.93
534.402	2026.89
534.607	2071.25
534.813	2121.63
535.018	2038.32
535.223	2087.14
535.428	2099.15
535.633	2140.81
535.838	2158.44
536.043	2138.1
536.249	2221.8
536.454	2114.46
536.659	2141.2
536.864	2142.17
537.069	2131.9
537.274	2141
537.479	2142.17
537.684	2132.87
537.889	2089.08
538.094	2217.73
538.299	2155.53
538.504	2186.53
538.708	2215.02
538.913	2229.16
539.118	2169.48
539.323	2270.43
539.528	2125.31
539.733	2173.17
539.938	2177.43
540.142	2183.05
540.347	2115.04
540.552	2131.9
540.757	2118.53
540.962	2106.32
541.166	2069.7
541.371	2080.36
541.576	2109.62
541.781	2015.26
541.985	2224.32
542.19	2142.36
542.395	2261.9
542.599	2270.81
542.804	2199.71
543.008	2227.22
543.213	2196.03
543.418	2171.23
543.622	2218.89
543.827	2159.6
544.031	2263.06
544.236	2279.53
544.44	2237.1
544.645	2346.76
544.849	2249.89
545.054	2283.02
545.258	2318.67
545.463	2356.26
545.667	2261.32
545.872	2296.97
546.076	2285.35
546.281	2308.6
546.485	2259
546.689	2319.83
546.894	2314.8
547.098	2296.78
547.302	2278.18
547.507	2294.65
547.711	2327.39
547.915	2352.77
548.119	2224.12
548.324	2274.3
548.528	2309.95
548.732	2230.71
548.936	2331.65
549.141	2367.69
549.345	2314.8
549.549	2284.57
549.753	2333.39
549.957	2414.77
550.161	2360.71
550.366	2332.43
550.57	2265
550.774	2316.54
550.978	2331.26
551.182	2338.63
551.386	2332.43
551.59	2328.74
551.794	2317.12
551.998	2373.11
552.202	2309.56
552.406	2326.03
552.61	2354.51
552.814	2359.55
553.018	2373.69
553.222	2326.23
553.426	2298.33
553.63	2408.76
553.833	2347.54
554.037	2262.87
554.241	2353.54
554.445	2358.39
554.649	2300.46
554.853	2309.76
555.056	2384.93
555.26	2389.39
555.464	2349.48
555.668	2358.39
555.871	2409.54
556.075	2389.97
556.279	2309.37
556.483	2287.86
556.686	2335.72
556.89	2297.16
557.094	2313.83
557.297	2218.12
557.501	2339.01
557.704	2237.88
557.908	2294.84
558.112	2265.97
558.315	2296.39
558.519	2238.85
558.722	2224.9
558.926	2194.09
559.129	2178.98
559.333	2175.49
559.536	2169.87
559.74	2171.81
559.943	2147.4
560.147	2167.55
560.35	2186.73
560.553	2184.6
560.757	2116.01
560.96	2225.87
561.164	2189.05
561.367	2244.66
561.57	2214.24
561.774	2238.07
561.977	2179.37
562.18	2164.64
562.384	2241.36
562.587	2145.85
562.79	2169.29
562.993	2158.25
563.197	2196.8
563.4	2254.54
563.603	2204.75
563.806	2239.62
564.009	2134.22
564.212	2220.25
564.416	2069.51
564.619	2132.48
564.822	2076.49
565.025	2111.55
565.228	2157.67
565.431	2149.53
565.634	2052.46
565.837	2061.95
566.04	2041.03
566.243	2056.34
566.446	1983.49
566.649	2070.87
566.852	2019.14
567.055	2009.45
567.258	2022.43
567.461	2086.95
567.664	2109.42
567.867	2012.74
568.07	2007.32
568.273	2027.27
568.475	2036.57
568.678	2015.46
568.881	1979.42
569.084	1966.05
569.287	1852.32
569.489	1935.83
569.692	1951.13
569.895	1982.32
570.098	1891.65
570.3	1865.11
570.503	1853.1
570.706	1867.05
570.909	1861.81
571.111	1785.67
571.314	1808.92
571.516	1813.96
571.719	1863.95
571.922	1777.15
572.124	1795.75
572.327	1831.78
572.529	1802.53
572.732	1812.02
572.935	1779.67
573.137	1908.51
573.34	1794.78
573.542	1832.56
573.745	1832.95
573.947	1802.53
574.15	1786.64
574.352	1805.63
574.554	1827.52
574.757	1745.37
574.959	1743.24
575.162	1764.94
575.364	1729.29
575.566	1800.78
575.769	1670.2
575.971	1726.58
576.173	1638.04
576.376	1713.98
576.578	1759.71
576.78	1746.53
576.982	1638.62
577.185	1691.51
577.387	1645.2
577.589	1694.03
577.791	1694.42
577.993	1726.97
578.196	1697.71
578.398	1678.72
578.6	1717.67
578.802	1626.22
579.004	1644.82
579.206	1623.89
579.408	1687.64
579.61	1611.11
579.812	1695.97
580.014	1654.89
580.216	1632.03
580.418	1665.16
580.62	1670.97
580.822	1604.71
581.024	1636.68
581.226	1696.55
581.428	1647.14
581.63	1755.06
581.832	1681.24
582.034	1725.22
582.236	1702.17
582.438	1693.45
582.64	1721.15
582.841	1759.9
583.043	1791.87
583.245	1720.77
583.447	1731.62
583.649	1676.79
583.85	1720.77
584.052	1744.21
584.254	1650.82
584.456	1719.99
584.657	1654.31
584.859	1704.88
585.061	1647.53
585.262	1654.5
585.464	1598.32
585.666	1707.78
585.867	1640.17
586.069	1686.28
586.27	1662.25
586.472	1645.2
586.674	1606.84
586.875	1626.6
587.077	1591.73
587.278	1612.46
587.48	1653.54
587.681	1698.87
587.883	1638.81
588.084	1551.62
588.285	1619.82
588.487	1565.38
588.688	1565.96
588.89	1475.68
589.091	1475.29
589.292	1461.14
589.494	1426.46
589.695	1372.41
589.896	1346.25
590.098	1328.23
590.299	1373.38
590.5	1397.4
590.702	1410.77
590.903	1429.18
591.104	1492.34
591.305	1456.69
591.507	1551.62
591.708	1505.32
591.909	1462.31
592.11	1532.06
592.311	1506.68
592.512	1471.03
592.714	1431.89
592.915	1441.77
593.116	1481.49
593.317	1448.55
593.518	1495.63
593.719	1487.88
593.92	1501.64
594.121	1509.58
594.322	1477.42
594.523	1454.94
594.724	1409.61
594.925	1432.28
595.126	1448.94
595.327	1473.74
595.528	1468.31
595.729	1451.46
595.929	1470.64
596.13	1473.54
596.331	1466.57
596.532	1502.22
596.733	1534.77
596.934	1509.19
597.135	1479.36
597.335	1538.26
597.536	1451.26
597.737	1515.98
597.938	1477.61
598.138	1497.18
598.339	1471.41
598.54	1484.98
598.74	1446.23
598.941	1480.13
599.142	1525.28
599.342	1492.53
599.543	1440.61
599.744	1472.77
599.944	1464.83
600.145	1466.96
600.345	1465.99
600.546	1538.26
600.746	1531.09
600.947	1525.08
601.147	1485.36
601.348	1503.58
601.548	1461.34
601.749	1465.21
601.949	1442.54
602.15	1411.16
602.35	1425.5
602.551	1491.76
602.751	1421.43
602.951	1419.88
603.152	1378.22
603.352	1467.34
603.552	1452.43
603.753	1467.34
603.953	1454.75
604.153	1506.87
604.354	1452.62
604.554	1434.6
604.754	1473.16
604.954	1413.87
605.155	1480.13
605.355	1428.6
605.555	1508.03
605.755	1539.61
605.955	1458.04
606.155	1471.41
606.356	1460.37
606.556	1475.09
606.756	1468.51
606.956	1406.31
607.156	1525.08
607.356	1442.16
607.556	1476.84
607.756	1442.54
607.956	1509.39
608.156	1450.88
608.356	1415.03
608.556	1473.93
608.756	1443.13
608.956	1439.25
609.156	1471.41
609.356	1393.91
609.556	1398.37
609.755	1427.63
609.955	1388.49
610.155	1409.61
610.355	1423.36
610.555	1380.16
610.755	1365.05
610.954	1323
611.154	1404.96
611.354	1425.88
611.554	1330.37
611.753	1390.04
611.953	1299.75
612.153	1385.78
612.352	1376.28
612.552	1307.89
612.752	1300.92
612.951	1326.3
613.151	1328.43
613.351	1318.55
613.55	1325.52
613.75	1334.24
613.949	1295.3
614.149	1332.69
614.348	1333.85
614.548	1278.05
614.747	1255.58
614.947	1320.48
615.146	1268.37
615.346	1329.59
615.545	1295.49
615.745	1308.67
615.944	1316.42
616.144	1289.87
616.343	1304.21
616.542	1274.57
616.742	1275.15
616.941	1259.07
617.14	1207.14
617.34	1290.45
617.539	1248.99
617.738	1246.47
617.938	1321.45
618.137	1235.43
618.336	1209.85
618.535	1278.25
618.734	1256.35
