Data from gum_young_FLMT105791__61__17-39-19-043.txt Node

Date: Mon Mar 20 17:39:19 GMT 2023
User: antho
Spectrometer: FLMT10579
Trigger mode: 0
Integration Time (sec): 1.000000E-1
Scans to average: 10
Electric dark correction enabled: true
Nonlinearity correction enabled: false
Boxcar width: 0
XAxis mode: Wavelengths
Number of Pixels in Spectrum: 3648
>>>>>Begin Spectral Data<<<<<
345.248	-157.69
345.464	-157.69
345.681	-157.69
345.898	-147.04
346.114	-135.61
346.331	-33.7
346.548	23.46
346.764	-12.96
346.981	-6.18
347.197	-31.56
347.414	8.54
347.631	-10.06
347.847	65.7
348.064	-7.35
348.28	30.63
348.497	-17.23
348.713	-9.28
348.93	32.95
349.146	12.8
349.363	-9.48
349.579	10.09
349.796	2.73
350.012	-4.05
350.229	32.37
350.445	12.42
350.661	11.45
350.878	-1.15
351.094	26.56
351.311	10.28
351.527	28.3
351.743	-5.6
351.96	19.97
352.176	35.28
352.392	50.97
352.609	44.77
352.825	28.5
353.041	12.61
353.257	-12.58
353.474	21.52
353.69	12.22
353.906	48.45
354.122	-22.85
354.339	33.15
354.555	11.45
354.771	5.25
354.987	67.05
355.203	73.83
355.42	-0.95
355.636	-2.7
355.852	1.57
356.068	17.26
356.284	-40.09
356.5	49.81
356.716	34.7
356.932	20.75
357.148	51.36
357.364	17.26
357.58	32.18
357.796	49.42
358.012	71.12
358.228	31.98
358.444	-44.35
358.66	65.12
358.876	17.45
359.092	-13.74
359.308	12.42
359.524	24.43
359.74	-7.35
359.956	-19.94
360.172	8.35
360.388	62.21
360.604	-9.28
360.819	90.5
361.035	16.29
361.251	19.78
361.467	-0.95
361.683	35.86
361.898	28.88
362.114	38.57
362.33	26.37
362.546	54.46
362.762	-2.5
362.977	19
363.193	-35.05
363.409	41.09
363.624	-9.28
363.84	9.51
364.056	-14.13
364.271	26.95
364.487	36.44
364.703	-14.32
364.918	-22.07
365.134	6.22
365.35	-3.47
365.565	102.12
365.781	33.73
365.996	34.31
366.212	83.13
366.427	22.49
366.643	-20.13
366.858	19.97
367.074	-13.93
367.289	60.66
367.505	102.51
367.72	-16.45
367.936	-7.15
368.151	62.4
368.367	29.27
368.582	46.32
368.798	-8.51
369.013	70.93
369.228	33.34
369.444	10.09
369.659	81.39
369.874	56.78
370.09	53.68
370.305	-25.17
370.52	29.27
370.736	46.13
370.951	15.32
371.166	48.65
371.381	72.87
371.597	57.95
371.812	0.98
372.027	-4.25
372.242	21.13
372.458	85.65
372.673	18.42
372.888	-17.03
373.103	53.3
373.318	97.08
373.533	57.17
373.749	55.43
373.964	-10.06
374.179	58.33
374.394	24.62
374.609	59.69
374.824	-2.7
375.039	51.36
375.254	-25.36
375.469	94.18
375.684	55.82
375.899	53.3
376.114	28.5
376.329	18.42
376.544	54.07
376.759	38.96
376.974	-4.05
377.189	11.64
377.404	3.12
377.619	34.12
377.834	-19.75
378.049	-5.6
378.264	-6.18
378.478	15.52
378.693	26.75
378.908	40.12
379.123	30.24
379.338	65.7
379.553	45.74
379.767	22.68
379.982	65.89
380.197	42.45
380.412	41.09
380.626	62.6
380.841	96.5
381.056	55.82
381.271	86.62
381.485	8.73
381.7	-1.34
381.915	30.63
382.129	22.49
382.344	34.5
382.559	20.75
382.773	71.7
382.988	-28.85
383.202	27.33
383.417	-11.22
383.632	94.95
383.846	24.62
384.061	28.3
384.275	9.7
384.49	34.12
384.704	65.12
384.919	47.29
385.133	17.45
385.348	39.15
385.562	18.62
385.777	68.02
385.991	15.32
386.206	21.33
386.42	41.48
386.634	86.81
386.849	50.39
387.063	35.28
387.277	11.64
387.492	43.22
387.706	-3.08
387.92	-0.95
388.135	75.38
388.349	38.77
388.563	28.88
388.778	42.45
388.992	70.73
389.206	45.74
389.42	100.57
389.635	28.88
389.849	80.81
390.063	70.73
390.277	48.26
390.491	100.38
390.706	73.64
390.92	46.71
391.134	48.07
391.348	46.9
391.562	1.37
391.776	42.83
391.99	2.53
392.205	74.03
392.419	10.28
392.633	47.29
392.847	83.91
393.061	-8.31
393.275	65.31
393.489	42.06
393.703	31.4
393.917	63.57
394.131	12.61
394.345	54.85
394.559	72.48
394.773	12.61
394.986	42.83
395.2	52.72
395.414	85.26
395.628	33.15
395.842	43.22
396.056	34.31
396.27	-7.54
396.484	61.24
396.697	39.15
396.911	79.84
397.125	33.92
397.339	91.85
397.553	59.3
397.766	106
397.98	67.05
398.194	102.9
398.408	20.17
398.621	76.35
398.835	65.7
399.049	70.54
399.262	120.72
399.476	87.4
399.69	93.98
399.903	147.85
400.117	51.17
400.331	83.52
400.544	62.02
400.758	160.83
400.971	93.98
401.185	124.79
401.398	60.85
401.612	97.28
401.826	81.78
402.039	73.06
402.253	71.9
402.466	104.83
402.68	69.96
402.893	85.65
403.106	56.2
403.32	88.56
403.533	87.78
403.747	85.85
403.96	91.08
404.174	88.56
404.387	57.75
404.6	86.23
404.814	86.43
405.027	81.2
405.24	67.83
405.454	75
405.667	108.32
405.88	41.67
406.094	74.61
406.307	86.43
406.52	96.31
406.733	40.7
406.947	63.95
407.16	148.81
407.373	117.62
407.586	70.93
407.799	69.38
408.012	127.31
408.226	93.01
408.439	129.83
408.652	56.98
408.865	109.87
409.078	125.56
409.291	103.86
409.504	65.5
409.717	96.89
409.93	87.59
410.143	83.33
410.357	69.57
410.57	65.12
410.783	69.57
410.996	86.04
411.209	98.25
411.421	145.71
411.634	92.82
411.847	77.9
412.06	82.16
412.273	124.98
412.486	93.6
412.699	187.76
412.912	117.23
413.125	144.75
413.338	110.06
413.55	124.79
413.763	107.93
413.976	118.78
414.189	104.25
414.402	103.67
414.615	141.26
414.827	101.73
415.04	105.8
415.253	131.57
415.466	139.9
415.678	165.09
415.891	108.51
416.104	110.45
416.316	118.59
416.529	92.24
416.742	126.92
416.954	161.8
417.167	106.19
417.38	100.76
417.592	135.06
417.805	81.2
418.017	56.98
418.23	134.48
418.442	102.12
418.655	113.94
418.868	102.9
419.08	151.72
419.293	150.95
419.505	136.8
419.718	136.8
419.93	140.1
420.142	124.4
420.355	177.29
420.567	166.64
420.78	128.08
420.992	119.95
421.205	194.34
421.417	90.69
421.629	120.91
421.842	85.07
422.054	104.64
422.266	143.58
422.479	162.38
422.691	107.93
422.903	155.79
423.115	120.72
423.328	111.03
423.54	136.03
423.752	133.12
423.964	120.91
424.177	143
424.389	104.25
424.601	224.57
424.813	134.28
425.025	151.14
425.238	164.7
425.45	125.56
425.662	118.4
425.874	399.91
426.086	145.33
426.298	150.75
426.51	167.99
426.722	140.48
426.934	125.56
427.146	161.99
427.358	104.25
427.57	127.11
427.782	136.41
427.994	159.08
428.206	116.07
428.418	105.22
428.63	150.75
428.842	162.18
429.054	133.31
429.266	183.69
429.478	122.08
429.69	140.87
429.902	95.73
430.114	178.65
430.325	151.14
430.537	105.22
430.749	104.83
430.961	69.77
431.173	134.48
431.384	140.68
431.596	66.47
431.808	112.78
432.02	158.5
432.231	171.87
432.443	174.97
432.655	174.39
432.867	127.5
433.078	172.06
433.29	215.46
433.502	193.18
433.713	201.51
433.925	155.21
434.136	202.68
434.348	129.44
434.56	92.82
434.771	231.54
434.983	117.81
435.194	149.98
435.406	163.15
435.617	193.96
435.829	232.13
436.04	201.13
436.252	186.01
436.463	234.64
436.675	197.44
436.886	197.06
437.098	170.51
437.309	253.24
437.521	185.24
437.732	192.6
437.943	195.12
438.155	198.8
438.366	151.33
438.578	241.43
438.789	184.46
439	197.83
439.211	204.42
439.423	184.85
439.634	195.12
439.845	219.34
440.057	180.59
440.268	184.08
440.479	184.27
440.69	198.22
440.902	186.4
441.113	190.28
441.324	191.83
441.535	235.61
441.746	260.8
441.957	185.43
442.168	182.91
442.38	208.29
442.591	243.94
442.802	169.93
443.013	174.78
443.224	210.43
443.435	219.53
443.646	214.88
443.857	214.69
444.068	183.11
444.279	200.93
444.49	307.3
444.701	217.98
444.912	316.99
445.123	256.15
445.334	229.41
445.545	238.91
445.756	207.71
445.967	187.56
446.178	227.28
446.388	252.47
446.599	249.95
446.81	259.83
447.021	198.8
447.232	273.39
447.443	288.7
447.653	211.2
447.864	259.25
448.075	245.11
448.286	279.4
448.496	253.24
448.707	281.53
448.918	235.03
449.129	300.13
449.339	235.81
449.55	263.9
449.761	271.07
449.971	286.37
450.182	255.76
450.393	283.47
450.603	251.31
450.814	286.18
451.024	261.96
451.235	271.46
451.446	327.26
451.656	301.1
451.867	251.89
452.077	284.82
452.288	310.98
452.498	311.56
452.709	251.11
452.919	285.02
453.13	234.84
453.34	278.43
453.55	227.48
453.761	307.88
453.971	283.08
454.182	307.69
454.392	308.27
454.602	375.11
454.813	277.66
455.023	303.62
455.233	264.67
455.444	285.21
455.654	242.59
455.864	290.44
456.075	266.03
456.285	279.98
456.495	265.45
456.705	315.82
456.916	362.32
457.126	348.18
457.336	329.19
457.546	252.47
457.756	298.58
457.967	335.2
458.177	293.74
458.387	299.94
458.597	288.12
458.807	286.96
459.017	295.09
459.227	281.34
459.437	250.73
459.647	329.58
459.857	312.53
460.068	281.34
460.278	327.45
460.488	320.09
460.698	341.01
460.908	319.7
461.117	266.22
461.327	245.69
461.537	298
461.747	338.69
461.957	312.72
462.167	409.6
462.377	360.19
462.587	319.31
462.797	352.25
463.007	317.37
463.216	350.31
463.426	372.4
463.636	368.52
463.846	284.44
464.056	327.84
464.265	362.52
464.475	298
464.685	343.92
464.895	365.42
465.104	318.15
465.314	328.42
465.524	306.72
465.733	308.27
465.943	405.53
466.153	397
466.362	364.45
466.572	328.42
466.782	331.13
466.991	356.12
467.201	395.45
467.41	286.18
467.62	384.02
467.829	333.84
468.039	362.9
468.249	326.87
468.458	370.65
468.668	384.6
468.877	379.76
469.086	380.73
469.296	406.89
469.505	342.56
469.715	428
469.924	380.73
470.134	404.17
470.343	391.39
470.552	374.14
470.762	357.09
470.971	368.72
471.18	379.95
471.39	372.98
471.599	322.8
471.808	396.62
472.018	388.48
472.227	415.22
472.436	451.25
472.645	386.54
472.855	373.56
473.064	424.52
473.273	395.45
473.482	423.16
473.691	460.94
473.901	446.8
474.11	396.23
474.319	503.57
474.528	444.08
474.737	470.63
474.946	467.72
475.155	439.24
475.364	487.87
475.573	447.96
475.783	454.35
475.992	484.19
476.201	479.73
476.41	446.22
476.619	414.83
476.828	453.77
477.037	390.8
477.245	432.65
477.454	505.31
477.663	454.74
477.872	460.55
478.081	495.43
478.29	451.64
478.499	528.56
478.708	473.15
478.917	563.24
479.125	470.24
479.334	506.28
479.543	477.02
479.752	511.12
479.961	490.97
480.169	535.34
480.378	500.47
480.587	600.25
480.796	562.46
481.004	533.79
481.213	541.93
481.422	527.2
481.63	506.67
481.839	567.11
482.048	587.65
482.256	577.58
482.465	571.76
482.674	597.53
482.882	580.68
483.091	615.36
483.299	603.73
483.508	592.3
483.716	562.66
483.925	589.78
484.134	579.71
484.342	559.95
484.551	623.49
484.759	615.74
484.967	625.04
485.176	622.53
485.384	624.46
485.593	645.78
485.801	609.93
486.01	589.98
486.218	550.84
486.426	533.79
486.635	519.45
486.843	543.86
487.051	570.6
487.26	552.97
487.468	573.7
487.676	582.03
487.885	566.34
488.093	599.66
488.301	617.1
488.509	629.11
488.717	657.98
488.926	632.21
489.134	625.24
489.342	626.4
489.55	623.69
489.758	635.89
489.967	648.29
490.175	742.46
490.383	644.42
490.591	721.34
490.799	632.99
491.007	740.52
491.215	717.85
491.423	701.96
491.631	694.99
491.839	678.52
492.047	712.04
492.255	637.83
492.463	641.71
492.671	682.2
492.879	689.37
493.087	708.94
493.295	698.67
493.503	763.19
493.711	718.62
493.919	771.91
494.127	740.71
494.334	776.94
494.542	713.78
494.75	745.94
494.958	729.86
495.166	765.71
495.374	762.22
495.581	798.45
495.789	765.12
495.997	830.61
496.205	782.37
496.412	757.57
496.62	753.89
496.828	777.72
497.035	785.66
497.243	799.22
497.451	800.39
497.658	795.15
497.866	776.17
498.074	829.25
498.281	781.4
498.489	865.87
498.696	818.99
498.904	788.18
499.112	806.2
499.319	834.68
499.527	802.52
499.734	853.86
499.942	787.6
500.149	817.05
500.357	834.29
500.564	823.44
500.771	815.69
500.979	812.59
501.186	796.9
501.394	833.32
501.601	822.67
501.808	853.09
502.016	853.28
502.223	829.64
502.43	830.03
502.638	831.97
502.845	847.85
503.052	918.77
503.26	871.1
503.467	914.5
503.674	884.86
503.881	892.42
504.089	958.48
504.296	930.2
504.503	867.62
504.71	868.39
504.917	859.09
505.125	907.92
505.332	935.82
505.539	939.5
505.746	980.76
505.953	966.43
506.16	969.72
506.367	1005.76
506.574	1031.91
506.781	1012.73
506.988	976.11
507.195	991.81
507.402	1006.15
507.609	1041.79
507.816	975.53
508.023	977.47
508.23	1000.14
508.437	976.7
508.644	989.29
508.851	1068.92
509.058	1063.88
509.265	1050.9
509.472	1058.65
509.679	1149.91
509.885	1089.07
510.092	1094.69
510.299	1082.87
510.506	1097.59
510.713	1094.11
510.92	1108.25
511.126	1094.11
511.333	1168.12
511.54	1184.97
511.746	1192.72
511.953	1202.22
512.16	1189.62
512.367	1181.68
512.573	1161.92
512.78	1221.01
512.987	1186.33
513.193	1167.54
513.4	1128.01
513.606	1178.19
513.813	1211.13
514.02	1208.61
514.226	1271.19
514.433	1244.26
514.639	1193.69
514.846	1263.83
515.052	1216.55
515.259	1269.84
515.465	1287.66
515.672	1273.9
515.878	1337.84
516.085	1285.53
516.291	1347.33
516.497	1280.1
516.704	1305.68
516.91	1247.36
517.117	1236.32
517.323	1149.13
517.529	1256.85
517.736	1209.77
517.942	1249.1
518.148	1258.79
518.354	1323.7
518.561	1310.33
518.767	1294.83
518.973	1326.41
519.179	1379.5
519.386	1370.39
519.592	1384.15
519.798	1374.85
520.004	1498.07
520.21	1471.14
520.417	1489.54
520.623	1528.68
520.829	1551.54
521.035	1578.86
521.241	1541.28
521.447	1582.74
521.653	1685.42
521.859	1549.41
522.065	1618.97
522.271	1706.93
522.477	1661.4
522.683	1680
522.889	1682.71
523.095	1667.99
523.301	1646.67
523.507	1646.29
523.713	1696.47
523.919	1629.62
524.125	1742.77
524.331	1721.46
524.537	1830.15
524.742	1841
524.948	1825.31
525.154	1821.05
525.36	1911.91
525.566	1834.41
525.772	1889.05
525.977	1819.69
526.183	1843.13
526.389	1883.05
526.595	1784.82
526.8	1782.88
527.006	1731.15
527.212	1719.33
527.417	1703.83
527.623	1706.35
527.829	1787.33
528.034	1836.55
528.24	1847.2
528.446	1865.22
528.651	1933.03
528.857	1942.91
529.062	1970.81
529.268	1978.56
529.473	2015.57
529.679	1992.13
529.884	2067.49
530.09	2041.72
530.295	2074.27
530.501	2077.96
530.706	2066.52
530.912	2019.64
531.117	2057.42
531.323	2088.61
531.528	2124.07
531.733	2152.74
531.939	2083.77
532.144	2129.88
532.35	2117.29
532.555	2121.55
532.76	2113.41
532.966	2114.77
533.171	2090.35
533.376	2046.96
533.581	2023.51
533.787	2078.15
533.992	2140.15
534.197	2124.84
534.402	2131.62
534.607	2142.47
534.813	2213.97
535.018	2162.82
535.223	2179.09
535.428	2236.44
535.633	2263.95
535.838	2242.64
536.043	2258.33
536.249	2339.9
536.454	2264.15
536.659	2305.03
536.864	2256.4
537.069	2258.33
537.274	2233.53
537.479	2286.62
537.684	2282.75
537.889	2188.58
538.094	2317.23
538.299	2254.85
538.504	2301.35
538.708	2319.17
538.913	2300.38
539.118	2297.66
539.323	2284.49
539.528	2309.48
539.733	2303.28
539.938	2317.81
540.142	2296.89
540.347	2277.9
540.552	2230.05
540.757	2206.99
540.962	2273.83
541.166	2209.12
541.371	2228.11
541.576	2268.6
541.781	2198.66
541.985	2310.45
542.19	2272.09
542.395	2360.83
542.599	2360.44
542.804	2355.01
543.008	2360.05
543.213	2323.63
543.418	2300.96
543.622	2380.01
543.827	2343.97
544.031	2388.53
544.236	2400.93
544.44	2370.51
544.645	2437.74
544.849	2343.97
545.054	2421.86
545.258	2456.92
545.463	2483.86
545.667	2396.48
545.872	2423.79
546.076	2427.67
546.281	2408.49
546.485	2392.79
546.689	2413.91
546.894	2459.06
547.098	2470.49
547.302	2389.89
547.507	2457.31
547.711	2443.75
547.915	2510.59
548.119	2403.26
548.324	2407.52
548.528	2497.61
548.732	2430.58
548.936	2489.28
549.141	2499.94
549.345	2442.59
549.549	2475.72
549.753	2530.35
549.957	2521.25
550.161	2539.27
550.366	2500.13
550.57	2450.34
550.774	2514.66
550.978	2479.4
551.182	2506.72
551.386	2447.82
551.59	2454.79
551.794	2448.4
551.998	2486.96
552.202	2487.92
552.406	2440.84
552.61	2515.24
552.814	2566.39
553.018	2549.73
553.222	2474.56
553.426	2484.44
553.63	2541.4
553.833	2494.51
554.037	2460.41
554.241	2529.19
554.445	2494.12
554.649	2508.07
554.853	2471.26
555.056	2534.81
555.26	2571.82
555.464	2530.35
555.668	2496.26
555.871	2533.45
556.075	2546.63
556.279	2482.31
556.483	2464.29
556.686	2455.57
556.89	2435.03
557.094	2518.92
557.297	2389.31
557.501	2464.67
557.704	2408.88
557.908	2443.17
558.112	2404.03
558.315	2475.33
558.519	2418.18
558.722	2385.43
558.926	2346.1
559.129	2291.46
559.333	2337.38
559.536	2325.18
559.74	2315.68
559.943	2296.31
560.147	2283.52
560.35	2330.99
560.553	2319.36
560.757	2304.25
560.96	2414.11
561.164	2380.2
561.367	2424.38
561.57	2380.59
561.774	2332.15
561.977	2343.97
562.18	2290.69
562.384	2398.41
562.587	2324.21
562.79	2271.12
562.993	2268.8
563.197	2324.79
563.4	2380.01
563.603	2332.54
563.806	2382.91
564.009	2295.73
564.212	2313.75
564.416	2241.09
564.619	2287.78
564.822	2207.18
565.025	2309.48
565.228	2266.86
565.431	2240.51
565.634	2153.13
565.837	2191.49
566.04	2184.32
566.243	2180.25
566.446	2075.82
566.649	2210.87
566.852	2116.7
567.055	2148.87
567.258	2154.87
567.461	2218.81
567.664	2188.97
567.867	2115.15
568.07	2140.15
568.273	2134.53
568.475	2157.97
568.678	2085.9
568.881	2067.49
569.084	2058.39
569.287	1972.17
569.489	2038.62
569.692	2086.87
569.895	2049.67
570.098	1994.45
570.3	2002.2
570.503	1931.87
570.706	1923.34
570.909	1973.14
571.111	1892.54
571.314	1893.51
571.516	1904.55
571.719	1932.06
571.922	1884.01
572.124	1863.48
572.327	1939.04
572.529	1849.72
572.732	1878.59
572.935	1865.03
573.137	1988.44
573.34	1854.76
573.542	1935.74
573.745	1892.54
573.947	1890.21
574.15	1857.66
574.352	1833.83
574.554	1924.12
574.757	1821.24
574.959	1785.78
575.162	1813.1
575.364	1803.22
575.566	1856.89
575.769	1782.68
575.971	1805.16
576.173	1682.71
576.376	1759.63
576.578	1820.27
576.78	1833.45
576.982	1712.35
577.185	1749.75
577.387	1731.92
577.589	1767.57
577.791	1759.24
577.993	1822.4
578.196	1747.62
578.398	1732.12
578.6	1766.6
578.802	1692.59
579.004	1695.3
579.206	1662.56
579.408	1724.56
579.61	1698.4
579.812	1759.63
580.014	1703.05
580.216	1727.08
580.418	1733.86
580.62	1709.25
580.822	1679.03
581.024	1739.29
581.226	1748.58
581.428	1757.11
581.63	1814.46
581.832	1672.64
582.034	1786.75
582.236	1743.74
582.438	1768.54
582.64	1787.53
582.841	1814.07
583.043	1846.23
583.245	1754.01
583.447	1784.23
583.649	1748.78
583.85	1738.32
584.052	1811.36
584.254	1697.63
584.456	1784.04
584.657	1702.86
584.859	1753.04
585.061	1702.86
585.262	1702.09
585.464	1664.5
585.666	1737.93
585.867	1672.05
586.069	1755.17
586.27	1654.81
586.472	1696.47
586.674	1653.07
586.875	1663.53
587.077	1667.21
587.278	1667.79
587.48	1629.82
587.681	1727.85
587.883	1671.09
588.084	1592.62
588.285	1613.16
588.487	1612.96
588.688	1630.4
588.89	1546.31
589.091	1481.6
589.292	1500.98
589.494	1457
589.695	1427.35
589.896	1377.17
590.098	1375.62
590.299	1390.73
590.5	1385.12
590.702	1440.72
590.903	1470.75
591.104	1530.23
591.305	1518.22
591.507	1536.82
591.708	1530.81
591.909	1505.63
592.11	1530.62
592.311	1526.74
592.512	1491.68
592.714	1459.13
592.915	1463.78
593.116	1452.73
593.317	1492.26
593.518	1509.11
593.719	1506.79
593.92	1537.59
594.121	1543.6
594.322	1479.86
594.523	1475.4
594.724	1434.91
594.925	1484.89
595.126	1464.16
595.327	1466.68
595.528	1530.23
595.729	1496.33
595.929	1488.38
596.13	1459.32
596.331	1493.81
596.532	1452.54
596.733	1539.92
596.934	1536.63
597.135	1536.43
597.335	1526.36
597.536	1452.73
597.737	1492.64
597.938	1441.3
598.138	1498.84
598.339	1460.68
598.54	1514.54
598.74	1474.43
598.941	1489.54
599.142	1558.52
599.342	1499.04
599.543	1491.29
599.744	1461.06
599.944	1489.35
600.145	1506.79
600.345	1469.59
600.546	1554.84
600.746	1523.26
600.947	1539.53
601.147	1473.85
601.348	1537.98
601.548	1460.87
601.749	1477.73
601.949	1417.86
602.15	1459.51
602.35	1462.03
602.551	1505.63
602.751	1487.99
602.951	1460.29
603.152	1408.75
603.352	1474.43
603.552	1466.68
603.753	1509.69
603.953	1529.07
604.153	1481.02
604.354	1486.25
604.554	1470.75
604.754	1471.91
604.954	1445.56
605.155	1496.91
605.355	1476.76
605.555	1491.29
605.755	1510.66
605.955	1492.84
606.155	1489.35
606.356	1454.09
606.556	1467.46
606.756	1473.66
606.956	1410.88
607.156	1514.34
607.356	1442.27
607.556	1464.94
607.756	1469.98
607.956	1475.21
608.156	1447.7
608.356	1396.35
608.556	1495.94
608.756	1436.46
608.956	1379.11
609.156	1424.83
609.356	1401
609.556	1389.96
609.755	1413.21
609.955	1400.23
610.155	1396.55
610.355	1374.07
610.555	1368.84
610.755	1378.14
610.954	1315.95
611.154	1356.25
611.354	1380.27
611.554	1330.09
611.753	1372.72
611.953	1341.91
612.153	1375.23
612.352	1376.98
612.552	1355.86
612.752	1275.07
612.951	1334.16
613.151	1321.95
613.351	1283.79
613.55	1312.46
613.75	1343.07
613.949	1322.73
614.149	1349.47
614.348	1287.08
614.548	1283.2
614.747	1236.7
614.947	1251.82
615.146	1230.7
615.346	1349.47
615.545	1346.17
615.745	1290.37
615.944	1277.2
616.144	1262.86
616.343	1254.92
616.542	1233.8
616.742	1237.09
616.941	1240.19
617.14	1139.25
617.34	1240.39
617.539	1209.77
617.738	1234.57
617.938	1295.6
