Data from gum_young_FLMT105791__21__17-38-20-045.txt Node

Date: Mon Mar 20 17:38:20 GMT 2023
User: antho
Spectrometer: FLMT10579
Trigger mode: 0
Integration Time (sec): 1.000000E-1
Scans to average: 10
Electric dark correction enabled: true
Nonlinearity correction enabled: false
Boxcar width: 0
XAxis mode: Wavelengths
Number of Pixels in Spectrum: 3648
>>>>>Begin Spectral Data<<<<<
345.248	-146.99
345.464	-146.99
345.681	-146.99
345.898	-165.98
346.114	-156.29
346.331	-48.95
346.548	18.47
346.764	5.68
346.981	0.26
347.197	-19.5
347.414	6.65
347.631	3.36
347.847	70.2
348.064	-7.1
348.28	18.28
348.497	-31.71
348.713	-15.63
348.93	14.79
349.146	10.14
349.363	-12.92
349.579	6.46
349.796	-2.65
350.012	-33.26
350.229	37.46
350.445	8.4
350.661	-9.24
350.878	-23.19
351.094	17.5
351.311	8.2
351.527	33
351.743	-49.92
351.96	29.9
352.176	37.85
352.392	8.98
352.609	11.88
352.825	-3.23
353.041	-17.18
353.257	-15.44
353.474	-18.92
353.69	-8.46
353.906	15.56
354.122	-17.76
354.339	36.68
354.555	-10.4
354.771	-3.62
354.987	50.83
355.203	52.57
355.42	-0.71
355.636	-1.68
355.852	-19.5
356.068	2.39
356.284	-16.6
356.5	51.6
356.716	-3.81
356.932	-4.78
357.148	26.41
357.364	-0.13
357.58	16.34
357.796	64.19
358.012	39.4
358.228	15.76
358.444	-51.67
358.66	34.94
358.876	14.4
359.092	-2.45
359.308	-8.07
359.524	-7.49
359.74	6.85
359.956	-2.45
360.172	-10.98
360.388	14.98
360.604	-27.84
360.819	60.51
361.035	19.25
361.251	29.71
361.467	-2.65
361.683	30.48
361.898	1.61
362.114	30.87
362.33	30.87
362.546	40.17
362.762	4.33
362.977	-6.72
363.193	-16.21
363.409	29.32
363.624	-14.08
363.84	-42.17
364.056	-3.04
364.271	14.98
364.487	29.51
364.703	-2.07
364.918	-6.14
365.134	10.91
365.35	-14.08
365.565	91.71
365.781	25.64
365.996	18.08
366.212	93.06
366.427	48.89
366.643	-5.94
366.858	0.65
367.074	-19.31
367.289	65.36
367.505	118.44
367.72	-34.81
367.936	-0.13
368.151	34.36
368.367	35.71
368.582	32.23
368.798	5.68
369.013	49.28
369.228	26.03
369.444	9.56
369.659	57.22
369.874	37.26
370.09	37.26
370.305	-37.72
370.52	-6.52
370.736	51.21
370.951	9.56
371.166	39.2
371.381	68.26
371.597	30.1
371.812	-45.66
372.027	-25.51
372.242	-10.79
372.458	76.01
372.673	22.54
372.888	17.89
373.103	48.89
373.318	86.67
373.533	43.85
373.749	26.41
373.964	-34.81
374.179	55.86
374.394	-0.52
374.609	50.83
374.824	-12.14
375.039	41.53
375.254	4.33
375.469	66.33
375.684	13.24
375.899	45.01
376.114	31.06
376.329	20.21
376.544	43.08
376.759	35.33
376.974	14.98
377.189	5.1
377.404	-8.46
377.619	23.7
377.834	-22.41
378.049	-43.92
378.264	3.55
378.478	22.54
378.693	-1.29
378.908	7.43
379.123	-16.4
379.338	86.86
379.553	20.02
379.767	-11.75
379.982	55.09
380.197	37.85
380.412	13.63
380.626	11.69
380.841	96.16
381.056	26.03
381.271	66.71
381.485	16.73
381.7	-25.32
381.915	38.04
382.129	-0.32
382.344	32.81
382.559	7.43
382.773	74.66
382.988	-11.56
383.202	56.25
383.417	1.23
383.632	97.71
383.846	11.11
384.061	11.11
384.275	32.81
384.49	34.16
384.704	31.45
384.919	36.49
385.133	9.17
385.348	10.53
385.562	-10.2
385.777	51.99
385.991	13.24
386.206	23.31
386.42	13.43
386.634	58.58
386.849	61.29
387.063	28.35
387.277	-22.41
387.492	5.68
387.706	0.65
387.92	2
388.135	47.53
388.349	31.06
388.563	27.38
388.778	40.17
388.992	42.88
389.206	51.41
389.42	87.06
389.635	15.76
389.849	47.92
390.063	53.93
390.277	23.51
390.491	71.17
390.706	58.58
390.92	44.82
391.134	36.68
391.348	56.64
391.562	7.43
391.776	27
391.99	-2.65
392.205	49.47
392.419	-2.84
392.633	31.06
392.847	80.66
393.061	7.62
393.275	73.11
393.489	20.99
393.703	51.41
393.917	65.16
394.131	-6.52
394.345	35.33
394.559	65.16
394.773	28.16
394.986	24.09
395.2	23.7
395.414	35.71
395.628	27.58
395.842	42.69
396.056	37.26
396.27	-15.24
396.484	50.05
396.697	15.95
396.911	66.13
397.125	58.96
397.339	75.24
397.553	62.26
397.766	88.8
397.98	64.19
398.194	87.25
398.408	21.38
398.621	62.64
398.835	45.01
399.049	45.6
399.262	76.01
399.476	82.02
399.69	43.46
399.903	119.03
400.117	59.54
400.331	90.74
400.544	24.86
400.758	129.88
400.971	46.37
401.185	81.05
401.398	45.79
401.612	93.84
401.826	70.98
402.039	86.48
402.253	24.86
402.466	55.86
402.68	52.18
402.893	68.84
403.106	48.5
403.32	51.99
403.533	77.18
403.747	72.72
403.96	76.98
404.174	78.14
404.387	22.35
404.6	60.9
404.814	86.48
405.027	73.3
405.24	66.71
405.454	57.61
405.667	99.84
405.88	44.24
406.094	67.1
406.307	105.66
406.52	95.39
406.733	51.99
406.947	12.46
407.16	148.09
407.373	72.33
407.586	33.2
407.799	42.3
408.012	132.78
408.226	82.79
408.439	113.02
408.652	33.2
408.865	61.48
409.078	109.73
409.291	70.39
409.504	21.96
409.717	99.84
409.93	102.75
410.143	87.06
410.357	39.78
410.57	41.91
410.783	63.81
410.996	103.53
411.209	99.65
411.421	112.05
411.634	74.66
411.847	58.58
412.06	97.13
412.273	69.23
412.486	73.3
412.699	151.57
412.912	72.14
413.125	128.13
413.338	93.84
413.55	93.45
413.763	86.67
413.976	85.7
414.189	60.9
414.402	90.93
414.615	131.62
414.827	58.19
415.04	103.91
415.253	105.08
415.466	122.9
415.678	144.79
415.891	115.93
416.104	82.41
416.316	99.07
416.529	89.58
416.742	110.69
416.954	121.74
417.167	92.29
417.38	87.06
417.592	126.97
417.805	81.24
418.017	55.86
418.23	124.84
418.442	78.73
418.655	107.01
418.868	116.7
419.08	119.41
419.293	140.53
419.505	101.59
419.718	117.28
419.93	149.06
420.142	66.71
420.355	140.92
420.567	121.35
420.78	121.54
420.992	119.41
421.205	191.87
421.417	82.99
421.629	107.21
421.842	77.18
422.054	69.04
422.266	137.43
422.479	139.76
422.691	121.93
422.903	129.29
423.115	85.89
423.328	109.34
423.54	134.91
423.752	114.38
423.964	92.87
424.177	139.18
424.389	109.53
424.601	213.96
424.813	92.29
425.025	128.33
425.238	138.59
425.45	125.81
425.662	124.64
425.874	377.1
426.086	115.34
426.298	146.73
426.51	125.23
426.722	121.35
426.934	113.6
427.146	139.76
427.358	85.89
427.57	147.31
427.782	104.3
427.994	140.92
428.206	99.46
428.418	66.91
428.63	146.34
428.842	157.39
429.054	142.08
429.266	156.03
429.478	98.1
429.69	105.66
429.902	86.28
430.114	136.66
430.325	121.93
430.537	72.33
430.749	101.2
430.961	37.26
431.173	94.23
431.384	155.64
431.596	58.77
431.808	121.54
432.02	113.02
432.231	154.29
432.443	169.98
432.655	125.23
432.867	96.36
433.078	163.01
433.29	192.65
433.502	172.31
433.713	162.04
433.925	162.81
434.136	165.91
434.348	88.8
434.56	87.25
434.771	231.98
434.983	99.26
435.194	122.13
435.406	136.66
435.617	180.83
435.829	205.24
436.04	162.23
436.252	164.94
436.463	202.14
436.675	208.92
436.886	157.19
437.098	182.96
437.309	209.89
437.521	161.46
437.732	156.61
437.943	178.7
438.155	196.91
438.366	119.22
438.578	216.67
438.789	138.59
439	202.34
439.211	134.14
439.423	159.13
439.634	180.25
439.845	200.01
440.057	177.92
440.268	211.44
440.479	181.61
440.69	200.4
440.902	179.86
441.113	165.91
441.324	164.56
441.535	205.82
441.746	218.81
441.957	161.07
442.168	180.64
442.38	194.59
442.591	193.23
442.802	161.84
443.013	192.07
443.224	200.01
443.435	155.26
443.646	214.54
443.857	193.04
444.068	178.31
444.279	179.86
444.49	233.34
444.701	178.89
444.912	282.35
445.123	236.24
445.334	242.25
445.545	189.36
445.756	204.86
445.967	202.53
446.178	232.17
446.388	232.37
446.599	219.77
446.81	233.34
447.021	212.22
447.232	265.89
447.443	286.23
447.653	200.21
447.864	260.27
448.075	217.06
448.286	276.35
448.496	246.9
448.707	282.35
448.918	225.39
449.129	328.27
449.339	202.14
449.55	254.07
449.761	243.99
449.971	254.45
450.182	227.14
450.393	257.75
450.603	259.88
450.814	258.33
451.024	239.92
451.235	285.45
451.446	302.7
451.656	313.16
451.867	221.32
452.077	273.83
452.288	291.85
452.498	328.85
452.709	246.7
452.919	278.48
453.13	251.35
453.34	291.65
453.55	192.46
453.761	267.44
453.971	253.49
454.182	299.21
454.392	271.89
454.602	303.09
454.813	279.25
455.023	275.38
455.233	264.72
455.444	270.73
455.654	219.39
455.864	265.89
456.075	278.48
456.285	241.09
456.495	272.28
456.705	284.68
456.916	320.91
457.126	328.47
457.336	316.26
457.546	230.82
457.756	258.52
457.967	320.91
458.177	255.04
458.387	309.09
458.597	268.79
458.807	276.54
459.017	285.07
459.227	299.99
459.437	298.24
459.647	313.94
459.857	316.65
460.068	274.8
460.278	319.55
460.488	317.81
460.698	369.35
460.908	290.3
461.117	240.12
461.327	284.49
461.537	297.66
461.747	293.4
461.957	304.83
462.167	389.3
462.377	350.17
462.587	305.8
462.797	325.75
463.007	333.89
463.216	360.24
463.426	359.08
463.636	350.75
463.846	292.04
464.056	283.71
464.265	318.78
464.475	308.12
464.685	333.12
464.895	340.48
465.104	325.56
465.314	344.93
465.524	315.68
465.733	292.43
465.943	386.01
466.153	403.45
466.362	358.69
466.572	322.65
466.782	325.75
466.991	335.05
467.201	369.54
467.41	293.79
467.62	335.63
467.829	335.44
468.039	366.25
468.249	328.47
468.458	336.02
468.668	371.48
468.877	362.57
469.086	412.16
469.296	379.62
469.505	373.61
469.715	424.76
469.924	373.8
470.134	411.58
470.343	395.5
470.552	341.83
470.762	322.65
470.971	332.92
471.18	342.8
471.39	368.77
471.599	339.12
471.808	406.93
472.018	349
472.227	404.42
472.436	424.76
472.645	383.68
472.855	367.6
473.064	441.23
473.273	381.17
473.482	394.15
473.691	448.59
473.901	425.53
474.11	395.5
474.319	447.43
474.528	413.13
474.737	458.08
474.946	440.84
475.155	452.85
475.364	458.28
475.573	432.7
475.783	447.43
475.992	450.72
476.201	463.9
476.41	429.6
476.619	396.86
476.828	438.13
477.037	448.78
477.245	438.13
477.454	481.33
477.663	448.59
477.872	444.33
478.081	510.2
478.29	436
478.499	558.64
478.708	492.76
478.917	541.39
479.125	490.25
479.334	482.69
479.543	465.83
479.752	504.39
479.961	524.15
480.169	541.39
480.378	505.74
480.587	594.67
480.796	531.13
481.004	521.24
481.213	549.14
481.422	510.59
481.63	545.85
481.839	532.68
482.048	557.86
482.256	545.08
482.465	577.43
482.674	580.73
482.882	601.26
483.091	628.19
483.299	574.72
483.508	581.31
483.716	561.74
483.925	599.91
484.134	559.61
484.342	535.39
484.551	613.86
484.759	599.13
484.967	607.07
485.176	653.38
485.384	615.6
485.593	601.84
485.801	602.81
486.01	580.92
486.218	552.83
486.426	534.23
486.635	511.17
486.843	519.31
487.051	557.86
487.26	581.69
487.468	602.23
487.676	628.58
487.885	592.74
488.093	612.5
488.301	641.56
488.509	636.33
488.717	666.94
488.926	624.32
489.134	621.22
489.342	663.07
489.55	646.79
489.758	667.33
489.967	643.5
490.175	760.91
490.383	675.66
490.591	735.34
490.799	660.94
491.007	737.08
491.215	707.63
491.423	678.76
491.631	705.69
491.839	696.39
492.047	730.49
492.255	687.29
492.463	674.11
492.671	695.04
492.879	731.85
493.087	709.76
493.295	720.61
493.503	742.7
493.711	750.64
493.919	768.85
494.127	768.08
494.334	747.93
494.542	724.87
494.75	735.34
494.958	773.7
495.166	794.04
495.374	787.07
495.581	791.13
495.789	755.87
495.997	837.83
496.205	778.54
496.412	789.78
496.62	796.95
496.828	814.38
497.035	807.41
497.243	850.81
497.451	809.54
497.658	823.88
497.866	789.78
498.074	864.18
498.281	800.82
498.489	908.93
498.696	789.2
498.904	820.39
499.112	797.33
499.319	889.17
499.527	850.03
499.734	896.15
499.942	817.87
500.149	851.39
500.357	894.21
500.564	790.94
500.771	867.08
500.979	831.43
501.186	840.73
501.394	884.91
501.601	842.67
501.808	890.53
502.016	853.13
502.223	871.35
502.43	870.96
502.638	869.99
502.845	857.78
503.052	954.66
503.26	893.05
503.467	980.23
503.674	922.3
503.881	922.3
504.089	994.96
504.296	982.75
504.503	915.71
504.71	954.66
504.917	902.93
505.125	921.33
505.332	967.44
505.539	990.11
505.746	1064.32
505.953	1026.92
506.16	1018.79
506.367	1074.78
506.574	1066.06
506.781	1068.77
506.988	1023.24
507.195	1060.44
507.402	1028.86
507.609	1095.9
507.816	1018.98
508.023	1048.24
508.23	1027.89
508.437	993.02
508.644	1091.64
508.851	1106.36
509.058	1121.09
509.265	1106.75
509.472	1104.81
509.679	1217.77
509.885	1120.31
510.092	1160.61
510.299	1145.89
510.506	1163.52
510.713	1155.96
510.92	1165.26
511.126	1208.66
511.333	1218.35
511.54	1222.22
511.746	1281.7
511.953	1235.01
512.16	1276.28
512.367	1235.01
512.573	1254
512.78	1242.57
512.987	1240.05
513.193	1247.41
513.4	1227.84
513.606	1268.92
513.813	1297.4
514.02	1262.91
514.226	1353.39
514.433	1327.23
514.639	1280.73
514.846	1278.6
515.052	1275.12
515.259	1324.91
515.465	1338.08
515.672	1334.4
515.878	1426.04
516.085	1373.73
516.291	1385.94
516.497	1352.81
516.704	1320.84
516.91	1281.7
517.117	1245.47
517.323	1213.7
517.529	1225.71
517.736	1261.36
517.942	1270.66
518.148	1293.33
518.354	1333.05
518.561	1372.38
518.767	1343.12
518.973	1415.19
519.179	1432.24
519.386	1406.67
519.592	1394.46
519.798	1410.16
520.004	1530.47
520.21	1454.72
520.417	1554.3
520.623	1547.33
520.829	1582.98
521.035	1598.09
521.241	1566.51
521.447	1605.45
521.653	1691.48
521.859	1619.21
522.065	1675.4
522.271	1729.06
522.477	1694.97
522.683	1711.05
522.889	1693.8
523.095	1675.4
523.301	1686.63
523.507	1683.34
523.713	1711.05
523.919	1704.65
524.125	1804.43
524.331	1765.49
524.537	1823.42
524.742	1835.04
524.948	1855.78
525.154	1839.69
525.36	1910.41
525.566	1858.88
525.772	1874.18
525.977	1836.79
526.183	1856.94
526.389	1872.83
526.595	1790.1
526.8	1840.28
527.006	1762.97
527.212	1756.19
527.417	1679.85
527.623	1735.46
527.829	1787.19
528.034	1804.63
528.24	1844.15
528.446	1835.43
528.651	1937.73
528.857	1927.66
529.062	2001.67
529.268	1980.55
529.473	2008.84
529.679	2007.67
529.884	2065.6
530.09	2031.7
530.295	2076.65
530.501	2055.34
530.706	2030.54
530.912	2047.39
531.117	2080.33
531.323	2080.91
531.528	2124.5
531.733	2158.21
531.939	2099.12
532.144	2115.01
532.35	2077.03
532.555	2116.56
532.76	2092.73
532.966	2085.75
533.171	2059.4
533.376	2024.92
533.581	2033.25
533.787	2069.09
533.992	2145.43
534.197	2114.04
534.402	2102.8
534.607	2128.18
534.813	2227.77
535.018	2158.6
535.223	2132.45
535.428	2186.5
535.633	2227.58
535.838	2227
536.043	2204.13
536.249	2296.74
536.454	2246.76
536.659	2255.86
536.864	2219.05
537.069	2204.91
537.274	2243.46
537.479	2208.2
537.684	2209.75
537.889	2190.57
538.094	2303.91
538.299	2227.77
538.504	2282.79
538.708	2246.56
538.913	2321.16
539.118	2268.26
539.323	2289.19
539.528	2254.12
539.733	2243.27
539.938	2269.81
540.142	2290.16
540.347	2216.53
540.552	2239.98
540.757	2193.86
540.962	2211.88
541.166	2164.41
541.371	2195.8
541.576	2203.36
541.781	2154.15
541.985	2240.56
542.19	2244.24
542.395	2305.85
542.599	2347.12
542.804	2318.64
543.008	2347.51
543.213	2278.53
543.418	2242.11
543.622	2298.49
543.827	2292.09
544.031	2366.49
544.236	2362.81
544.44	2334.72
544.645	2371.53
544.849	2298.68
545.054	2356.03
545.258	2428.3
545.463	2410.28
545.667	2330.46
545.872	2363.78
546.076	2350.22
546.281	2378.31
546.485	2343.44
546.689	2405.44
546.894	2415.12
547.098	2391.29
547.302	2355.26
547.507	2389.16
547.711	2456.78
547.915	2418.61
548.119	2346.54
548.324	2328.13
548.528	2394.78
548.732	2399.43
548.936	2417.64
549.141	2427.72
549.345	2349.64
549.549	2392.07
549.753	2412.02
549.957	2465.3
550.161	2451.35
550.366	2443.8
550.57	2370.37
550.774	2410.86
550.978	2431.79
551.182	2497.27
551.386	2421.52
551.59	2401.56
551.794	2408.92
551.998	2467.24
552.202	2437.79
552.406	2405.82
552.61	2443.22
552.814	2467.63
553.018	2486.42
553.222	2388.77
553.426	2421.13
553.63	2514.9
553.833	2408.92
554.037	2355.26
554.241	2452.71
554.445	2460.46
554.649	2443.22
554.853	2386.64
555.056	2462.59
555.26	2488.75
555.464	2454.07
555.668	2486.04
555.871	2461.62
556.075	2477.7
556.279	2396.72
556.483	2419.19
556.686	2398.46
556.89	2406.79
557.094	2412.61
557.297	2337.04
557.501	2380.83
557.704	2285.31
557.908	2411.83
558.112	2350.02
558.315	2412.22
558.519	2374.63
558.722	2336.85
558.926	2345.96
559.129	2253.73
559.333	2245.01
559.536	2294.23
559.74	2282.21
559.943	2240.95
560.147	2261.68
560.35	2278.92
560.553	2297.52
560.757	2253.54
560.96	2366.3
561.164	2290.74
561.367	2385.48
561.57	2254.51
561.774	2266.33
561.977	2268.07
562.18	2217.89
562.384	2313.41
562.587	2251.99
562.79	2238.43
562.993	2265.74
563.197	2299.84
563.4	2341.69
563.603	2302.56
563.806	2367.66
564.009	2250.83
564.212	2263.61
564.416	2165.58
564.619	2228.16
564.822	2166.74
565.025	2266.91
565.228	2180.88
565.431	2226.41
565.634	2126.05
565.837	2160.93
566.04	2146.98
566.243	2093.7
566.446	2075.87
566.649	2141.94
566.852	2083.43
567.055	2076.45
567.258	2143.68
567.461	2189.02
567.664	2177.2
567.867	2051.65
568.07	2146.01
568.273	2088.66
568.475	2143.88
568.678	2072.19
568.881	2048.55
569.084	2045.07
569.287	1951.49
569.489	1993.92
569.692	2020.46
569.895	2036.35
570.098	1949.74
570.3	1970.67
570.503	1900.34
570.706	1948.97
570.909	1943.16
571.111	1861.98
571.314	1875.34
571.516	1895.49
571.719	1887.74
571.922	1866.43
572.124	1910.02
572.327	1907.89
572.529	1861.98
572.732	1887.74
572.935	1914.29
573.137	1954.39
573.34	1900.14
573.542	1911.19
573.745	1904.79
573.947	1903.44
574.15	1868.37
574.352	1865.46
574.554	1892.2
574.757	1819.93
574.959	1825.55
575.162	1844.93
575.364	1793
575.566	1898.4
575.769	1782.93
575.971	1809.66
576.173	1716.86
576.376	1796.1
576.578	1794.75
576.78	1839.11
576.982	1749.41
577.185	1805.6
577.387	1710.27
577.589	1787
577.791	1775.56
577.993	1755.41
578.196	1749.6
578.398	1759.48
578.6	1760.26
578.802	1692.06
579.004	1657.38
579.206	1682.95
579.408	1755.41
579.61	1702.72
579.812	1769.56
580.014	1684.12
580.216	1693.42
580.418	1696.9
580.62	1703.68
580.822	1701.17
581.024	1728.87
581.226	1745.15
581.428	1701.75
581.63	1805.79
581.832	1709.11
582.034	1775.95
582.236	1746.7
582.438	1778.08
582.64	1793.97
582.841	1821.09
583.043	1820.71
583.245	1755.22
583.447	1826.13
583.649	1771.11
583.85	1784.67
584.052	1760.06
584.254	1705.23
584.456	1798.81
584.657	1715.89
584.859	1760.65
585.061	1757.16
585.262	1735.26
585.464	1683.92
585.666	1773.24
585.867	1683.15
586.069	1746.31
586.27	1708.53
586.472	1688.96
586.674	1703.68
586.875	1685.28
587.077	1670.75
587.278	1701.94
587.48	1679.47
587.681	1750.38
587.883	1697.29
588.084	1606.23
588.285	1629.48
588.487	1626.19
588.688	1640.72
588.89	1542.49
589.091	1502.77
589.292	1503.54
589.494	1490.56
589.695	1460.53
589.896	1396.21
590.098	1388.26
590.299	1445.23
590.5	1431.47
590.702	1456.66
590.903	1478.74
591.104	1554.69
591.305	1526.79
591.507	1590.73
591.708	1565.35
591.909	1533.77
592.11	1591.31
592.311	1582.98
592.512	1542.68
592.714	1500.06
592.915	1502.19
593.116	1505.09
593.317	1557.6
593.518	1526.21
593.719	1534.16
593.92	1604.68
594.121	1609.33
594.322	1510.13
594.523	1529.12
594.724	1456.46
594.925	1476.03
595.126	1523.11
595.327	1542.87
595.528	1524.47
595.729	1545.78
595.929	1515.94
596.13	1537.06
596.331	1530.67
596.532	1547.91
596.733	1578.52
596.934	1583.75
597.135	1554.5
597.335	1563.8
597.536	1504.32
597.737	1559.92
597.938	1526.02
598.138	1530.28
598.339	1526.99
598.54	1511.87
598.74	1500.44
598.941	1542.68
599.142	1578.52
599.342	1549.27
599.543	1511.49
599.744	1508.58
599.944	1531.06
600.145	1539.77
600.345	1517.69
600.546	1592.09
600.746	1564.38
600.947	1606.81
601.147	1540.74
601.348	1605.07
601.548	1526.79
601.749	1506.26
601.949	1484.94
602.15	1460.92
602.35	1491.72
602.551	1537.64
602.751	1453.17
602.951	1495.99
603.152	1448.52
603.352	1572.71
603.552	1538.42
603.753	1543.07
603.953	1566.9
604.153	1527.37
604.354	1495.79
604.554	1534.93
604.754	1520.01
604.954	1463.82
605.155	1509.16
605.355	1502.77
605.555	1544.42
605.755	1560.5
605.955	1493.27
606.155	1510.91
606.356	1502.38
606.556	1532.22
606.756	1543.65
606.956	1468.67
607.156	1541.91
607.356	1474.87
607.556	1517.11
607.756	1508.39
607.956	1548.3
608.156	1534.93
608.356	1457.43
608.556	1547.91
608.756	1472.54
608.956	1466.15
609.156	1445.03
609.356	1432.83
609.556	1413.45
609.755	1458.79
609.955	1467.89
610.155	1436.31
610.355	1437.48
610.555	1425.46
610.755	1436.89
610.954	1384.78
611.154	1447.55
611.354	1464.41
611.554	1419.84
611.753	1438.25
611.953	1379.16
612.153	1414.23
612.352	1454.91
612.552	1369.47
612.752	1367.34
612.951	1403.18
613.151	1412.09
613.351	1353.39
613.55	1382.45
613.75	1378.96
613.949	1372.96
614.149	1402.6
614.348	1353.39
614.548	1353.97
614.747	1299.33
614.947	1313.09
615.146	1317.74
615.346	1407.44
615.545	1339.25
615.745	1371.79
615.944	1356.1
616.144	1324.91
616.343	1389.62
616.542	1277.44
616.742	1327.62
616.941	1290.81
617.14	1243.53
617.34	1287.13
617.539	1322.2
617.738	1291.97
617.938	1365.01
618.137	1280.93
