Data from gum_young_FLMT105791__81__17-39-39-042.txt Node

Date: Mon Mar 20 17:39:39 GMT 2023
User: antho
Spectrometer: FLMT10579
Trigger mode: 0
Integration Time (sec): 1.000000E-1
Scans to average: 10
Electric dark correction enabled: true
Nonlinearity correction enabled: false
Boxcar width: 0
XAxis mode: Wavelengths
Number of Pixels in Spectrum: 3648
>>>>>Begin Spectral Data<<<<<
345.248	-152.56
345.464	-152.56
345.681	-152.56
345.898	-143.26
346.114	-135.51
346.331	-30.89
346.548	27.43
346.764	-20.42
346.981	-13.45
347.197	9.22
347.414	2.24
347.631	-27.98
347.847	58.43
348.064	12.71
348.28	11.16
348.497	-36.12
348.713	7.67
348.93	47
349.146	26.46
349.363	5.15
349.579	28.79
349.796	21.62
350.012	-6.67
350.229	31.69
350.445	26.08
350.661	-16.36
350.878	8.06
351.094	20.65
351.311	30.53
351.527	43.51
351.743	-1.05
351.96	32.28
352.176	50.68
352.392	44.09
352.609	33.83
352.825	-22.36
353.041	26.08
353.257	11.35
353.474	-9.19
353.69	34.02
353.906	1.86
354.122	-10.54
354.339	59.79
354.555	7.28
354.771	-8.99
354.987	86.72
355.203	54.17
355.42	-9.96
355.636	-4.92
355.852	11.35
356.068	-3.76
356.284	-18.68
356.5	38.86
356.716	14.26
356.932	22.39
357.148	26.27
357.364	12.51
357.58	70.44
357.796	59.21
358.012	71.41
358.228	21.43
358.444	-35.73
358.66	39.06
358.876	35.57
359.092	0.31
359.308	8.64
359.524	59.01
359.74	0.31
359.956	-9.19
360.172	3.79
360.388	55.72
360.604	-4.34
360.819	93.89
361.035	28.21
361.251	20.65
361.467	-22.56
361.683	33.83
361.898	34.79
362.114	66.18
362.33	5.93
362.546	57.46
362.762	32.66
362.977	27.43
363.193	-18.1
363.409	64.24
363.624	-19.46
363.84	-2.6
364.056	22.39
364.271	28.59
364.487	13.68
364.703	2.05
364.918	-15.19
365.134	16
365.35	10.77
365.565	74.32
365.781	29.56
365.996	47.58
366.212	71.99
366.427	19.68
366.643	1.47
366.858	17.55
367.074	3.6
367.289	79.36
367.505	107.26
367.72	-7.44
367.936	26.85
368.151	58.82
368.367	48.16
368.582	39.64
368.798	2.83
369.013	72.19
369.228	23.75
369.444	8.44
369.659	57.46
369.874	36.92
370.09	46.42
370.305	-27.4
370.52	14.06
370.736	67.54
370.951	5.54
371.166	76.64
371.381	73.35
371.597	44.48
371.812	9.99
372.027	10.96
372.242	38.67
372.458	70.83
372.673	21.62
372.888	17.94
373.103	50.29
373.318	97.76
373.533	51.84
373.749	48.55
373.964	-20.42
374.179	74.32
374.394	1.66
374.609	66.76
374.824	4.38
375.039	65.6
375.254	15.23
375.469	68.89
375.684	30.73
375.899	59.59
376.114	31.11
376.329	20.46
376.544	72.96
376.759	51.65
376.974	51.65
377.189	29.56
377.404	25.11
377.619	62.31
377.834	-42.51
378.049	-0.86
378.264	12.32
378.478	46.42
378.693	12.9
378.908	60.95
379.123	28.4
379.338	64.82
379.553	38.67
379.767	42.35
379.982	46.61
380.197	51.46
380.412	31.11
380.626	42.93
380.841	97.57
381.056	48.74
381.271	72.77
381.485	13.68
381.7	4.18
381.915	33.05
382.129	5.73
382.344	39.44
382.559	22.2
382.773	77.61
382.988	-27.4
383.202	53.39
383.417	6.51
383.632	126.63
383.846	26.66
384.061	40.02
384.275	16.97
384.49	47.39
384.704	72.96
384.919	33.83
385.133	32.66
385.348	59.98
385.562	16
385.777	82.46
385.991	22.59
386.206	2.63
386.42	3.21
386.634	68.89
386.849	96.41
387.063	61.72
387.277	16.78
387.492	4.57
387.706	-4.34
387.92	15.03
388.135	67.34
388.349	53.78
388.563	33.83
388.778	68.51
388.992	47
389.206	60.76
389.42	110.16
389.635	23.17
389.849	75.67
390.063	96.41
390.277	8.25
390.491	102.99
390.706	67.73
390.92	53.39
391.134	30.92
391.348	74.71
391.562	26.46
391.776	36.54
391.99	16.97
392.205	49.32
392.419	32.86
392.633	52.23
392.847	63.66
393.061	28.01
393.275	118.11
393.489	46.22
393.703	61.14
393.917	68.12
394.131	34.02
394.345	73.54
394.559	78.19
394.773	32.08
394.986	61.14
395.2	61.14
395.414	51.65
395.628	55.33
395.842	51.65
396.056	26.46
396.27	0.69
396.484	78.58
396.697	69.47
396.911	76.45
397.125	65.41
397.339	56.3
397.553	81.49
397.766	107.64
397.98	86.91
398.194	91.17
398.408	81.29
398.621	76.84
398.835	111.91
399.049	69.86
399.262	91.95
399.476	89.24
399.69	67.92
399.903	140.77
400.117	71.61
400.331	91.17
400.544	46.03
400.758	174.1
400.971	57.85
401.185	92.92
401.398	48.55
401.612	130.89
401.826	79.16
402.039	90.79
402.253	55.52
402.466	100.47
402.68	80.71
402.893	79.16
403.106	97.76
403.32	92.34
403.533	88.27
403.747	79.74
403.96	76.45
404.174	99.12
404.387	50.1
404.6	95.82
404.814	139.42
405.027	80.71
405.24	98.73
405.454	96.41
405.667	130.7
405.88	55.52
406.094	100.47
406.307	121.59
406.52	92.14
406.733	60.17
406.947	48.74
407.16	133.8
407.373	122.56
407.586	71.8
407.799	95.44
408.012	122.17
408.226	102.99
408.439	143.68
408.652	44.29
408.865	88.46
409.078	115.39
409.291	119.85
409.504	71.41
409.717	124.11
409.93	106.09
410.143	106.29
410.357	45.45
410.57	90.59
410.783	76.26
410.996	97.96
411.209	84.78
411.421	126.44
411.634	90.01
411.847	87.11
412.06	134.19
412.273	106.48
412.486	96.99
412.699	190.37
412.912	113.07
413.125	125.47
413.338	116.75
413.55	149.49
413.763	122.17
413.976	150.85
414.189	93.11
414.402	87.49
414.615	142.13
414.827	96.21
415.04	140.39
415.253	119.46
415.466	142.13
415.678	180.1
415.891	100.09
416.104	94.47
416.316	107.26
416.529	106.29
416.742	140.77
416.954	171.58
417.167	123.53
417.38	99.31
417.592	164.41
417.805	78.97
418.017	75.29
418.23	169.06
418.442	109.58
418.655	92.72
418.868	130.89
419.08	143.68
419.293	178.94
419.505	115.2
419.718	134.38
419.93	165.38
420.142	110.36
420.355	157.24
420.567	170.22
420.78	146.97
420.992	130.31
421.205	193.47
421.417	77.03
421.629	133.41
421.842	82.07
422.054	83.42
422.266	135.15
422.479	167.51
422.691	121.4
422.903	186.11
423.115	110.94
423.328	105.51
423.54	155.3
423.752	102.02
423.964	105.32
424.177	153.37
424.389	117.91
424.601	215.17
424.813	153.75
425.025	164.02
425.238	181.65
425.45	128.18
425.662	121.98
425.874	411.24
426.086	139.03
426.298	183.01
426.51	164.6
426.722	151.82
426.934	123.14
427.146	173.9
427.358	123.34
427.57	176.62
427.782	150.85
427.994	139.61
428.206	117.72
428.418	106.67
428.63	183.59
428.842	183.4
429.054	181.46
429.266	161.12
429.478	126.82
429.69	134.19
429.902	93.69
430.114	171.77
430.325	159.18
430.537	106.87
430.749	133.41
430.961	80.91
431.173	127.02
431.384	175.26
431.596	82.84
431.808	111.71
432.02	170.03
432.231	171.39
432.443	188.24
432.655	168.67
432.867	128.76
433.078	185.34
433.29	213.04
433.502	212.27
433.713	201.22
433.925	179.52
434.136	189.6
434.348	86.52
434.56	125.27
434.771	260.51
434.983	135.15
435.194	147.75
435.406	166.35
435.617	197.35
435.829	236.87
436.04	230.28
436.252	203.55
436.463	192.12
436.675	213.43
436.886	211.1
437.098	191.73
437.309	238.62
437.521	186.89
437.732	197.93
437.943	151.82
438.155	196.38
438.366	171
438.578	251.4
438.789	173.9
439	207.81
439.211	185.34
439.423	180.69
439.634	220.79
439.845	209.36
440.057	202.39
440.268	241.33
440.479	189.99
440.69	215.95
440.902	207.42
441.113	202.97
441.324	167.7
441.535	226.6
441.746	269.42
441.957	170.61
442.168	181.27
442.38	211.68
442.591	222.92
442.802	189.4
443.013	185.14
443.224	239.2
443.435	195.02
443.646	215.17
443.857	209.94
444.068	195.22
444.279	191.34
444.49	307.4
444.701	217.88
444.912	316.7
445.123	249.27
445.334	251.98
445.545	254.12
445.756	239
445.967	202.19
446.178	256.44
446.388	264.97
446.599	262.25
446.81	263.61
447.021	224.08
447.232	262.83
447.443	269.42
447.653	229.7
447.864	274.46
448.075	252.95
448.286	275.82
448.496	253.73
448.707	296.74
448.918	256.83
449.129	333.55
449.339	259.54
449.55	263.42
449.761	239.97
449.971	296.55
450.182	241.33
450.393	290.93
450.603	242.88
450.814	326.38
451.024	276.4
451.235	320.96
451.446	300.61
451.656	342.85
451.867	244.04
452.077	304.3
452.288	322.31
452.498	298.1
452.709	270
452.919	285.7
453.13	255.28
453.34	325.61
453.55	239.2
453.761	278.33
453.971	288.8
454.182	298.87
454.392	301.78
454.602	358.74
454.813	328.32
455.023	326.19
455.233	278.92
455.444	313.79
455.654	235.52
455.864	280.47
456.075	310.69
456.285	298.68
456.495	289.77
456.705	302.94
456.916	341.88
457.126	345.56
457.336	311.08
457.546	258.77
457.756	268.84
457.967	347.89
458.177	298.87
458.387	292.48
458.597	267.1
458.807	293.83
459.017	277.75
459.227	279.3
459.437	296.55
459.647	337.23
459.857	337.23
460.068	319.99
460.278	337.62
460.488	324.06
460.698	357.77
460.908	296.93
461.117	283.37
461.327	288.8
461.537	304.1
461.747	333.36
461.957	355.06
462.167	430.43
462.377	370.56
462.587	333.36
462.797	364.55
463.007	331.03
463.216	373.46
463.426	405.04
463.636	373.66
463.846	293.25
464.056	308.56
464.265	366.49
464.475	328.13
464.685	335.1
464.895	352.35
465.104	329.1
465.314	374.63
465.524	323.67
465.733	306.23
465.943	398.84
466.153	410.28
466.362	384.12
466.572	349.25
466.782	346.15
466.991	358.55
467.201	413.18
467.41	322.12
467.62	361.26
467.829	340.91
468.039	399.43
468.249	384.12
468.458	362.42
468.668	403.49
468.877	405.63
469.086	424.42
469.296	402.91
469.505	355.25
469.715	436.63
469.924	376.37
470.134	427.13
470.343	418.99
470.552	366.88
470.762	366.49
470.971	348.47
471.18	371.72
471.39	387.8
471.599	331.81
471.808	436.82
472.018	360.87
472.227	416.67
472.436	439.73
472.645	389.35
472.855	377.15
473.064	452.51
473.273	416.86
473.482	436.24
473.691	479.06
473.901	442.83
474.11	409.69
474.319	521.1
474.528	455.61
474.737	476.54
474.946	447.48
475.155	447.48
475.364	489.71
475.573	443.41
475.783	466.85
475.992	459.68
476.201	477.51
476.41	470.92
476.619	429.65
476.828	471.69
477.037	460.65
477.245	452.13
477.454	502.31
477.663	447.67
477.872	475.57
478.081	541.25
478.29	462.59
478.499	548.81
478.708	507.54
478.917	559.46
479.125	486.42
479.334	526.91
479.543	484.09
479.752	533.69
479.961	539.12
480.169	536.6
480.378	532.14
480.587	604.8
480.796	556.56
481.004	547.84
481.213	567.21
481.422	556.56
481.63	549
481.839	575.93
482.048	603.83
482.256	569.15
482.465	601.7
482.674	591.62
482.882	590.46
483.091	630.57
483.299	553.07
483.508	589.49
483.716	592.2
483.925	596.85
484.134	546.29
484.342	603.83
484.551	616.81
484.759	619.52
484.967	623.98
485.176	617.2
485.384	621.46
485.593	636.19
485.801	627.08
486.01	601.5
486.218	578.25
486.426	501.34
486.635	550.74
486.843	546.87
487.051	567.21
487.26	545.51
487.468	581.74
487.676	646.65
487.885	608.29
488.093	620.3
488.301	615.07
488.509	627.47
488.717	661.76
488.926	664.67
489.134	631.92
489.342	675.9
489.55	606.15
489.758	669.7
489.967	656.92
490.175	762.51
490.383	665.25
490.591	729.18
490.799	652.07
491.007	752.05
491.215	682.88
491.423	685.98
491.631	667.38
491.839	691.21
492.047	723.95
492.255	655.37
492.463	638.7
492.671	677.65
492.879	699.73
493.087	731.51
493.295	707.68
493.503	713.49
493.711	752.82
493.919	755.53
494.127	759.21
494.334	771.42
494.542	726.28
494.75	742.36
494.958	738.48
495.166	761.73
495.374	743.33
495.581	765.41
495.789	790.41
495.997	822.57
496.205	735.77
496.412	778.78
496.62	784.01
496.828	789.83
497.035	769.87
497.243	847.37
497.451	786.15
497.658	796.61
497.866	827.61
498.074	894.64
498.281	797.19
498.489	884.18
498.696	798.74
498.904	824.31
499.112	817.92
499.319	869.46
499.527	823.93
499.734	880.69
499.942	817.15
500.149	824.51
500.357	871.2
500.564	814.82
500.771	834.58
500.979	813.85
501.186	803.2
501.394	826.44
501.601	852.99
501.808	869.46
502.016	821.8
502.223	856.86
502.43	863.06
502.638	869.65
502.845	831.87
503.052	934.36
503.26	880.31
503.467	949.47
503.674	911.89
503.881	917.12
504.089	982.02
504.296	954.9
504.503	882.83
504.71	915.57
504.917	874.88
505.125	927.77
505.332	939.79
505.539	939.79
505.746	1000.62
505.953	992.87
506.16	1002.95
506.367	1036.66
506.574	1029.3
506.781	1049.45
506.988	986.09
507.195	1010.12
507.402	1027.55
507.609	1062.24
507.816	961.68
508.023	1004.69
508.23	992.87
508.437	1008.37
508.644	1068.05
508.851	1092.07
509.058	1085.29
509.265	1082.97
509.472	1086.84
509.679	1203.67
509.885	1095.37
510.092	1135.28
510.299	1106.41
510.506	1128.5
510.713	1159.5
510.92	1120.75
511.126	1162.98
511.333	1171.51
511.54	1167.05
511.746	1243
511.953	1241.45
512.16	1214.33
512.367	1209.87
512.573	1205.61
512.78	1190.88
512.987	1232.93
513.193	1230.21
513.4	1180.03
513.606	1207.74
513.813	1260.83
514.02	1231.38
514.226	1307.33
514.433	1285.82
514.639	1233.51
514.846	1269.16
515.052	1254.63
515.259	1286.79
515.465	1295.51
515.672	1309.84
515.878	1383.08
516.085	1329.8
516.291	1373.59
516.497	1305.78
516.704	1326.89
516.91	1283.69
517.117	1244.94
517.323	1227.11
517.529	1217.43
517.736	1247.26
517.942	1317.21
518.148	1290.08
518.354	1374.94
518.561	1334.06
518.767	1370.29
518.973	1390.25
519.179	1413.5
519.386	1419.7
519.592	1429
519.798	1416.21
520.004	1519.87
520.21	1513.09
520.417	1515.02
520.623	1616.16
520.829	1595.23
521.035	1602.98
521.241	1580.9
521.447	1660.53
521.653	1746.55
521.859	1632.43
522.065	1672.54
522.271	1783.36
522.477	1716.52
522.683	1763.41
522.889	1697.92
523.095	1718.84
523.301	1718.65
523.507	1697.53
523.713	1721.75
523.919	1726.98
524.125	1820.56
524.331	1776.78
524.537	1886.24
524.742	1846.14
524.948	1879.07
525.154	1888.18
525.36	1974.01
525.566	1936.04
525.772	1970.52
525.977	1880.43
526.183	1926.93
526.389	1949.21
526.595	1863.57
526.8	1860.47
527.006	1827.54
527.212	1749.84
527.417	1732.02
527.623	1741.13
527.829	1864.93
528.034	1902.32
528.24	1915.3
528.446	1897.87
528.651	2001.33
528.857	2008.11
529.062	2070.5
529.268	2034.46
529.473	2078.63
529.679	2068.56
529.884	2126.3
530.09	2122.81
530.295	2131.91
530.501	2160.59
530.706	2110.21
530.912	2098.01
531.117	2108.66
531.323	2139.66
531.528	2194.11
531.733	2179.19
531.939	2177.64
532.144	2170.86
532.35	2217.74
532.555	2191.2
532.76	2181.13
532.966	2180.93
533.171	2163.3
533.376	2148.58
533.581	2135.01
533.787	2156.71
533.992	2235.57
534.197	2216.97
534.402	2227.82
534.607	2208.44
534.813	2307.45
535.018	2212.51
535.223	2275.67
535.428	2293.5
535.633	2323.14
535.838	2315
536.043	2353.37
536.249	2444.82
536.454	2346.39
536.659	2411.49
536.864	2322.56
537.069	2339.03
537.274	2309.77
537.479	2346.78
537.684	2316.55
537.889	2288.27
538.094	2450.43
538.299	2348.72
538.504	2378.36
538.708	2332.64
538.913	2376.42
539.118	2353.75
539.323	2422.53
539.528	2365.19
539.733	2398.12
539.938	2370.42
540.142	2371.77
540.347	2319.07
540.552	2304.35
540.757	2309.58
540.962	2354.92
541.166	2242.16
541.371	2286.91
541.576	2321.98
541.781	2253.59
541.985	2352.79
542.19	2377
542.395	2460.9
542.599	2448.88
542.804	2420.4
543.008	2464.38
543.213	2409.55
543.418	2336.51
543.622	2425.25
543.827	2384.75
544.031	2456.05
544.236	2501.58
544.44	2478.33
544.645	2535.49
544.849	2451.4
545.054	2492.67
545.258	2582.96
545.463	2520.18
545.667	2499.65
545.872	2511.66
546.076	2532
546.281	2498.48
546.485	2459.93
546.689	2505.26
546.894	2551.76
547.098	2506.04
547.302	2516.11
547.507	2511.46
547.711	2599.62
547.915	2570.56
548.119	2479.69
548.324	2531.23
548.528	2557.38
548.732	2551.38
548.936	2569.4
549.141	2571.53
549.345	2517.86
549.549	2589.35
549.753	2590.71
549.957	2615.12
550.161	2617.25
550.366	2622.68
550.57	2591.09
550.774	2606.79
550.978	2543.82
551.182	2594
551.386	2576.37
551.59	2568.43
551.794	2527.35
551.998	2615.31
552.202	2575.59
552.406	2555.83
552.61	2595.16
552.814	2603.88
553.018	2673.05
553.222	2601.36
553.426	2568.23
553.63	2666.66
553.833	2595.36
554.037	2539.17
554.241	2603.88
554.445	2597.88
554.649	2609.5
554.853	2621.32
555.056	2622.29
555.26	2695.91
555.464	2649.99
555.668	2655.03
555.871	2651.16
556.075	2652.71
556.279	2573.85
556.483	2560.48
556.686	2595.74
556.89	2575.59
557.094	2590.51
557.297	2506.04
557.501	2576.76
557.704	2460.7
557.908	2545.56
558.112	2550.41
558.315	2585.67
558.519	2558.35
558.722	2513.01
558.926	2511.27
559.129	2404.71
559.333	2413.04
559.536	2441.72
559.74	2330.5
559.943	2382.04
560.147	2371.77
560.35	2386.11
560.553	2423.12
560.757	2373.71
560.96	2475.04
561.164	2425.05
561.367	2478.72
561.57	2418.66
561.774	2459.35
561.977	2431.25
562.18	2392.89
562.384	2468.84
562.587	2405.68
562.79	2405.87
562.993	2363.83
563.197	2436.87
563.4	2466.9
563.603	2439.2
563.806	2461.09
564.009	2377.97
564.212	2409.75
564.416	2328.57
564.619	2382.24
564.822	2307.84
565.025	2435.9
565.228	2349.88
565.431	2364.8
565.634	2285.56
565.837	2275.09
566.04	2233.05
566.243	2257.07
566.446	2136.18
566.649	2264.82
566.852	2195.46
567.055	2235.18
567.258	2244.29
567.461	2269.67
567.664	2285.75
567.867	2212.9
568.07	2216.78
568.273	2237.31
568.475	2268.7
568.678	2184.42
568.881	2193.72
569.084	2160.39
569.287	2091.03
569.489	2111.57
569.692	2161.36
569.895	2153.42
570.098	2086.77
570.3	2066.23
570.503	2020.12
570.706	2014.5
570.909	2002.1
571.111	1941.07
571.314	1925.96
571.516	1967.62
571.719	1989.12
571.922	1985.44
572.124	1952.5
572.327	2017.02
572.529	1974.2
572.732	1972.46
572.935	1993.38
573.137	2091.23
573.34	1968.39
573.542	1978.47
573.745	1983.31
573.947	1987.18
574.15	1971.49
574.352	1928.29
574.554	2003.85
574.757	1878.49
574.959	1889.54
575.162	1912.2
575.364	1848.27
575.566	1955.02
575.769	1828.89
575.971	1848.85
576.173	1781.04
576.376	1823.86
576.578	1898.84
576.78	1917.44
576.982	1779.88
577.185	1817.66
577.387	1811.26
577.589	1807.77
577.791	1840.13
577.993	1844.78
578.196	1831.61
578.398	1813.78
578.6	1810.49
578.802	1772.9
579.004	1753.91
579.206	1747.71
579.408	1768.25
579.61	1751.39
579.812	1845.75
580.014	1763.6
580.216	1742.29
580.418	1812.62
580.62	1753.14
580.822	1714
581.024	1771.74
581.226	1823.66
581.428	1771.93
581.63	1830.44
581.832	1765.15
582.034	1831.8
582.236	1803.51
582.438	1821.14
582.64	1833.54
582.841	1830.25
583.043	1857.57
583.245	1795.57
583.447	1836.26
583.649	1791.11
583.85	1824.82
584.052	1834.32
584.254	1763.99
584.456	1828.7
584.657	1769.61
584.859	1791.69
585.061	1762.44
585.262	1762.44
585.464	1736.28
585.666	1759.73
585.867	1731.24
586.069	1807.19
586.27	1735.7
586.472	1738.99
586.674	1705.28
586.875	1728.92
587.077	1726.98
587.278	1745.78
587.48	1683.78
587.681	1791.11
587.883	1721.94
588.084	1657.62
588.285	1669.63
588.487	1660.91
588.688	1671.38
588.89	1559.39
589.091	1552.03
589.292	1572.37
589.494	1475.3
589.695	1485.96
589.896	1392.77
590.098	1423.77
590.299	1473.95
590.5	1451.28
590.702	1468.72
590.903	1536.92
591.104	1594.65
591.305	1581.28
591.507	1588.45
591.708	1599.5
591.909	1530.91
592.11	1633.98
592.311	1597.95
592.512	1556.87
592.714	1493.32
592.915	1519.29
593.116	1502.24
593.317	1583.22
593.518	1545.05
593.719	1567.72
593.92	1572.18
594.121	1586.32
594.322	1567.33
594.523	1541.18
594.724	1501.27
594.925	1533.04
595.126	1524.52
595.327	1510.37
595.528	1533.04
595.729	1544.86
595.929	1504.75
596.13	1551.45
596.331	1532.65
596.532	1533.23
596.733	1601.24
596.934	1564.04
597.135	1595.04
597.335	1548.93
597.536	1511.73
597.737	1498.94
597.938	1537.88
598.138	1555.13
598.339	1526.65
598.54	1538.66
598.74	1513.28
598.941	1516.38
599.142	1585.55
599.342	1553
599.543	1502.82
599.744	1505.72
599.944	1505.92
600.145	1511.15
600.345	1539.05
600.546	1593.68
600.746	1552.61
600.947	1605.7
601.147	1534.78
601.348	1583.8
601.548	1520.84
601.749	1523.74
601.949	1461.74
602.15	1525.29
602.35	1504.17
602.551	1535.75
602.751	1477.82
602.951	1507.47
603.152	1457.09
603.352	1513.47
603.552	1493.52
603.753	1541.37
603.953	1514.05
604.153	1533.43
604.354	1509.21
604.554	1517.74
604.754	1522.19
604.954	1495.65
605.155	1534.2
605.355	1457.48
605.555	1512.12
605.755	1553.77
605.955	1492.35
606.155	1529.75
606.356	1503.98
606.556	1523.55
606.756	1525.1
606.956	1462.9
607.156	1527.81
607.356	1453.41
607.556	1506.69
607.756	1472.98
607.956	1528.39
608.156	1477.82
608.356	1450.7
608.556	1469.1
608.756	1457.48
608.956	1430.16
609.156	1471.04
609.356	1446.63
609.556	1420.47
609.755	1481.12
609.955	1415.82
610.155	1482.09
610.355	1465.23
610.555	1411.17
610.755	1398.39
610.954	1385.99
611.154	1413.31
611.354	1484.6
611.554	1406.33
611.753	1381.14
611.953	1340.07
612.153	1412.72
612.352	1406.52
612.552	1349.17
612.752	1325.93
612.951	1395.87
613.151	1384.05
613.351	1362.54
613.55	1364.48
613.75	1412.14
613.949	1340.07
614.149	1342.01
614.348	1324.38
614.548	1339.29
614.747	1276.91
614.947	1325.34
615.146	1235.45
615.346	1376.3
615.545	1363.12
615.745	1341.04
615.944	1323.21
616.144	1348.21
616.343	1335.42
616.542	1279.04
616.742	1293.38
616.941	1266.25
617.14	1231.96
617.34	1296.48
617.539	1300.16
617.738	1274.78
617.938	1334.64
618.137	1285.63
