Data from gum_young_FLMT105791__26__17-38-25-045.txt Node

Date: Mon Mar 20 17:38:25 GMT 2023
User: antho
Spectrometer: FLMT10579
Trigger mode: 0
Integration Time (sec): 1.000000E-1
Scans to average: 10
Electric dark correction enabled: true
Nonlinearity correction enabled: false
Boxcar width: 0
XAxis mode: Wavelengths
Number of Pixels in Spectrum: 3648
>>>>>Begin Spectral Data<<<<<
345.248	-120.82
345.464	-120.82
345.681	-120.82
345.898	-148.52
346.114	-151.04
346.331	-54.36
346.548	28.56
346.764	-1.28
346.981	-15.23
347.197	-27.82
347.414	45.22
347.631	-30.92
347.847	45.42
348.064	18.29
348.28	33.02
348.497	-39.83
348.713	-1.08
348.93	35.34
349.146	43.67
349.363	19.84
349.579	12.29
349.796	-18.52
350.012	-23.94
350.229	39.02
350.445	8.61
350.661	24.11
350.878	26.24
351.094	-2.44
351.311	39.22
351.527	30.5
351.743	-24.72
351.96	40.57
352.176	47.36
352.392	11.12
352.609	47.36
352.825	-14.84
353.041	37.28
353.257	13.26
353.474	2.02
353.69	24.11
353.906	15
354.122	-20.84
354.339	49.1
354.555	30.89
354.771	-9.99
354.987	68.28
355.203	49.29
355.42	14.03
355.636	-6.51
355.852	0.66
356.068	26.43
356.284	-16.19
356.5	68.86
356.716	32.44
356.932	27.4
357.148	45.22
357.364	-0.5
357.58	55.69
357.796	45.61
358.012	50.84
358.228	14.61
358.444	-63.86
358.66	40.57
358.876	30.69
359.092	-19.49
359.308	29.53
359.524	5.89
359.74	12.67
359.956	13.06
360.172	22.56
360.388	49.68
360.604	7.25
360.819	73.32
361.035	18.68
361.251	31.86
361.467	16.16
361.683	43.67
361.898	26.82
362.114	45.81
362.33	35.34
362.546	26.82
362.762	24.3
362.977	2.79
363.193	-11.35
363.409	42.9
363.624	-7.48
363.84	16.94
364.056	-0.11
364.271	26.43
364.487	33.41
364.703	-6.7
364.918	-18.13
365.134	-17.55
365.35	7.06
365.565	100.05
365.781	7.06
365.996	45.22
366.212	78.94
366.427	26.24
366.643	17.52
366.858	-5.93
367.074	8.41
367.289	70.22
367.505	102.96
367.72	-17.36
367.936	6.47
368.151	55.49
368.367	24.69
368.582	45.81
368.798	-0.31
369.013	61.5
369.228	17.71
369.444	20.62
369.659	60.14
369.874	26.62
370.09	54.52
370.305	-23.56
370.52	0.27
370.736	58.01
370.951	14.22
371.166	65.37
371.381	99.47
371.597	24.88
371.812	3.18
372.027	-2.63
372.242	3.57
372.458	83.2
372.673	4.54
372.888	43.29
373.103	42.51
373.318	102.19
373.533	15.97
373.749	44.26
373.964	-7.48
374.179	45.42
374.394	11.51
374.609	66.34
374.824	-0.89
375.039	67.5
375.254	9.38
375.469	66.34
375.684	23.14
375.899	54.33
376.114	33.79
376.329	35.92
376.544	74.29
376.759	80.1
376.974	12.09
377.189	12.29
377.404	-6.31
377.619	69.25
377.834	-43.32
378.049	-19.68
378.264	-38.09
378.478	23.91
378.693	-1.86
378.908	31.47
379.123	-2.44
379.338	49.1
379.553	9.96
379.767	51.04
379.982	40.77
380.197	61.11
380.412	18.49
380.626	31.08
380.841	90.37
381.056	55.49
381.271	104.51
381.485	7.64
381.7	21.97
381.915	11.71
382.129	45.03
382.344	43.29
382.559	23.52
382.773	69.25
382.988	-16.58
383.202	11.51
383.417	-3.41
383.632	129.31
383.846	12.09
384.061	30.89
384.275	23.52
384.49	35.34
384.704	56.85
384.919	44.26
385.133	27.98
385.348	48.91
385.562	-2.44
385.777	70.8
385.991	47.16
386.206	10.74
386.42	31.27
386.634	56.07
386.849	32.05
387.063	28.76
387.277	21.2
387.492	-15.23
387.706	11.9
387.92	-3.02
388.135	56.07
388.349	19.65
388.563	36.7
388.778	22.36
388.992	62.85
389.206	79.9
389.42	90.75
389.635	52.2
389.849	39.99
390.063	60.34
390.277	47.16
390.491	97.92
390.706	64.21
390.92	72.54
391.134	46.97
391.348	80.29
391.562	0.86
391.776	34.37
391.99	12.48
392.205	68.28
392.419	11.12
392.633	26.24
392.847	60.53
393.061	24.11
393.275	87.07
393.489	27.59
393.703	53.36
393.917	101.8
394.131	22.75
394.345	78.16
394.559	66.73
394.773	25.85
394.986	62.85
395.2	64.99
395.414	67.5
395.628	2.21
395.842	47.55
396.056	43.67
396.27	14.42
396.484	62.66
396.697	47.74
396.911	99.28
397.125	80.29
397.339	89.79
397.553	47.74
397.766	111.49
397.98	82.62
398.194	74.87
398.408	18.49
398.621	72.15
398.835	56.46
399.049	48.91
399.262	99.09
399.476	98.5
399.69	80.49
399.903	136.67
400.117	60.72
400.331	87.85
400.544	58.2
400.758	169.22
400.971	63.82
401.185	96.57
401.398	18.87
401.612	107.03
401.826	74.29
402.039	77.77
402.253	46.19
402.466	90.17
402.68	78.94
402.893	83.78
403.106	60.53
403.32	92.3
403.533	103.74
403.747	68.47
403.96	58.4
404.174	103.35
404.387	46.39
404.6	68.67
404.814	116.91
405.027	92.3
405.24	57.24
405.454	58.2
405.667	89.2
405.88	36.51
406.094	91.14
406.307	90.95
406.52	70.02
406.733	48.13
406.947	38.44
407.16	114.78
407.373	98.89
407.586	54.33
407.799	62.27
408.012	104.9
408.226	45.22
408.439	139.77
408.652	50.65
408.865	109.35
409.078	128.73
409.291	95.99
409.504	38.44
409.717	100.64
409.93	81.65
410.143	81.26
410.357	41.54
410.57	36.31
410.783	75.64
410.996	101.8
411.209	90.95
411.421	146.17
411.634	101.8
411.847	54.52
412.06	85.72
412.273	114.78
412.486	73.9
412.699	143.65
412.912	106.06
413.125	123.3
413.338	100.83
413.55	110.71
413.763	105.29
413.976	124.85
414.189	63.63
414.402	94.82
414.615	151.2
414.827	58.79
415.04	131.25
415.253	103.54
415.466	109.55
415.678	128.15
415.891	107.42
416.104	101.22
416.316	115.17
416.529	90.75
416.742	110.52
416.954	157.98
417.167	116.72
417.38	99.86
417.592	133.57
417.805	84.36
418.017	83.59
418.23	110.52
418.442	69.64
418.655	81.45
418.868	133.57
419.08	157.4
419.293	136.09
419.505	130.86
419.718	116.72
419.93	135.32
420.142	103.93
420.355	156.24
420.567	161.67
420.78	127.37
420.992	112.26
421.205	172.52
421.417	86.49
421.629	119.24
421.842	81.84
422.054	79.71
422.266	168.25
422.479	175.81
422.691	90.75
422.903	127.37
423.115	96.18
423.328	118.07
423.54	129.7
423.752	88.24
423.964	93.47
424.177	130.28
424.389	129.12
424.601	200.42
424.813	111.49
425.025	161.28
425.238	158.57
425.45	107.61
425.662	92.89
425.874	388.74
426.086	120.79
426.298	161.67
426.51	169.03
426.722	135.9
426.934	130.86
427.146	152.17
427.358	100.25
427.57	157.98
427.782	116.14
427.994	103.74
428.206	89.98
428.418	95.6
428.63	149.85
428.842	151.4
429.054	147.91
429.266	162.44
429.478	86.3
429.69	141.13
429.902	98.89
430.114	167.48
430.325	156.43
430.537	116.72
430.749	98.5
430.961	65.37
431.173	116.33
431.384	159.34
431.596	67.31
431.808	122.72
432.02	157.4
432.231	170.19
432.443	186.85
432.655	158.18
432.867	119.24
433.078	151.59
433.29	196.93
433.502	173.87
433.713	188.4
433.925	171.93
434.136	157.79
434.348	108.77
434.56	122.53
434.771	236.26
434.983	102.19
435.194	138.8
435.406	151.59
435.617	186.85
435.829	227.54
436.04	199.25
436.252	203.13
436.463	213.4
436.675	167.48
436.886	190.53
437.098	188.21
437.309	217.85
437.521	166.51
437.732	196.54
437.943	188.79
438.155	178.33
438.366	122.92
438.578	216.88
438.789	198.67
439	199.83
439.211	157.6
439.423	190.15
439.634	212.43
439.845	202.74
440.057	164.18
440.268	236.26
440.479	157.4
440.69	189.18
440.902	171.74
441.113	173.48
441.324	171.74
441.535	215.33
441.746	237.61
441.957	147.33
442.168	169.42
442.38	222.31
442.591	212.04
442.802	173.1
443.013	204.29
443.224	207.2
443.435	185.11
443.646	197.9
443.857	193.44
444.068	189.18
444.279	188.21
444.49	264.93
444.701	218.63
444.912	266.1
445.123	200.03
445.334	244.78
445.545	225.41
445.756	223.47
445.967	172.9
446.178	219.21
446.388	254.08
446.599	238.78
446.81	211.07
447.021	197.12
447.232	238.78
447.443	269.2
447.653	215.72
447.864	258.73
448.075	240.71
448.286	265.32
448.496	249.43
448.707	268.81
448.918	232.58
449.129	312.6
449.339	224.44
449.55	257.38
449.761	241.3
449.971	296.32
450.182	234.13
450.393	276.56
450.603	231.61
450.814	285.66
451.024	280.24
451.235	273.65
451.446	290.7
451.656	293.8
451.867	268.23
452.077	260.09
452.288	311.24
452.498	331.58
452.709	262.61
452.919	264.35
453.13	228.31
453.34	315.31
453.55	228.9
453.761	310.46
453.971	296.32
454.182	297.68
454.392	286.83
454.602	328.48
454.813	290.7
455.023	288.38
455.233	265.9
455.444	290.7
455.654	242.07
455.864	288.57
456.075	285.66
456.285	310.85
456.495	274.81
456.705	300
456.916	338.36
457.126	349.02
457.336	324.22
457.546	236.45
457.756	267.65
457.967	337.2
458.177	283.15
458.387	292.25
458.597	270.55
458.807	307.95
459.017	276.36
459.227	264.35
459.437	271.33
459.647	321.31
459.857	313.37
460.068	278.69
460.278	327.71
460.488	299.42
460.698	356.19
460.908	305.23
461.117	260.67
461.327	292.64
461.537	321.7
461.747	342.43
461.957	304.85
462.167	417.41
462.377	331
462.587	326.54
462.797	342.82
463.007	319.18
463.216	341.46
463.426	400.36
463.636	350.38
463.846	265.13
464.056	274.23
464.265	358.13
464.475	286.63
464.685	324.8
464.895	370.72
465.104	325.96
465.314	345.73
465.524	317.44
465.733	336.81
465.943	387.19
466.153	392.42
466.362	383.31
466.572	358.71
466.782	345.34
466.991	327.71
467.201	418.19
467.41	303.68
467.62	360.64
467.829	328.09
468.039	337.78
468.249	346.31
468.458	333.33
468.668	376.53
468.877	356.19
469.086	403.27
469.296	390.87
469.505	328.48
469.715	425.36
469.924	389.13
470.134	413.34
470.343	410.44
470.552	369.75
470.762	357.16
470.971	326.74
471.18	362.97
471.39	381.57
471.599	342.04
471.808	399.78
472.018	367.23
472.227	418.19
472.436	406.76
472.645	394.16
472.855	372.08
473.064	442.02
473.273	404.24
473.482	414.51
473.691	442.79
473.901	440.27
474.11	408.69
474.319	477.09
474.528	419.16
474.737	469.34
474.946	429.23
475.155	446.86
475.364	475.54
475.573	468.17
475.783	483.48
475.992	458.87
476.201	486.58
476.41	441.82
476.619	394.55
476.828	481.54
477.037	421.67
477.245	457.13
477.454	487.94
477.663	445.7
477.872	456.16
478.081	504.4
478.29	416.25
478.499	560.79
478.708	451.51
478.917	574.54
479.125	469.14
479.334	523.78
479.543	490.07
479.752	494.33
479.961	508.86
480.169	542.38
480.378	507.5
480.587	639.06
480.796	535.79
481.004	501.3
481.213	552.26
481.422	533.27
481.63	547.22
481.839	545.09
482.048	601.67
482.256	550.71
482.465	581.9
482.674	562.14
482.882	561.17
483.091	630.53
483.299	603.99
483.508	610.58
483.716	600.5
483.925	598.18
484.134	565.44
484.342	557.3
484.551	609.8
484.759	623.95
484.967	602.63
485.176	649.52
485.384	643.71
485.593	616.58
485.801	595.66
486.01	591.98
486.218	574.93
486.426	514.87
486.635	539.28
486.843	530.17
487.051	562.34
487.26	569.7
487.468	562.34
487.676	634.22
487.885	574.35
488.093	625.3
488.301	640.42
488.509	598.76
488.717	628.02
488.926	614.45
489.134	622.78
489.342	616.2
489.55	605.73
489.758	663.28
489.967	633.63
490.175	753.37
490.383	648.75
490.591	763.64
490.799	648.17
491.007	726.05
491.215	694.47
491.423	685.75
491.631	691.56
491.839	715.98
492.047	730.51
492.255	686.53
492.463	644.87
492.671	664.44
492.879	689.43
493.087	706.1
493.295	726.25
493.503	731.28
493.711	784.37
493.919	773.33
494.127	748.14
494.334	769.84
494.542	706.48
494.75	764.99
494.958	747.36
495.166	777.59
495.374	788.83
495.581	797.74
495.789	790.76
495.997	808.39
496.205	782.04
496.412	759.38
496.62	830.68
496.828	791.34
497.035	800.45
497.243	818.66
497.451	795.41
497.658	793.67
497.866	814.01
498.074	868.84
498.281	768.48
498.489	877.17
498.696	847.34
498.904	818.66
499.112	828.35
499.319	876.01
499.527	803.36
499.734	900.42
499.942	821.38
500.149	813.82
500.357	887.06
500.564	827.96
500.771	881.44
500.979	822.73
501.186	817.11
501.394	851.02
501.601	858.77
501.808	900.62
502.016	841.52
502.223	840.36
502.43	865.36
502.638	892.67
502.845	862.64
503.052	950.99
503.26	898.87
503.467	972.11
503.674	909.92
503.881	915.34
504.089	1001.95
504.296	947.12
504.503	879.69
504.71	932.39
504.917	906.62
505.125	951.77
505.332	943.82
505.539	992.45
505.746	1026.55
505.953	1006.99
506.16	1016.09
506.367	1046.51
506.574	1076.73
506.781	1099.6
506.988	981.22
507.195	1009.5
507.402	1049.22
507.609	1093.98
507.816	1017.25
508.023	1041.86
508.23	1037.02
508.437	1001.56
508.644	1074.99
508.851	1100.18
509.058	1119.94
509.265	1119.75
509.472	1138.73
509.679	1195.89
509.885	1126.33
510.092	1125.17
510.299	1121.1
510.506	1108.31
510.713	1161.4
510.92	1169.35
511.126	1212.16
511.333	1211.58
511.54	1182.13
511.746	1272.81
511.953	1256.73
512.16	1275.71
512.367	1235.8
512.573	1200.15
512.78	1249.36
512.987	1242.58
513.193	1232.89
513.4	1158.69
513.606	1211.97
513.813	1276.29
514.02	1218.17
514.226	1283.85
514.433	1304
514.639	1248.98
514.846	1261.76
515.052	1306.13
515.259	1279.78
515.465	1300.32
515.672	1305.94
515.878	1400.29
516.085	1350.89
516.291	1363.09
516.497	1327.44
516.704	1323.57
516.91	1256.92
517.117	1208.68
517.323	1209.06
517.529	1205.38
517.736	1252.66
517.942	1302.06
518.148	1281.91
518.354	1328.41
518.561	1315.04
518.767	1349.53
518.973	1382.85
519.179	1381.3
519.386	1367.55
519.592	1393.7
519.798	1421.22
520.004	1499.49
520.21	1447.57
520.417	1538.43
520.623	1571.18
520.829	1531.27
521.035	1581.06
521.241	1555.29
521.447	1601.21
521.653	1654.1
521.859	1607.99
522.065	1603.15
522.271	1688.59
522.477	1668.24
522.683	1716.87
522.889	1668.44
523.095	1656.81
523.301	1630.85
523.507	1653.33
523.713	1727.53
523.919	1628.91
524.125	1749.62
524.331	1730.24
524.537	1804.84
524.742	1822.47
524.948	1840.49
525.154	1836.42
525.36	1896.09
525.566	1828.28
525.772	1848.43
525.977	1792.82
526.183	1887.76
526.389	1885.24
526.595	1770.93
526.8	1785.27
527.006	1733.15
527.212	1689.75
527.417	1684.52
527.623	1685.49
527.829	1769.38
528.034	1833.7
528.24	1842.81
528.446	1781.78
528.651	1936.58
528.857	1923.6
529.062	1998.39
529.268	1993.35
529.473	1971.46
529.679	1979.6
529.884	2068.14
530.09	2006.33
530.295	2000.71
530.501	2000.13
530.706	2014.86
530.912	1991.41
531.117	2015.63
531.323	2059.03
531.528	2100.49
531.733	2095.46
531.939	2082.86
532.144	2082.09
532.35	2065.23
532.555	2106.89
532.76	2088.68
532.966	2035.59
533.171	2030.36
533.376	2013.7
533.581	1984.05
533.787	2034.23
533.992	2104.76
534.197	2098.94
534.402	2098.36
534.607	2151.06
534.813	2212.87
535.018	2091.58
535.223	2134.79
535.428	2111.54
535.633	2200.27
535.838	2187.1
536.043	2208.99
536.249	2278.94
536.454	2205.12
536.659	2195.43
536.864	2167.72
537.069	2170.82
537.274	2176.64
537.479	2202.02
537.684	2183.03
537.889	2170.63
538.094	2255.3
538.299	2217.71
538.504	2232.44
538.708	2212.48
538.913	2269.44
539.118	2243.87
539.323	2234.37
539.528	2193.49
539.733	2254.14
539.938	2246.97
540.142	2234.96
540.347	2230.5
540.552	2231.08
540.757	2151.06
540.962	2204.34
541.166	2166.17
541.371	2181.29
541.576	2195.04
541.781	2107.86
541.985	2248.52
542.19	2235.34
542.395	2317.1
542.599	2319.04
542.804	2294.63
543.008	2324.08
543.213	2249.68
543.418	2260.53
543.622	2280.68
543.827	2226.43
544.031	2318.07
544.236	2333.38
544.44	2315.55
544.645	2388.98
544.849	2322.34
545.054	2347.52
545.258	2417.46
545.463	2407.39
545.667	2275.64
545.872	2352.56
546.076	2347.13
546.281	2339.58
546.485	2307.8
546.689	2355.66
546.894	2368.45
547.098	2373.48
547.302	2325.05
547.507	2368.83
547.711	2365.73
547.915	2394.8
548.119	2305.67
548.324	2335.51
548.528	2386.08
548.732	2344.03
548.936	2378.13
549.141	2370
549.345	2379.49
549.549	2368.64
549.753	2389.18
549.957	2446.91
550.161	2454.28
550.366	2420.95
550.57	2357.79
550.774	2376.2
550.978	2416.3
551.182	2417.66
551.386	2353.53
551.59	2390.73
551.794	2377.36
551.998	2415.33
552.202	2408.36
552.406	2346.36
552.61	2460.28
552.814	2453.31
553.018	2510.46
553.222	2374.65
553.426	2350.62
553.63	2447.69
553.833	2422.11
554.037	2334.93
554.241	2401.19
554.445	2434.71
554.649	2383.56
554.853	2399.45
555.056	2438.97
555.26	2458.15
555.464	2398.67
555.668	2425.21
555.871	2440.71
556.075	2433.55
556.279	2418.43
556.483	2343.45
556.686	2373.68
556.89	2376.2
557.094	2435.87
557.297	2304.51
557.501	2359.73
557.704	2313.81
557.908	2378.52
558.112	2297.15
558.315	2396.54
558.519	2340.35
558.722	2335.9
558.926	2300.05
559.129	2205.51
559.333	2250.84
559.536	2239.8
559.74	2269.83
559.943	2195.24
560.147	2217.13
560.35	2206.09
560.553	2243.67
560.757	2216.74
560.96	2297.92
561.164	2243.87
561.367	2350.23
561.57	2218.68
561.774	2282.23
561.977	2222.94
562.18	2228.56
562.384	2312.65
562.587	2204.73
562.79	2255.1
562.993	2236.5
563.197	2227.01
563.4	2278.55
563.603	2279.71
563.806	2311.29
564.009	2188.84
564.212	2211.51
564.416	2139.63
564.619	2202.41
564.822	2132.66
565.025	2186.71
565.228	2189.42
565.431	2168.11
565.634	2093.13
565.837	2098.56
566.04	2072.21
566.243	2117.35
566.446	2012.15
566.649	2152.03
566.852	2035.78
567.055	2065.04
567.258	2108.24
567.461	2152.42
567.664	2146.99
567.867	2071.04
568.07	2100.88
568.273	2094.68
568.475	2117.54
568.678	2041.4
568.881	2023.19
569.084	1999.94
569.287	1942.78
569.489	1928.83
569.692	2000.52
569.895	2010.6
570.098	1926.9
570.3	1917.6
570.503	1892.8
570.706	1876.52
570.909	1882.14
571.111	1817.82
571.314	1820.34
571.516	1855.99
571.719	1890.67
571.922	1877.49
572.124	1871.49
572.327	1906.94
572.529	1828.28
572.732	1846.1
572.935	1880.98
573.137	1920.7
573.34	1804.06
573.542	1900.16
573.745	1896.67
573.947	1877.3
574.15	1821.5
574.352	1796.89
574.554	1885.63
574.757	1817.43
574.959	1762.79
575.162	1777.13
575.364	1754.85
575.566	1851.72
575.769	1758.92
575.971	1777.32
576.173	1706.22
576.376	1770.35
576.578	1786.43
576.78	1823.63
576.982	1696.53
577.185	1766.09
577.387	1712.81
577.589	1737.41
577.791	1739.35
577.993	1771.9
578.196	1744.19
578.398	1723.66
578.6	1753.49
578.802	1714.16
579.004	1708.35
579.206	1707.19
579.408	1728.31
579.61	1672.51
579.812	1716.1
580.014	1698.28
580.216	1706.22
580.418	1716.29
580.62	1678.9
580.822	1654.49
581.024	1715.71
581.226	1737.61
581.428	1700.99
581.63	1794.76
581.832	1661.66
582.034	1764.15
582.236	1741.87
582.438	1771.12
582.64	1805.61
582.841	1769.57
583.043	1835.06
583.245	1755.24
583.447	1750.2
583.649	1754.46
583.85	1778.1
584.052	1756.79
584.254	1700.02
584.456	1773.45
584.657	1704.28
584.859	1773.06
585.061	1699.24
585.262	1708.74
585.464	1705.25
585.666	1728.89
585.867	1669.02
586.069	1734.89
586.27	1687.23
586.472	1693.04
586.674	1663.4
586.875	1686.26
587.077	1671.73
587.278	1653.33
587.48	1650.81
587.681	1726.37
587.883	1676.77
588.084	1608.57
588.285	1612.45
588.487	1633.37
588.688	1640.15
588.89	1558.58
589.091	1494.07
589.292	1475.85
589.494	1442.14
589.695	1445.63
589.896	1390.41
590.098	1368.52
590.299	1472.75
590.5	1419.28
590.702	1446.02
590.903	1474.5
591.104	1564.98
591.305	1498.72
591.507	1550.06
591.708	1522.55
591.909	1518.09
592.11	1564.78
592.311	1583.19
592.512	1515.57
592.714	1453.96
592.915	1472.17
593.116	1511.89
593.317	1532.23
593.518	1514.22
593.719	1510.92
593.92	1562.65
594.121	1572.92
594.322	1519.25
594.523	1515.18
594.724	1482.25
594.925	1507.24
595.126	1508.21
595.327	1506.85
595.528	1521
595.729	1512.47
595.929	1493.48
596.13	1502.98
596.331	1541.15
596.532	1528.75
596.733	1579.7
596.934	1549.86
597.135	1535.72
597.335	1527
597.536	1494.84
597.737	1518.67
597.938	1504.53
598.138	1551.8
598.339	1547.93
598.54	1539.01
598.74	1491.35
598.941	1504.53
599.142	1552.38
599.342	1529.52
599.543	1500.46
599.744	1500.65
599.944	1493.29
600.145	1516.35
600.345	1524.29
600.546	1536.3
600.746	1521.38
600.947	1601.6
601.147	1507.43
601.348	1534.75
601.548	1487.67
601.749	1542.7
601.949	1478.37
602.15	1477.21
602.35	1451.63
602.551	1508.21
602.751	1458.8
602.951	1481.86
603.152	1414.05
603.352	1506.27
603.552	1504.14
603.753	1532.04
603.953	1534.75
604.153	1499.49
604.354	1523.9
604.554	1497.75
604.754	1521.38
604.954	1469.07
605.155	1504.72
605.355	1503.37
605.555	1558.78
605.755	1550.64
605.955	1510.15
606.155	1520.22
606.356	1517.7
606.556	1527.97
606.756	1542.7
606.956	1448.54
607.156	1564.98
607.356	1465.2
607.556	1472.17
607.756	1527
607.956	1497.94
608.156	1495.62
608.356	1440.98
608.556	1481.86
608.756	1457.45
608.956	1445.24
609.156	1468.88
609.356	1428.58
609.556	1388.09
609.755	1445.24
609.955	1413.47
610.155	1430.52
610.355	1457.25
610.555	1434.78
610.755	1395.84
610.954	1377.24
611.154	1406.69
611.354	1468.88
611.554	1384.4
611.753	1410.95
611.953	1372.2
612.153	1440.01
612.352	1414.63
612.552	1380.53
612.752	1335
612.951	1401.07
613.151	1405.72
613.351	1338.1
613.55	1392.93
613.75	1376.65
613.949	1330.16
614.149	1364.06
614.348	1359.8
614.548	1329.38
614.747	1305.16
614.947	1326.47
615.146	1259.24
615.346	1351.47
615.545	1354.96
615.745	1350.31
615.944	1354.57
616.144	1337.32
616.343	1349.14
616.542	1277.84
616.742	1273.58
616.941	1290.63
617.14	1258.66
617.34	1269.9
617.539	1300.9
617.738	1248.98
617.938	1362.51
618.137	1305.55
