Data from gum_young_FLMT105791__149__17-41-17-039.txt Node

Date: Mon Mar 20 17:41:17 GMT 2023
User: antho
Spectrometer: FLMT10579
Trigger mode: 0
Integration Time (sec): 1.000000E-1
Scans to average: 10
Electric dark correction enabled: true
Nonlinearity correction enabled: false
Boxcar width: 0
XAxis mode: Wavelengths
Number of Pixels in Spectrum: 3648
>>>>>Begin Spectral Data<<<<<
345.248	-144.42
345.464	-144.42
345.681	-144.42
345.898	-142.68
346.114	-149.27
346.331	-41.35
346.548	38.28
346.764	5.93
346.981	-6.67
347.197	-0.86
347.414	4.18
347.631	-22.94
347.847	59.4
348.064	-17.91
348.28	23.94
348.497	-24.11
348.713	-17.91
348.93	29.95
349.146	22.01
349.363	-8.61
349.579	32.66
349.796	-4.15
350.012	-13.84
350.229	28.59
350.445	22.2
350.661	-10.54
350.878	19.68
351.094	14.84
351.311	12.51
351.527	1.08
351.743	-18.29
351.96	46.61
352.176	44.48
352.392	14.84
352.609	47.19
352.825	-13.45
353.041	-9.96
353.257	6.89
353.474	9.8
353.69	17.36
353.906	13.29
354.122	-28.56
354.339	50.1
354.555	8.83
354.771	2.63
354.987	72.77
355.203	55.14
355.42	-2.79
355.636	-2.99
355.852	-14.61
356.068	1.86
356.284	-44.06
356.5	67.34
356.716	17.16
356.932	-4.92
357.148	32.47
357.364	-13.26
357.58	59.21
357.796	38.47
358.012	72.19
358.228	35.76
358.444	-34.18
358.66	36.34
358.876	1.66
359.092	1.08
359.308	6.89
359.524	2.63
359.74	-12.09
359.956	2.63
360.172	17.16
360.388	40.61
360.604	-5.7
360.819	95.44
361.035	22.59
361.251	28.59
361.467	-15.19
361.683	45.84
361.898	-1.05
362.114	47.58
362.33	20.84
362.546	50.68
362.762	12.32
362.977	39.06
363.193	-17.52
363.409	18.91
363.624	8.64
363.84	7.48
364.056	23.75
364.271	26.27
364.487	18.33
364.703	20.65
364.918	2.63
365.134	-21.2
365.35	-0.08
365.565	94.27
365.781	29.37
365.996	47.58
366.212	78.19
366.427	24.14
366.643	-2.02
366.858	-5.7
367.074	-8.61
367.289	57.66
367.505	115.59
367.72	-18.87
367.936	0.5
368.151	38.86
368.367	28.59
368.582	20.07
368.798	35.18
369.013	53.78
369.228	14.45
369.444	20.65
369.659	68.7
369.874	47.77
370.09	76.64
370.305	-29.53
370.52	8.83
370.736	67.92
370.951	19.29
371.166	70.06
371.381	97.37
371.597	33.24
371.812	-12.09
372.027	-8.02
372.242	14.84
372.458	74.32
372.673	9.22
372.888	2.83
373.103	35.18
373.318	116.56
373.533	37.51
373.749	19.88
373.964	-23.72
374.179	61.92
374.394	-1.63
374.609	40.41
374.824	-2.02
375.039	57.27
375.254	23.17
375.469	68.12
375.684	48.94
375.899	45.84
376.114	25.3
376.329	46.22
376.544	55.14
376.759	45.45
376.974	-12.09
377.189	33.83
377.404	6.12
377.619	47.39
377.834	-7.25
378.049	-21.2
378.264	-1.63
378.478	49.52
378.693	9.03
378.908	58.62
379.123	22.39
379.338	66.96
379.553	38.09
379.767	34.99
379.982	61.14
380.197	33.05
380.412	34.41
380.626	54.56
380.841	97.96
381.056	72.19
381.271	100.86
381.485	7.48
381.7	21.23
381.915	39.64
382.129	6.51
382.344	45.64
382.559	22.59
382.773	49.91
382.988	-27.59
383.202	28.21
383.417	6.31
383.632	125.47
383.846	11.35
384.061	19.68
384.275	20.26
384.49	73.93
384.704	36.92
384.919	53.97
385.133	32.08
385.348	48.94
385.562	12.32
385.777	79.36
385.991	48.36
386.206	28.59
386.42	10.77
386.634	81.87
386.849	49.91
387.063	30.34
387.277	20.26
387.492	14.06
387.706	19.88
387.92	5.73
388.135	46.81
388.349	70.25
388.563	49.52
388.778	44.48
388.992	65.79
389.206	36.73
389.42	116.56
389.635	53.59
389.849	84.97
390.063	88.85
390.277	49.91
390.491	99.7
390.706	89.82
390.92	63.27
391.134	44.67
391.348	85.17
391.562	-2.99
391.776	42.93
391.99	9.03
392.205	64.24
392.419	38.47
392.633	45.26
392.847	81.29
393.061	28.4
393.275	83.81
393.489	36.15
393.703	52.23
393.917	65.21
394.131	13.29
394.345	71.99
394.559	95.63
394.773	57.27
394.986	58.82
395.2	36.92
395.414	84.01
395.628	36.73
395.842	59.79
396.056	67.54
396.27	-1.44
396.484	48.74
396.697	71.99
396.911	72.38
397.125	74.32
397.339	77.81
397.553	55.91
397.766	129.92
397.98	94.47
398.194	102.22
398.408	58.82
398.621	75.29
398.835	97.76
399.049	82.65
399.262	113.07
399.476	85.94
399.69	119.07
399.903	138.64
400.117	100.47
400.331	85.75
400.544	76.45
400.758	182.04
400.971	105.71
401.185	123.92
401.398	97.96
401.612	133.99
401.826	105.9
402.039	102.02
402.253	68.89
402.466	101.83
402.68	109.77
402.893	115.78
403.106	100.67
403.32	116.17
403.533	111.91
403.747	102.61
403.96	137.87
404.174	138.25
404.387	64.44
404.6	122.95
404.814	132.44
405.027	88.85
405.24	117.72
405.454	115.39
405.667	137.48
405.88	48.36
406.094	120.62
406.307	141.55
406.52	88.66
406.733	73.54
406.947	55.91
407.16	164.99
407.373	153.95
407.586	112.1
407.799	97.37
408.012	141.35
408.226	121.79
408.439	176.04
408.652	64.82
408.865	116.75
409.078	163.83
409.291	148.33
409.504	76.06
409.717	140
409.93	123.14
410.143	126.44
410.357	79.36
410.57	59.4
410.783	116.17
410.996	116.94
411.209	118.3
411.421	175.84
411.634	121.01
411.847	117.14
412.06	151.04
412.273	86.91
412.486	154.14
412.699	219.24
412.912	118.69
413.125	171.77
413.338	137.48
413.55	177.59
413.763	132.83
413.976	133.99
414.189	134.96
414.402	143.68
414.615	198.51
414.827	109
415.04	153.37
415.253	140.58
415.466	183.98
415.678	202.77
415.891	145.04
416.104	143.1
416.316	136.7
416.529	125.66
416.742	153.56
416.954	176.81
417.167	142.52
417.38	140
417.592	183.79
417.805	132.05
418.017	110.55
418.23	189.99
418.442	124.3
418.655	148.91
418.868	148.91
419.08	205.1
419.293	200.64
419.505	162.09
419.718	183.01
419.93	184.37
420.142	135.93
420.355	202.19
420.567	207.23
420.78	183.2
420.992	168.48
421.205	207.42
421.417	130.7
421.629	151.04
421.842	149.1
422.054	108.61
422.266	175.65
422.479	215.17
422.691	157.82
422.903	157.82
423.115	169.06
423.328	158.99
423.54	172.94
423.752	166.54
423.964	188.24
424.177	197.35
424.389	167.51
424.601	268.26
424.813	204.52
425.025	218.08
425.238	216.33
425.45	167.51
425.662	188.82
425.874	463.36
426.086	173.52
426.298	185.34
426.51	197.15
426.722	194.64
426.934	174.29
427.146	223.89
427.358	174.87
427.57	215.56
427.782	181.07
427.994	184.56
428.206	170.22
428.418	142.9
428.63	211.88
428.842	254.31
429.054	189.4
429.266	223.5
429.478	165.38
429.69	186.69
429.902	152.4
430.114	182.04
430.325	182.43
430.537	167.32
430.749	163.05
430.961	123.34
431.173	155.89
431.384	199.87
431.596	84.78
431.808	159.76
432.02	204.32
432.231	223.89
432.443	223.5
432.655	220.98
432.867	166.74
433.078	191.73
433.29	259.93
433.502	240.36
433.713	267.48
433.925	229.12
434.136	255.28
434.348	173.71
434.56	187.85
434.771	295.77
434.983	184.17
435.194	197.15
435.406	191.92
435.617	287.83
435.829	273.49
436.04	246.56
436.252	245.59
436.463	311.27
436.675	278.14
436.886	260.9
437.098	299.06
437.309	332.97
437.521	261.48
437.732	262.06
437.943	245.2
438.155	265.55
438.366	206.84
438.578	298.68
438.789	252.57
439	260.9
439.211	272.72
439.423	245.98
439.634	248.11
439.845	281.82
440.057	270.2
440.268	314.18
440.479	237.65
440.69	270.97
440.902	260.9
441.113	239
441.324	248.3
441.535	325.03
441.746	333.94
441.957	266.13
442.168	249.47
442.38	298.29
442.591	309.53
442.802	263.42
443.013	300.61
443.224	314.37
443.435	261.48
443.646	279.69
443.857	279.5
444.068	282.21
444.279	277.17
444.49	381.21
444.701	311.46
444.912	406.01
445.123	339.17
445.334	301.2
445.545	323.48
445.756	319.99
445.967	288.6
446.178	317.66
446.388	338.78
446.599	345.76
446.81	343.05
447.021	328.71
447.232	346.53
447.443	358.16
447.653	324.45
447.864	368.04
448.075	344.6
448.286	359.32
448.496	347.7
448.707	347.5
448.918	311.85
449.129	418.8
449.339	338.98
449.55	368.04
449.761	345.95
449.971	359.9
450.182	349.25
450.393	397.1
450.603	325.03
450.814	425.58
451.024	376.95
451.235	408.73
451.446	418.8
451.656	413.57
451.867	362.81
452.077	377.15
452.288	452.32
452.498	439.34
452.709	369.78
452.919	393.81
453.13	364.55
453.34	424.61
453.55	313.4
453.761	409.89
453.971	374.05
454.182	418.22
454.392	401.94
454.602	484.48
454.813	426.94
455.023	413.18
455.233	356.61
455.444	370.95
455.654	308.95
455.864	397.68
456.075	391.68
456.285	388.96
456.495	406.79
456.705	407.18
456.916	438.76
457.126	432.75
457.336	415.12
457.546	366.3
457.756	397.29
457.967	497.46
458.177	391.29
458.387	420.93
458.597	388.58
458.807	385.09
459.017	411.44
459.227	388.77
459.437	409.5
459.647	457.36
459.857	434.49
460.068	386.64
460.278	464.72
460.488	430.23
460.698	466.08
460.908	454.45
461.117	400.2
461.327	405.82
461.537	452.9
461.747	424.81
461.957	437.79
462.167	522.07
462.377	472.66
462.587	429.26
462.797	477.7
463.007	460.46
463.216	494.94
463.426	516.64
463.636	482.74
463.846	412.6
464.056	421.71
464.265	504.44
464.475	409.31
464.685	454.64
464.895	471.69
465.104	444.57
465.314	489.52
465.524	456
465.733	430.81
465.943	521.1
466.153	511.22
466.362	497.07
466.572	458.33
466.782	477.31
466.991	490.87
467.201	492.23
467.41	423.06
467.62	500.56
467.829	497.85
468.039	490.87
468.249	468.01
468.458	462.2
468.668	496.11
468.877	524.78
469.086	531.17
469.296	532.14
469.505	492.81
469.715	579.03
469.924	522.46
470.134	577.67
470.343	537.37
470.552	525.36
470.762	521.87
470.971	493.39
471.18	548.42
471.39	520.32
471.599	501.14
471.808	546.67
472.018	542.22
472.227	569.73
472.436	590.07
472.645	530.59
472.855	530.21
473.064	590.27
473.273	582.32
473.482	553.65
473.691	614.29
473.901	606.54
474.11	553.65
474.319	663.7
474.528	588.72
474.737	662.73
474.946	606.74
475.155	595.89
475.364	646.84
475.573	637.74
475.783	639.67
475.992	660.02
476.201	679.78
476.41	602.86
476.619	601.31
476.828	622.82
477.037	603.44
477.245	627.85
477.454	677.45
477.663	660.6
477.872	655.56
478.081	722.98
478.29	630.57
478.499	754.76
478.708	705.35
478.917	741.2
479.125	673.58
479.334	685.78
479.543	668.54
479.752	714.07
479.961	728.22
480.169	755.34
480.378	714.65
480.587	848.73
480.796	760.18
481.004	754.18
481.213	759.41
481.422	744.88
481.63	758.25
481.839	789.25
482.048	830.51
482.256	816.37
482.465	806.68
482.674	817.53
482.882	827.61
483.091	848.73
483.299	782.27
483.508	833.42
483.716	846.21
483.925	862.09
484.134	764.06
484.342	809.4
484.551	819.86
484.759	847.18
484.967	853.18
485.176	883.99
485.384	869.46
485.593	892.51
485.801	831.87
486.01	857.44
486.218	809.4
486.426	712.33
486.635	743.71
486.843	753.4
487.051	763.09
487.26	754.76
487.468	825.09
487.676	855.89
487.885	813.08
488.093	897.16
488.301	891.93
488.509	872.36
488.717	913.82
488.926	916.15
489.134	891.74
489.342	909.76
489.55	858.41
489.758	888.44
489.967	907.82
490.175	1003.92
490.383	971.37
490.591	1006.82
490.799	911.31
491.007	1012.44
491.215	992.29
491.423	975.24
491.631	934.75
491.839	958.19
492.047	999.85
492.255	916.73
492.463	934.56
492.671	934.36
492.879	983.19
493.087	976.99
493.295	1008.37
493.503	1008.95
493.711	1070.37
493.919	1067.08
494.127	1070.37
494.334	1058.17
494.542	1016.12
494.75	1027.55
494.958	1024.65
495.166	1096.92
495.374	1097.88
495.581	1082.39
495.789	1091.1
495.997	1148.26
496.205	1034.14
496.412	1086.26
496.62	1079.87
496.828	1103.5
497.035	1095.56
497.243	1140.9
497.451	1090.33
497.658	1134.12
497.866	1137.41
498.074	1194.18
498.281	1082.39
498.489	1215.49
498.696	1142.64
498.904	1086.45
499.112	1087.62
499.319	1170.54
499.527	1136.83
499.734	1191.08
499.942	1129.47
500.149	1137.8
500.357	1171.51
500.564	1116.87
500.771	1155.43
500.979	1109.32
501.186	1143.03
501.394	1172.67
501.601	1145.16
501.808	1189.14
502.016	1150.97
502.223	1140.7
502.43	1157.56
502.638	1163.76
502.845	1162.79
503.052	1262.38
503.26	1209.1
503.467	1283.3
503.674	1258.7
503.881	1245.13
504.089	1296.67
504.296	1215.68
504.503	1201.73
504.71	1252.69
504.917	1242.61
505.125	1281.36
505.332	1268.96
505.539	1320.5
505.746	1398
505.953	1342.2
506.16	1373.2
506.367	1417.18
506.574	1417.18
506.781	1422.41
506.988	1348.4
507.195	1390.83
507.402	1384.63
507.609	1448.76
507.816	1362.54
508.023	1412.53
508.23	1364.67
508.437	1359.44
508.644	1428.61
508.851	1469.88
509.058	1460.97
509.265	1484.8
509.472	1506.5
509.679	1561.91
509.885	1477.24
510.092	1497
510.299	1491.97
510.506	1521.8
510.713	1520.25
510.92	1547.18
511.126	1584.77
511.333	1607.83
511.54	1617.71
511.746	1652
511.953	1662.66
512.16	1691.53
512.367	1662.85
512.573	1616.35
512.78	1657.81
512.987	1639.99
513.193	1665.37
513.4	1601.82
513.606	1673.31
513.813	1646.19
514.02	1651.03
514.226	1716.52
514.433	1690.17
514.639	1679.71
514.846	1690.17
515.052	1666.34
515.259	1741.51
515.465	1758.37
515.672	1737.83
515.878	1845.36
516.085	1774.45
516.291	1853.31
516.497	1784.72
516.704	1804.48
516.91	1715.94
517.117	1687.07
517.323	1614.8
517.529	1666.34
517.736	1659.17
517.942	1701.41
518.148	1736.86
518.354	1804.09
518.561	1794.99
518.767	1748.68
518.973	1803.71
519.179	1872.1
519.386	1856.6
519.592	1874.23
519.798	1865.32
520.004	1993.77
520.21	1985.05
520.417	2049.96
520.623	2078.05
520.829	2070.11
521.035	2090.45
521.241	2089.68
521.447	2140.05
521.653	2244.87
521.859	2136.56
522.065	2197.21
522.271	2256.11
522.477	2261.72
522.683	2296.02
522.889	2254.56
523.095	2224.52
523.301	2207.86
523.507	2193.72
523.713	2260.37
523.919	2213.29
524.125	2342.52
524.331	2335.35
524.537	2436.68
524.742	2451.4
524.948	2430.67
525.154	2447.72
525.36	2555.06
525.566	2415.95
525.772	2515.34
525.977	2414.4
526.183	2473.68
526.389	2484.73
526.595	2419.82
526.8	2437.45
527.006	2340.97
527.212	2285.17
527.417	2244.09
527.623	2329.34
527.829	2416.72
528.034	2399.09
528.24	2413.62
528.446	2484.73
528.651	2562.23
528.857	2561.65
529.062	2646.51
529.268	2625.39
529.473	2667.24
529.679	2672.86
529.884	2755
530.09	2718.77
530.295	2717.42
530.501	2699.79
530.706	2719.16
530.912	2732.72
531.117	2747.45
531.323	2772.83
531.528	2866.41
531.733	2823.59
531.939	2739.7
532.144	2853.62
532.35	2823.59
532.555	2847.42
532.76	2792.2
532.966	2788.72
533.171	2718.77
533.376	2721.1
533.581	2735.63
533.787	2753.26
533.992	2824.37
534.197	2823.4
534.402	2848
534.607	2824.56
534.813	2926.08
535.018	2859.63
535.223	2905.16
535.428	2894.5
535.633	2970.65
535.838	2997.58
536.043	2992.73
536.249	3103.75
536.454	2963.09
536.659	3009.78
536.864	2985.76
537.069	2974.13
537.274	2979.36
537.479	2988.86
537.684	2967.93
537.889	2922.4
538.094	3081.08
538.299	3017.14
538.504	3044.46
538.708	3042.91
538.913	3094.45
539.118	3051.05
539.323	3096.58
539.528	3024.12
539.733	3001.65
539.938	3056.48
540.142	3017.73
540.347	3011.14
540.552	2937.13
540.757	2945.26
540.962	2949.72
541.166	2923.76
541.371	2942.16
541.576	2965.03
541.781	2901.48
541.985	3070.23
542.19	2989.63
542.395	3160.91
542.599	3117.12
542.804	3078.76
543.008	3127.58
543.213	3103.36
543.418	3066.16
543.622	3142.31
543.827	3022.38
544.031	3126.22
544.236	3159.16
544.44	3133.97
544.645	3231.24
544.849	3127
545.054	3228.72
545.258	3243.83
545.463	3231.62
545.667	3135.14
545.872	3220.19
546.076	3185.9
546.281	3171.95
546.485	3115.76
546.689	3159.16
546.894	3188.61
547.098	3221.35
547.302	3118.28
547.507	3160.52
547.711	3191.32
547.915	3223.87
548.119	3156.26
548.324	3135.33
548.528	3242.67
548.732	3181.64
548.936	3262.43
549.141	3225.62
549.345	3203.14
549.549	3261.07
549.753	3262.62
549.957	3283.35
550.161	3314.16
550.366	3255.84
550.57	3268.24
550.774	3272.5
550.978	3299.43
551.182	3279.48
551.386	3242.67
551.59	3211.86
551.794	3249.06
551.998	3312.61
552.202	3260.69
552.406	3220.39
552.61	3325.59
552.814	3304.47
553.018	3321.13
553.222	3238.21
553.426	3242.28
553.63	3322.1
553.833	3257.97
554.037	3217.29
554.241	3289.75
554.445	3280.25
554.649	3300.02
554.853	3257.97
555.056	3293.82
555.26	3296.72
555.464	3297.88
555.668	3309.7
555.871	3317.45
556.075	3333.34
556.279	3233.95
556.483	3236.27
556.686	3213.99
556.89	3248.48
557.094	3242.47
557.297	3130.68
557.501	3200.43
557.704	3102.2
557.908	3218.84
558.112	3137.46
558.315	3243.44
558.519	3143.27
558.722	3115.37
558.926	3125.45
559.129	3054.93
559.333	2995.45
559.536	3022.57
559.74	3009.98
559.943	2978.01
560.147	3014.82
560.35	2987.89
560.553	3043.69
560.757	3026.64
560.96	3121.57
561.164	3022.57
561.367	3117.7
561.57	3080.69
561.774	3048.92
561.977	3015.98
562.18	2986.53
562.384	3083.21
562.587	3017.34
562.79	3056.48
562.993	3004.36
563.197	3053.57
563.4	3077.01
563.603	3074.49
563.806	3089.41
564.009	2948.36
564.212	2993.51
564.416	2917.17
564.619	2979.17
564.822	2898.18
565.025	3009.59
565.228	2908.45
565.431	2969.48
565.634	2847.62
565.837	2870.28
566.04	2831.34
566.243	2819.52
566.446	2734.47
566.649	2802.47
566.852	2736.79
567.055	2796.47
567.258	2822.04
567.461	2884.43
567.664	2850.72
567.867	2773.41
568.07	2825.34
568.273	2794.53
568.475	2830.76
568.678	2733.89
568.881	2735.24
569.084	2724.01
569.287	2587.8
569.489	2623.64
569.692	2704.24
569.895	2699.4
570.098	2633.14
570.3	2615.51
570.503	2540.33
570.706	2573.66
570.909	2516.7
571.111	2440.36
571.314	2434.55
571.516	2471.94
571.719	2527.55
571.922	2478.14
572.124	2470.78
572.327	2517.08
572.529	2436.48
572.732	2456.05
572.935	2487.05
573.137	2563.39
573.34	2427.38
573.542	2540.72
573.745	2517.66
573.947	2469.62
574.15	2437.07
574.352	2403.74
574.554	2482.98
574.757	2404.52
574.959	2365.57
575.162	2396.18
575.364	2366.93
575.566	2459.54
575.769	2316.17
575.971	2328.37
576.173	2254.56
576.376	2325.66
576.578	2346.39
576.78	2352.98
576.982	2274.9
577.185	2339.8
577.387	2252.42
577.589	2278.39
577.791	2320.82
577.993	2343.1
578.196	2263.47
578.398	2291.37
578.6	2285.75
578.802	2195.27
579.004	2214.06
579.206	2197.59
579.408	2286.14
579.61	2190.62
579.812	2258.04
580.014	2212.51
580.216	2215.61
580.418	2266.76
580.62	2228.98
580.822	2196.63
581.024	2243.12
581.226	2297.18
581.428	2232.86
581.63	2339.03
581.832	2246.61
582.034	2320.82
582.236	2261.92
582.438	2325.85
582.64	2340
582.841	2319.65
583.043	2406.84
583.245	2300.28
583.447	2374.49
583.649	2291.17
583.85	2319.85
584.052	2321.79
584.254	2264.24
584.456	2326.24
584.657	2290.79
584.859	2286.91
585.061	2226.85
585.262	2230.92
585.464	2184.03
585.666	2276.64
585.867	2169.89
586.069	2255.14
586.27	2225.69
586.472	2212.32
586.674	2209.22
586.875	2180.35
587.077	2172.99
587.278	2175.12
587.48	2206.89
587.681	2250.1
587.883	2182.68
588.084	2086.96
588.285	2125.33
588.487	2127.46
588.688	2147.8
588.89	2022.25
589.091	1975.95
589.292	1923.05
589.494	1900.19
589.695	1873.45
589.896	1789.37
590.098	1790.92
590.299	1841.29
590.5	1832.77
590.702	1904.07
590.903	1924.99
591.104	1999.78
591.305	1992.61
591.507	2016.44
591.708	2006.17
591.909	1940.1
592.11	2021.28
592.311	1998.23
592.512	1933.9
592.714	1923.25
592.915	1950.57
593.116	1927.51
593.317	1993
593.518	1983.7
593.719	1955.02
593.92	1989.12
594.121	2031.17
594.322	2001.91
594.523	1994.55
594.724	1923.25
594.925	1941.46
595.126	1927.12
595.327	1927.9
595.528	1955.8
595.729	1953.67
595.929	1935.65
596.13	1961.03
596.331	2025.35
596.532	2005.2
596.733	2055.96
596.934	1998.42
597.135	2000.36
597.335	2005.4
597.536	1948.24
597.737	1960.06
597.938	1939.33
598.138	1975.95
598.339	1968.2
598.54	1989.32
598.74	1946.89
598.941	1947.27
599.142	2006.75
599.342	1995.71
599.543	1939.91
599.744	1940.69
599.944	1952.31
600.145	1962.97
600.345	1946.11
600.546	2015.28
600.746	2010.82
600.947	2016.05
601.147	1949.99
601.348	2009.47
601.548	1950.18
601.749	1952.5
601.949	1918.4
602.15	1940.69
602.35	1940.88
602.551	1974.98
602.751	1934.1
602.951	1916.66
603.152	1897.29
603.352	1991.45
603.552	1948.44
603.753	1973.23
603.953	2011.21
604.153	1935.07
604.354	1960.83
604.554	1947.85
604.754	1970.91
604.954	1916.47
605.155	1967.62
605.355	1941.27
605.555	1961.42
605.755	1987.77
605.955	1937.2
606.155	1955.6
606.356	1966.65
606.556	1985.83
606.756	1932.16
606.956	1866.29
607.156	1936.81
607.356	1876.94
607.556	1895.54
607.756	1896.9
607.956	1964.32
608.156	1874.04
608.356	1851.56
608.556	1929.64
608.756	1911.62
608.956	1877.72
609.156	1878.1
609.356	1805.64
609.556	1812.04
609.755	1892.05
609.955	1814.36
610.155	1834.9
610.355	1859.12
610.555	1794.6
610.755	1807.58
610.954	1751.01
611.154	1839.36
611.354	1862.02
611.554	1802.16
611.753	1831.99
611.953	1769.99
612.153	1834.12
612.352	1841.29
612.552	1742.48
612.752	1748.1
612.951	1785.49
613.151	1757.4
613.351	1729.69
613.55	1762.44
613.75	1787.04
613.949	1730.47
614.149	1741.13
614.348	1703.34
614.548	1673.7
614.747	1672.15
614.947	1668.28
615.146	1664.6
615.346	1777.16
615.545	1753.72
615.745	1721.94
615.944	1705.48
616.144	1677.96
616.343	1727.76
616.542	1677.77
616.742	1671.76
