Data from gum_young_FLMT105791__79__17-39-37-043.txt Node

Date: Mon Mar 20 17:39:37 GMT 2023
User: antho
Spectrometer: FLMT10579
Trigger mode: 0
Integration Time (sec): 1.000000E-1
Scans to average: 10
Electric dark correction enabled: true
Nonlinearity correction enabled: false
Boxcar width: 0
XAxis mode: Wavelengths
Number of Pixels in Spectrum: 3648
>>>>>Begin Spectral Data<<<<<
345.248	-135.36
345.464	-135.36
345.681	-135.36
345.898	-147.57
346.114	-156.1
346.331	-13.11
346.548	12.08
346.764	5.88
346.981	6.46
347.197	-20.09
347.414	1.23
347.631	-11.95
347.847	53.93
348.064	16.73
348.28	15.37
348.497	-55.73
348.713	-10.79
348.93	23.7
349.146	56.45
349.363	3.16
349.579	24.67
349.796	20.21
350.012	14.79
350.229	42.3
350.445	-6.14
350.661	-10.2
350.878	7.04
351.094	37.65
351.311	23.9
351.527	33.58
351.743	20.21
351.96	51.41
352.176	49.08
352.392	20.6
352.609	70.01
352.825	17.31
353.041	11.69
353.257	20.8
353.474	3.36
353.69	24.09
353.906	29.9
354.122	-29.58
354.339	39.2
354.555	9.36
354.771	27
354.987	55.86
355.203	70.78
355.42	-11.17
355.636	-3.23
355.852	-1.29
356.068	29.32
356.284	-15.05
356.5	40.56
356.716	29.71
356.932	22.35
357.148	54.12
357.364	29.32
357.58	49.47
357.796	68.07
358.012	51.41
358.228	25.06
358.444	-45.08
358.66	74.85
358.876	14.21
359.092	-2.07
359.308	17.7
359.524	52.57
359.74	18.86
359.956	3.55
360.172	29.13
360.388	52.76
360.604	10.72
360.819	63.23
361.035	46.18
361.251	40.17
361.467	0.65
361.683	56.64
361.898	16.53
362.114	51.8
362.33	21.96
362.546	32.81
362.762	25.06
362.977	16.15
363.193	-5.94
363.409	43.08
363.624	12.27
363.84	3.36
364.056	3.94
364.271	68.07
364.487	35.52
364.703	23.31
364.918	-35.97
365.134	15.56
365.35	0.84
365.565	115.73
365.781	63.03
365.996	47.53
366.212	51.99
366.427	35.13
366.643	-8.65
366.858	29.32
367.074	-0.71
367.289	54.12
367.505	102.17
367.72	6.46
367.936	9.95
368.151	55.09
368.367	16.15
368.582	51.8
368.798	27
369.013	98.29
369.228	33.97
369.444	12.66
369.659	72.91
369.874	50.05
370.09	68.46
370.305	-22.8
370.52	16.34
370.736	60.9
370.951	22.15
371.166	60.32
371.381	74.66
371.597	57.03
371.812	-21.25
372.027	9.56
372.242	36.68
372.458	78.34
372.673	29.71
372.888	51.6
373.103	45.98
373.318	106.82
373.533	18.28
373.749	54.51
373.964	2.2
374.179	66.52
374.394	2.39
374.609	82.21
374.824	-9.82
375.039	67.68
375.254	-8.27
375.469	84.93
375.684	57.61
375.899	62.06
376.114	34.55
376.329	42.5
376.544	57.41
376.759	77.76
376.974	6.65
377.189	36.3
377.404	5.68
377.619	62.45
377.834	-22.02
378.049	-20.28
378.264	21.18
378.478	63.03
378.693	11.88
378.908	56.64
379.123	19.83
379.338	65.55
379.553	39.01
379.767	35.33
379.982	48.11
380.197	53.93
380.412	27.77
380.626	30.68
380.841	87.06
381.056	52.57
381.271	74.27
381.485	44.24
381.7	-3.04
381.915	45.79
382.129	14.21
382.344	42.5
382.559	31.84
382.773	68.46
382.988	-15.82
383.202	29.51
383.417	7.62
383.632	102.36
383.846	23.31
384.061	35.71
384.275	44.24
384.49	60.32
384.704	63.42
384.919	59.74
385.133	55.86
385.348	45.98
385.562	51.99
385.777	85.12
385.991	27.96
386.206	21.76
386.42	20.6
386.634	91.51
386.849	65.55
387.063	65.16
387.277	-0.52
387.492	25.83
387.706	-0.71
387.92	30.1
388.135	55.28
388.349	46.76
388.563	90.93
388.778	63.61
388.992	68.84
389.206	67.49
389.42	99.26
389.635	57.22
389.849	76.4
390.063	58.38
390.277	79.31
390.491	96.16
390.706	57.41
390.92	70.78
391.134	43.46
391.348	84.34
391.562	25.83
391.776	62.26
391.99	2
392.205	55.86
392.419	6.07
392.633	58
392.847	85.12
393.061	24.09
393.275	101.78
393.489	46.18
393.703	66.91
393.917	78.73
394.131	37.07
394.345	62.26
394.559	77.76
394.773	39.98
394.986	65.36
395.2	49.86
395.414	68.65
395.628	11.88
395.842	80.08
396.056	25.25
396.27	9.56
396.484	53.54
396.697	55.86
396.911	69.43
397.125	80.47
397.339	91.51
397.553	54.7
397.766	108.18
397.98	102.17
398.194	77.95
398.408	53.54
398.621	77.56
398.835	71.75
399.049	80.86
399.262	110.5
399.476	81.05
399.69	83.96
399.903	128.52
400.117	65.74
400.331	75.82
400.544	59.16
400.758	168.04
400.971	80.47
401.185	107.01
401.398	55.28
401.612	129.49
401.826	93.06
402.039	110.31
402.253	68.46
402.466	117.86
402.68	101.59
402.893	100.23
403.106	81.24
403.32	78.73
403.533	120.77
403.747	76.79
403.96	98.29
404.174	105.27
404.387	51.02
404.6	94.61
404.814	123.68
405.027	85.51
405.24	88.61
405.454	53.73
405.667	103.72
405.88	51.6
406.094	104.49
406.307	113.21
406.52	92.87
406.733	68.07
406.947	39.2
407.16	138.21
407.373	143.05
407.586	103.33
407.799	69.81
408.012	121.93
408.226	101.39
408.439	137.24
408.652	51.21
408.865	130.46
409.078	136.46
409.291	143.44
409.504	79.11
409.717	146.34
409.93	95
410.143	121.74
410.357	61.87
410.57	67.49
410.783	77.76
410.996	121.74
411.209	91.51
411.421	149.06
411.634	116.51
411.847	89.38
412.06	88.03
412.273	96.16
412.486	115.54
412.699	182.19
412.912	110.31
413.125	137.43
413.338	112.44
413.55	162.62
413.763	95.58
413.976	150.22
414.189	81.05
414.402	111.66
414.615	163.78
414.827	82.79
415.04	125.42
415.253	104.11
415.466	150.41
415.678	177.15
415.891	108.37
416.104	121.16
416.316	109.34
416.529	91.13
416.742	145.76
416.954	141.11
417.167	135.69
417.38	108.37
417.592	164.36
417.805	120.58
418.017	76.21
418.23	145.96
418.442	101.01
418.655	117.86
418.868	126
419.08	181.8
419.293	164.56
419.505	146.15
419.718	142.66
419.93	153.71
420.142	116.31
420.355	172.89
420.567	180.44
420.78	165.14
420.992	131.23
421.205	165.52
421.417	89.58
421.629	100.62
421.842	115.73
422.054	100.04
422.266	140.92
422.479	185.09
422.691	138.21
422.903	141.5
423.115	124.84
423.328	123.29
423.54	155.06
423.752	123.29
423.964	112.05
424.177	131.23
424.389	139.76
424.601	224.23
424.813	133.94
425.025	179.67
425.238	147.12
425.45	126.58
425.662	159.32
425.874	395.7
426.086	157.97
426.298	167.66
426.51	159.32
426.722	155.64
426.934	128.13
427.146	159.52
427.358	108.95
427.57	177.54
427.782	149.64
427.994	134.91
428.206	144.41
428.418	100.23
428.63	180.06
428.842	181.02
429.054	169.4
429.266	163.59
429.478	123.09
429.69	156.03
429.902	110.69
430.114	166.49
430.325	143.83
430.537	111.66
430.749	119.99
430.961	81.05
431.173	131.62
431.384	160.68
431.596	88.99
431.808	142.66
432.02	169.01
432.231	187.22
432.443	210.86
432.655	181.61
432.867	127.16
433.078	181.02
433.29	228.69
433.502	194.59
433.713	188
433.925	199.24
434.136	204.66
434.348	124.84
434.56	98.1
434.771	250.19
434.983	123.68
435.194	151.96
435.406	173.08
435.617	224.23
435.829	234.11
436.04	190.91
436.252	203.5
436.463	245.35
436.675	227.52
436.886	224.81
437.098	202.92
437.309	235.66
437.521	190.52
437.732	184.71
437.943	187.22
438.155	185.87
438.366	160.29
438.578	252.9
438.789	199.43
439	219.58
439.211	197.49
439.423	187.61
439.634	219.58
439.845	224.23
440.057	211.83
440.268	225.59
440.479	186.64
440.69	206.02
440.902	191.87
441.113	215.32
441.324	189.16
441.535	218.03
441.746	240.31
441.957	198.66
442.168	189.16
442.38	235.85
442.591	276.15
442.802	187.81
443.013	214.16
443.224	224.42
443.435	214.54
443.646	221.91
443.857	219.58
444.068	200.4
444.279	200.59
444.49	300.57
444.701	237.21
444.912	307.35
445.123	254.84
445.334	237.4
445.545	219.58
445.756	221.52
445.967	209.7
446.178	245.74
446.388	274.02
446.599	267.05
446.81	263.17
447.021	240.7
447.232	278.09
447.443	279.45
447.653	229.27
447.864	284.49
448.075	252.52
448.286	290.88
448.496	251.94
448.707	265.5
448.918	240.12
449.129	317.62
449.339	238.18
449.55	282.55
449.761	256.78
449.971	306.19
450.182	240.7
450.393	304.44
450.603	267.44
450.814	298.44
451.024	291.85
451.235	317.23
451.446	338.93
451.656	337.38
451.867	267.44
452.077	291.27
452.288	349.2
452.498	329.05
452.709	283.32
452.919	333.89
453.13	277.7
453.34	320.91
453.55	243.22
453.761	315.87
453.971	294.95
454.182	304.64
454.392	323.43
454.602	356.56
454.813	319.55
455.023	343.97
455.233	263.37
455.444	294.75
455.654	234.5
455.864	298.05
456.075	288.36
456.285	276.35
456.495	268.6
456.705	305.6
456.916	348.03
457.126	369.93
457.336	309.67
457.546	258.91
457.756	279.84
457.967	308.7
458.177	293.2
458.387	317.42
458.597	269.57
458.807	300.76
459.017	303.09
459.227	307.15
459.437	275.96
459.647	348.23
459.857	338.35
460.068	312.19
460.278	364.7
460.488	318.97
460.698	354.23
460.908	307.54
461.117	282.74
461.327	298.05
461.537	324.59
461.747	329.43
461.957	335.63
462.167	417.59
462.377	362.76
462.587	351.52
462.797	380.2
463.007	343.58
463.216	364.5
463.426	382.91
463.636	364.89
463.846	285.84
464.056	305.22
464.265	389.88
464.475	301.92
464.685	346.1
464.895	359.27
465.104	342.42
465.314	392.21
465.524	329.43
465.733	329.82
465.943	432.31
466.153	376.9
466.362	373.61
466.572	345.13
466.782	323.82
466.991	335.83
467.201	416.04
467.41	318.97
467.62	379.42
467.829	358.5
468.039	373.03
468.249	361.02
468.458	380
468.668	377.48
468.877	396.86
469.086	418.95
469.296	430.96
469.505	352.88
469.715	444.13
469.924	388.92
470.134	420.3
470.343	434.45
470.552	377.1
470.762	376.71
470.971	364.12
471.18	380.78
471.39	419.14
471.599	375.93
471.808	407.9
472.018	383.68
472.227	426.7
472.436	410.81
472.645	422.05
472.855	411.2
473.064	434.83
473.273	453.82
473.482	428.25
473.691	451.11
473.901	447.81
474.11	412.75
474.319	506.33
474.528	437.16
474.737	507.1
474.946	468.74
475.155	455.37
475.364	473.2
475.573	466.61
475.783	465.06
475.992	482.5
476.201	486.37
476.41	489.28
476.619	425.92
476.828	462.93
477.037	433.67
477.245	428.83
477.454	500.9
477.663	500.51
477.872	449.75
478.081	531.51
478.29	466.03
478.499	554.57
478.708	502.84
478.917	540.23
479.125	490.25
479.334	539.84
479.543	488.89
479.752	530.74
479.961	520.47
480.169	533.64
480.378	502.84
480.587	608.24
480.796	567.16
481.004	560.77
481.213	592.35
481.422	556.51
481.63	557.67
481.839	570.46
482.048	627.22
482.256	575.88
482.465	590.8
482.674	596.22
482.882	602.81
483.091	678.95
483.299	610.95
483.508	593.32
483.716	616.76
483.925	625.48
484.134	590.99
484.342	594.09
484.551	605.14
484.759	629.74
484.967	622.57
485.176	644.86
485.384	644.08
485.593	666.17
485.801	622.57
486.01	606.11
486.218	578.4
486.426	518.53
486.635	557.67
486.843	543.14
487.051	587.12
487.26	578.01
487.468	612.31
487.676	630.91
487.885	592.74
488.093	648.34
488.301	653.77
488.509	664.62
488.717	685.74
488.926	671.98
489.134	622.77
489.342	673.34
489.55	613.47
489.758	670.04
489.967	645.05
490.175	741.34
490.383	673.92
490.591	781.45
490.799	646.41
491.007	745.22
491.215	688.06
491.423	699.69
491.631	705.5
491.839	687.09
492.047	747.15
492.255	691.16
492.463	643.5
492.671	681.86
492.879	746.96
493.087	720.42
493.295	730.1
493.503	775.63
493.711	745.41
493.919	794.62
494.127	779.9
494.334	776.8
494.542	708.6
494.75	778.73
494.958	776.41
495.166	812.83
495.374	810.9
495.581	824.85
495.789	800.82
495.997	879.29
496.205	790.17
496.412	808.77
496.62	759.55
496.828	824.07
497.035	780.09
497.243	805.28
497.451	804.7
497.658	838.6
497.866	826.98
498.074	870.57
498.281	781.64
498.489	887.81
498.696	849.65
498.904	814.38
499.112	810.12
499.319	896.92
499.527	872.12
499.734	870.57
499.942	810.9
500.149	807.41
500.357	855.07
500.564	814.19
500.771	841.32
500.979	818.07
501.186	848.48
501.394	853.33
501.601	857.78
501.808	890.33
502.016	850.81
502.223	859.72
502.43	856.23
502.638	874.45
502.845	866.31
503.052	947.29
503.26	887.23
503.467	986.24
503.674	914.94
503.881	924.82
504.089	981.39
504.296	972.87
504.503	833.37
504.71	939.54
504.917	877.93
505.125	945.55
505.332	952.14
505.539	986.63
505.746	1014.91
505.953	999.99
506.16	1018.01
506.367	1077.88
506.574	1060.25
506.781	1055.02
506.988	989.53
507.195	1029.06
507.402	1041.84
507.609	1055.79
507.816	994.18
508.023	1040.1
508.23	983.14
508.437	1005.03
508.644	1054.05
508.851	1105.59
509.058	1113.14
509.265	1098.42
509.472	1115.47
509.679	1211.37
509.885	1128.84
510.092	1131.16
510.299	1106.17
510.506	1135.04
510.713	1168.17
510.92	1141.62
511.126	1169.14
511.333	1218.73
511.54	1221.64
511.746	1248.18
511.953	1263.49
512.16	1254.58
512.367	1261.55
512.573	1212.92
512.78	1275.7
512.987	1258.45
513.193	1268.53
513.4	1184.83
513.606	1227.84
513.813	1283.45
514.02	1248.57
514.226	1299.72
514.433	1304.37
514.639	1226.1
514.846	1280.73
515.052	1265.82
515.259	1283.45
515.465	1317.16
515.672	1297.59
515.878	1422.56
516.085	1362.88
516.291	1380.51
516.497	1337.31
516.704	1327.81
516.91	1295.85
517.117	1266.4
517.323	1213.31
517.529	1256.52
517.736	1269.88
517.942	1250.9
518.148	1315.8
518.354	1350.48
518.561	1376.06
518.767	1384.58
518.973	1405.31
519.179	1427.01
519.386	1408.41
519.592	1394.66
519.798	1457.24
520.004	1544.04
520.21	1516.52
520.417	1540.55
520.623	1577.75
520.829	1608.75
521.035	1592.09
521.241	1590.73
521.447	1620.95
521.653	1742.05
521.859	1601.97
522.065	1688.38
522.271	1735.85
522.477	1702.13
522.683	1760.65
522.889	1713.37
523.095	1695.16
523.301	1712.79
523.507	1684.12
523.713	1732.55
523.919	1725.19
524.125	1806.56
524.331	1847.06
524.537	1909.44
524.742	1855
524.948	1893.17
525.154	1898.59
525.36	1988.49
525.566	1887.36
525.772	1957.69
525.977	1891.81
526.183	1941.99
526.389	1955.17
526.595	1867.59
526.8	1840.08
527.006	1824.78
527.212	1786.03
527.417	1778.86
527.623	1782.35
527.829	1843.76
528.034	1912.74
528.24	1930.17
528.446	1911.38
528.651	2012.13
528.857	2043.32
529.062	2085.56
529.268	2043.13
529.473	2088.47
529.679	2076.07
529.884	2174.68
530.09	2123.34
530.295	2131.28
530.501	2135.55
530.706	2163.64
530.912	2121.6
531.117	2143.3
531.323	2189.99
531.528	2166.55
531.733	2228.55
531.939	2164.03
532.144	2177.78
532.35	2200.45
532.555	2230.87
532.76	2174.3
532.966	2170.81
533.171	2156.47
533.376	2120.24
533.581	2103.77
533.787	2157.83
533.992	2248.31
534.197	2230.1
534.402	2224.28
534.607	2221.38
534.813	2311.47
535.018	2243.46
535.223	2266.71
535.428	2262.84
535.633	2341.5
535.838	2341.89
536.043	2355.06
536.249	2432.56
536.454	2344.21
536.659	2395.36
536.864	2335.88
537.069	2301.39
537.274	2373.27
537.479	2318.83
537.684	2334.91
537.889	2312.24
538.094	2446.12
538.299	2374.24
538.504	2399.04
538.708	2389.55
538.913	2422.68
539.118	2375.41
539.323	2406.21
539.528	2381.22
539.733	2351.57
539.938	2462.98
540.142	2374.44
540.347	2332.2
540.552	2355.06
540.757	2327.55
540.962	2352.74
541.166	2272.53
541.371	2319.61
541.576	2333.94
541.781	2252.76
541.985	2394.2
542.19	2399.82
542.395	2450.97
542.599	2505.99
542.804	2418.03
543.008	2478.29
543.213	2401.95
543.418	2383.35
543.622	2455.04
543.827	2423.26
544.031	2493.4
544.236	2502.89
544.44	2453.68
544.645	2571.48
544.849	2418.22
545.054	2536.6
545.258	2556.95
545.463	2540.67
545.667	2458.52
545.872	2522.27
546.076	2530.4
546.281	2515.87
546.485	2487
546.689	2523.23
546.894	2562.18
547.098	2542.03
547.302	2493.01
547.507	2521.1
547.711	2524.59
547.915	2596.28
548.119	2469.76
548.324	2465.89
548.528	2539.9
548.732	2545.13
548.936	2586.2
549.141	2559.47
549.345	2524.98
549.549	2529.82
549.753	2544.74
549.957	2660.02
550.161	2641.23
550.366	2590.85
550.57	2552.88
550.774	2615.85
550.978	2584.46
551.182	2625.34
551.386	2576.13
551.59	2570.9
551.794	2567.41
551.998	2580.97
552.202	2596.47
552.406	2591.63
552.61	2645.49
552.814	2672.23
553.018	2687.34
553.222	2563.34
553.426	2588.53
553.63	2640.06
553.833	2656.92
554.037	2558.3
554.241	2603.83
554.445	2614.1
554.649	2613.71
554.853	2586.78
555.056	2639.29
555.26	2651.69
555.464	2632.31
555.668	2630.18
555.871	2671.06
556.075	2651.11
556.279	2602.48
556.483	2561.79
556.686	2588.33
556.89	2556.75
557.094	2611.78
557.297	2506.38
557.501	2549.2
557.704	2480.22
557.908	2593.76
558.112	2503.47
558.315	2560.24
558.519	2521.68
558.722	2508.32
558.926	2508.7
559.129	2427.14
559.333	2394.59
559.536	2414.35
559.74	2434.89
559.943	2416.09
560.147	2420.74
560.35	2422.49
560.553	2442.83
560.757	2386.26
560.96	2481.77
561.164	2429.07
561.367	2506.57
561.57	2457.36
561.774	2446.7
561.977	2401.37
562.18	2406.02
562.384	2453.68
562.587	2419
562.79	2348.67
562.993	2382.57
563.197	2397.11
563.4	2432.17
563.603	2426.75
563.806	2445.54
564.009	2392.84
564.212	2430.24
564.416	2325.81
564.619	2362.23
564.822	2307.01
565.025	2366.3
565.228	2306.63
565.431	2352.74
565.634	2274.66
565.837	2299.46
566.04	2263.23
566.243	2237.46
566.446	2199.1
566.649	2286.67
566.852	2198.13
567.055	2249.08
567.258	2265.94
567.461	2313.41
567.664	2289.38
567.867	2201.81
568.07	2221.38
568.273	2243.46
568.475	2241.33
568.678	2161.7
568.881	2164.03
569.084	2122.57
569.287	2022.2
569.489	2077.81
569.692	2137.1
569.895	2134.97
570.098	2063.86
570.3	2062.7
570.503	2012.52
570.706	2048.94
570.909	2008.64
571.111	1938.7
571.314	1941.41
571.516	1991.59
571.719	2016.2
571.922	1956.52
572.124	1988.1
572.327	1957.3
572.529	1944.12
572.732	1946.45
572.935	1966.79
573.137	2047
573.34	1969.12
573.542	2010
573.745	1935.02
573.947	1965.05
574.15	1922.04
574.352	1890.46
574.554	1971.06
574.757	1899.76
574.959	1883.87
575.162	1922.81
575.364	1832.14
575.566	1933.27
575.769	1857.71
575.971	1912.93
576.173	1760.26
576.376	1836.98
576.578	1868.76
576.78	1895.88
576.982	1754.45
577.185	1822.84
577.387	1787.96
577.589	1769.75
577.791	1864.69
577.993	1832.91
578.196	1805.6
578.398	1792.61
578.6	1790.87
578.802	1725.38
579.004	1750.38
579.206	1791.84
579.408	1790.1
579.61	1786.03
579.812	1803.85
580.014	1768.59
580.216	1754.45
580.418	1768.2
580.62	1762.39
580.822	1733.71
581.024	1770.33
581.226	1811.79
581.428	1750.96
581.63	1827.49
581.832	1769.75
582.034	1787.58
582.236	1766.46
582.438	1807.53
582.64	1848.8
582.841	1855.58
583.043	1891.81
583.245	1800.95
583.447	1833.49
583.649	1809.66
583.85	1788.16
584.052	1797.07
584.254	1744.37
584.456	1821.68
584.657	1760.06
584.859	1815.28
585.061	1766.85
585.262	1755.41
585.464	1701.55
585.666	1793.78
585.867	1729.84
586.069	1799.98
586.27	1741.85
586.472	1733.33
586.674	1708.53
586.875	1706.59
587.077	1706.01
587.278	1718.02
587.48	1686.05
587.681	1786.03
587.883	1732.75
588.084	1634.71
588.285	1680.43
588.487	1646.33
588.688	1670.55
588.89	1571.35
589.091	1576.39
589.292	1539
589.494	1481.46
589.695	1466.54
589.896	1415.97
590.098	1413.64
590.299	1447.55
590.5	1441.74
590.702	1466.54
590.903	1506.84
591.104	1580.07
591.305	1549.85
591.507	1594.6
591.708	1563.6
591.909	1523.5
592.11	1616.3
592.311	1563.02
592.512	1552.37
592.714	1500.44
592.915	1516.52
593.116	1510.91
593.317	1546.94
593.518	1555.47
593.719	1543.84
593.92	1586.66
594.121	1605.84
594.322	1574.07
594.523	1544.81
594.724	1518.46
594.925	1520.59
595.126	1528.34
595.327	1537.84
595.528	1524.66
595.729	1528.15
595.929	1527.57
596.13	1510.91
596.331	1563.02
596.532	1579.69
596.733	1608.17
596.934	1567.09
597.135	1566.51
597.335	1534.35
597.536	1542.49
597.737	1564.96
597.938	1503.93
598.138	1570
598.339	1525.24
598.54	1532.8
598.74	1512.65
598.941	1542.49
599.142	1594.99
599.342	1560.7
599.543	1491.14
599.744	1513.42
599.944	1530.67
600.145	1534.16
600.345	1537.26
600.546	1618.24
600.746	1571.94
600.947	1605.45
601.147	1522.34
601.348	1602.74
601.548	1510.32
601.749	1544.62
601.949	1497.73
602.15	1500.25
602.35	1498.51
602.551	1566.9
602.751	1458.59
602.951	1496.57
603.152	1432.05
603.352	1551.98
603.552	1515.56
603.753	1554.5
603.953	1555.47
604.153	1511.29
604.354	1513.23
604.554	1497.15
604.754	1526.41
604.954	1447.16
605.155	1511.68
605.355	1488.62
605.555	1513.23
605.755	1556.63
605.955	1502.38
606.155	1531.44
606.356	1507.22
606.556	1552.56
606.756	1486.69
606.956	1453.17
607.156	1562.83
607.356	1477.39
607.556	1496.37
607.756	1504.9
607.956	1546.36
608.156	1494.05
608.356	1460.72
608.556	1528.15
608.756	1453.94
608.956	1434.57
609.156	1481.65
609.356	1424.49
609.556	1429.92
609.755	1448.13
609.955	1422.17
610.155	1423.91
610.355	1483.78
610.555	1408.41
610.755	1384.97
610.954	1394.66
611.154	1400.86
611.354	1436.12
611.554	1379.16
611.753	1394.08
611.953	1371.79
612.153	1423.72
612.352	1409.19
612.552	1369.66
612.752	1321.61
612.951	1362.69
613.151	1371.79
613.351	1357.46
613.55	1353
613.75	1381.68
613.949	1335.95
614.149	1364.05
614.348	1351.06
614.548	1319.1
614.747	1285.19
614.947	1292.36
615.146	1260.97
615.346	1382.06
615.545	1364.43
615.745	1327.43
615.944	1337.11
616.144	1305.15
616.343	1312.31
616.542	1292.94
616.742	1284.41
616.941	1261.36
617.14	1231.52
617.34	1293.33
617.539	1242.76
617.738	1269.11
617.938	1329.36
618.137	1293.91
