Data from gum_young_FLMT105791__122__17-40-50-040.txt Node

Date: Mon Mar 20 17:40:50 GMT 2023
User: antho
Spectrometer: FLMT10579
Trigger mode: 0
Integration Time (sec): 1.000000E-1
Scans to average: 10
Electric dark correction enabled: true
Nonlinearity correction enabled: false
Boxcar width: 0
XAxis mode: Wavelengths
Number of Pixels in Spectrum: 3648
>>>>>Begin Spectral Data<<<<<
345.248	-156.01
345.464	-156.01
345.681	-156.01
345.898	-149.43
346.114	-141.1
346.331	-13.03
346.548	29.59
346.764	8.48
346.981	0.73
347.197	-26.4
347.414	10.41
347.631	-45.58
347.847	59.04
348.064	11.19
348.28	34.05
348.497	-42.48
348.713	-26.01
348.93	44.32
349.146	46.45
349.363	-1.21
349.579	8.48
349.796	12.74
350.012	-27.17
350.229	50.71
350.445	6.93
350.661	-6.44
350.878	8.48
351.094	30.56
351.311	23.2
351.527	10.41
351.743	-10.32
351.96	23.78
352.176	24.36
352.392	29.98
352.609	29.59
352.825	1.11
353.041	34.63
353.257	-3.92
353.474	-3.92
353.69	11.77
353.906	15.65
354.122	-27.17
354.339	64.08
354.555	21.65
354.771	-6.64
354.987	58.08
355.203	33.28
355.42	-15.35
355.636	-4.7
355.852	-10.12
356.068	11.77
356.284	-36.86
356.5	53.62
356.716	14.1
356.932	26.69
357.148	36.38
357.364	24.36
357.58	66.6
357.796	56.91
358.012	59.04
358.228	26.69
358.444	-51.59
358.66	71.83
358.876	17
359.092	20.49
359.308	21.46
359.524	53.81
359.74	-2.57
359.956	-9.35
360.172	8.28
360.388	32.89
360.604	-4.31
360.819	60.4
361.035	30.56
361.251	34.24
361.467	11.19
361.683	43.74
361.898	23.39
362.114	40.06
362.33	37.15
362.546	56.53
362.762	1.31
362.977	20.49
363.193	-8.96
363.409	55.36
363.624	-10.51
363.84	10.03
364.056	-2.37
364.271	29.4
364.487	14.1
364.703	21.46
364.918	6.35
365.134	15.26
365.35	14.68
365.565	102.06
365.781	25.14
365.996	46.64
366.212	63.11
366.427	29.4
366.643	13.13
366.858	29.98
367.074	-14
367.289	87.33
367.505	104.19
367.72	-14.39
367.936	16.61
368.151	48.97
368.367	28.24
368.582	41.8
368.798	28.24
369.013	60.01
369.228	16.42
369.444	4.8
369.659	32.69
369.874	57.69
370.09	67.57
370.305	-31.82
370.52	9.45
370.736	69.12
370.951	26.11
371.166	74.35
371.381	83.46
371.597	54.78
371.812	-2.37
372.027	5.18
372.242	-4.5
372.458	92.56
372.673	58.66
372.888	15.65
373.103	67.38
373.318	90.63
373.533	49.74
373.749	37.93
373.964	0.92
374.179	91.21
374.394	3.63
374.609	64.47
374.824	-9.74
375.039	78.03
375.254	5.57
375.469	70.48
375.684	34.24
375.899	66.02
376.114	24.75
376.329	44.51
376.544	57.69
376.759	45.29
376.974	4.6
377.189	29.01
377.404	22.04
377.619	72.03
377.834	-32.6
378.049	2.86
378.264	-5.47
378.478	20.1
378.693	-14.58
378.908	53.81
379.123	0.53
379.338	51.88
379.553	51.29
379.767	48.78
379.982	49.16
380.197	69.7
380.412	-2.76
380.626	26.3
380.841	108.06
381.056	61.37
381.271	76.09
381.485	17.39
381.7	15.06
381.915	44.13
382.129	24.36
382.344	24.36
382.559	28.24
382.773	59.04
382.988	-29.5
383.202	46.45
383.417	8.86
383.632	105.74
383.846	42.38
384.061	34.24
384.275	24.56
384.49	40.06
384.704	65.05
384.919	31.92
385.133	33.28
385.348	73.96
385.562	7.7
385.777	71.06
385.991	47.42
386.206	21.65
386.42	19.91
386.634	90.04
386.849	55.75
387.063	50.71
387.277	1.89
387.492	8.28
387.706	10.8
387.92	41.8
388.135	76.87
388.349	38.7
388.563	16.81
388.778	65.63
388.992	70.28
389.206	63.11
389.42	106.71
389.635	72.8
389.849	57.11
390.063	75.13
390.277	44.32
390.491	119.11
390.706	70.28
390.92	62.73
391.134	61.56
391.348	66.99
391.562	-8.19
391.776	42.77
391.99	15.65
392.205	48.19
392.419	21.65
392.633	30.18
392.847	85.98
393.061	20.88
393.275	104.38
393.489	15.45
393.703	46.64
393.917	89.27
394.131	29.79
394.345	50.91
394.559	59.82
394.773	62.14
394.986	57.88
395.2	66.6
395.414	78.03
395.628	20.3
395.842	59.43
396.056	54.39
396.27	6.15
396.484	81.91
396.697	55.56
396.911	91.98
397.125	67.57
397.339	91.59
397.553	71.83
397.766	82.1
397.98	72.61
398.194	118.91
398.408	58.27
398.621	87.91
398.835	97.6
399.049	68.15
399.262	129.76
399.476	105.93
399.69	94.5
399.903	160.57
400.117	94.11
400.331	127.05
400.544	43.16
400.758	179.36
400.971	105.16
401.185	105.74
401.398	34.44
401.612	136.93
401.826	118.91
402.039	95.66
402.253	58.85
402.466	105.93
402.68	91.01
402.893	100.51
403.106	109.81
403.32	81.91
403.533	115.04
403.747	115.62
403.96	97.6
404.174	128.02
404.387	59.24
404.6	98.18
404.814	125.69
405.027	109.61
405.24	119.69
405.454	93.34
405.667	134.22
405.88	47.81
406.094	122.4
406.307	144.1
406.52	97.21
406.733	83.65
406.947	59.43
407.16	164.83
407.373	153.01
407.586	106.71
407.799	64.66
408.012	124.53
408.226	124.53
408.439	171.22
408.652	85.01
408.865	142.36
409.078	134.99
409.291	132.67
409.504	75.51
409.717	137.12
409.93	126.47
410.143	114.84
410.357	76.87
410.57	64.08
410.783	113.87
410.996	121.43
411.209	117.56
411.421	136.74
411.634	121.04
411.847	98.57
412.06	122.79
412.273	108.45
412.486	145.84
412.699	197.77
412.912	144.49
413.125	162.31
413.338	133.25
413.55	123.17
413.763	140.81
413.976	133.25
414.189	109.42
414.402	130.34
414.615	187.89
414.827	124.92
415.04	149.33
415.253	144.87
415.466	179.17
415.678	221.21
415.891	120.46
416.104	150.3
416.316	114.26
416.529	129.37
416.742	176.65
416.954	202.42
417.167	138.29
417.38	132.28
417.592	170.06
417.805	121.82
418.017	111.36
418.23	153.4
418.442	143.52
418.655	109.61
418.868	143.13
419.08	169.29
419.293	162.31
419.505	174.32
419.718	163.86
419.93	196.02
420.142	138.29
420.355	180.33
420.567	169.67
420.78	168.71
420.992	152.62
421.205	229.74
421.417	135.96
421.629	154.37
421.842	130.54
422.054	111.36
422.266	194.67
422.479	217.53
422.691	131.7
422.903	188.66
423.115	124.34
423.328	154.76
423.54	182.66
423.752	171.03
423.964	116.2
424.177	166.38
424.389	150.3
424.601	268.49
424.813	173.94
425.025	213.65
425.238	216.17
425.45	179.17
425.662	148.56
425.874	468.82
426.086	169.09
426.298	189.24
426.51	212.69
426.722	159.79
426.934	156.5
427.146	220.63
427.358	118.72
427.57	213.27
427.782	181.11
427.994	152.43
428.206	161.73
428.418	160.18
428.63	188.86
428.842	203
429.054	209.39
429.266	211.52
429.478	149.72
429.69	172.19
429.902	124.34
430.114	228.77
430.325	188.66
430.537	154.56
430.749	149.91
430.961	121.24
431.173	164.25
431.384	173.16
431.596	135.38
431.808	166.38
432.02	208.81
432.231	229.54
432.443	235.55
432.655	225.47
432.867	145.26
433.078	216.56
433.29	248.72
433.502	251.24
433.713	219.66
433.925	219.08
434.136	250.08
434.348	178.97
434.56	161.54
434.771	277.79
434.983	169.09
435.194	197.96
435.406	198.54
435.617	234.77
435.829	278.56
436.04	247.17
436.252	255.12
436.463	256.28
436.675	256.86
436.886	248.72
437.098	274.1
437.309	321.96
437.521	242.72
437.732	257.64
437.943	241.36
438.155	232.64
438.366	214.62
438.578	276.04
438.789	237.1
439	263.84
439.211	242.33
439.423	226.44
439.634	257.83
439.845	263.45
440.057	262.48
440.268	262.48
440.479	266.55
440.69	277.59
440.902	244.65
441.113	248.92
441.324	243.3
441.535	255.12
441.746	318.86
441.957	225.09
442.168	253.18
442.38	296.19
442.591	291.35
442.802	252.99
443.013	265
443.224	281.85
443.435	280.69
443.646	261.51
443.857	261.9
444.068	284.18
444.279	264.03
444.49	345.02
444.701	281.27
444.912	352.57
445.123	332.03
445.334	302.2
445.545	297.93
445.756	305.88
445.967	252.02
446.178	304.52
446.388	352.77
446.599	330.48
446.81	321.57
447.021	284.18
447.232	338.62
447.443	345.4
447.653	302.78
447.864	354.7
448.075	323.32
448.286	372.33
448.496	308.2
448.707	354.9
448.918	325.25
449.129	401.98
449.339	308.59
449.55	351.6
449.761	330.29
449.971	393.26
450.182	320.8
450.393	370.59
450.603	355.09
450.814	393.65
451.024	364.58
451.235	390.35
451.446	405.66
451.656	420.77
451.867	333.97
452.077	396.16
452.288	429.68
452.498	416.7
452.709	378.92
452.919	390.74
453.13	332.81
453.34	384.15
453.55	315.57
453.761	389.77
453.971	382.21
454.182	401.01
454.392	394.42
454.602	413.99
454.813	397.71
455.023	412.25
455.233	360.9
455.444	368.07
455.654	322.54
455.864	384.35
456.075	351.02
456.285	357.22
456.495	370.2
456.705	425.23
456.916	450.22
457.126	444.21
457.336	407.01
457.546	336.49
457.756	366.72
457.967	436.85
458.177	380.08
458.387	383.57
458.597	380.86
458.807	399.26
459.017	370.4
459.227	376.21
459.437	394.23
459.647	407.98
459.857	435.88
460.068	399.26
460.278	425.61
460.488	436.85
460.698	479.67
460.908	414.76
461.117	387.25
461.327	395.78
461.537	432.78
461.747	444.02
461.957	435.5
462.167	517.84
462.377	454.48
462.587	438.98
462.797	467.85
463.007	452.74
463.216	448.09
463.426	488.78
463.636	496.33
463.846	413.8
464.056	428.91
464.265	489.74
464.475	438.6
464.685	451.38
464.895	482.19
465.104	441.11
465.314	477.93
465.524	428.52
465.733	421.55
465.943	523.65
466.153	489.94
466.362	453.9
466.572	472.11
466.782	462.43
466.991	481.22
467.201	479.67
467.41	435.5
467.62	458.94
467.829	451.19
468.039	492.46
468.249	473.66
468.458	472.5
468.668	480.25
468.877	486.64
469.086	526.56
469.296	525.78
469.505	465.91
469.715	569.76
469.924	517.84
470.134	554.65
470.343	532.56
470.552	500.98
470.762	499.24
470.971	469.79
471.18	529.66
471.39	487.81
471.599	486.84
471.808	538.38
472.018	485.29
472.227	544.19
472.436	568.21
472.645	536.63
472.855	526.94
473.064	588.94
473.273	558.52
473.482	590.3
473.691	574.02
473.901	552.32
474.11	531.79
474.319	626.34
474.528	547.67
474.737	636.99
474.946	607.54
475.155	605.02
475.364	621.88
475.573	614.13
475.783	626.14
475.992	623.62
476.201	622.66
476.41	582.55
476.619	566.27
476.828	617.62
477.037	588.56
477.245	574.8
477.454	668.19
477.663	617.04
477.872	591.85
478.081	670.51
478.29	629.05
478.499	724.57
478.708	664.5
478.917	715.27
479.125	638.54
479.334	644.94
479.543	646.49
479.752	688.14
479.961	685.04
480.169	743.94
480.378	666.64
480.587	798.38
480.796	712.17
481.004	727.86
481.213	748.2
481.422	757.89
481.63	705.39
481.839	772.62
482.048	801.48
482.256	764.28
482.465	776.88
482.674	768.74
482.882	770.68
483.091	856.51
483.299	776.68
483.508	805.75
483.716	783.85
483.925	787.15
484.134	756.15
484.342	761.38
484.551	813.5
484.759	836.75
484.967	842.17
485.176	823.18
485.384	821.05
485.593	829.58
485.801	813.5
486.01	781.14
486.218	754.4
486.426	693.18
486.635	721.27
486.843	725.73
487.051	773.39
487.26	742.58
487.468	764.67
487.676	817.37
487.885	788.7
488.093	804.2
488.301	873.95
488.509	876.46
488.717	900.1
488.926	877.24
489.134	881.11
489.342	883.44
489.55	845.66
489.758	880.34
489.967	877.82
490.175	993.29
490.383	902.04
490.591	960.94
490.799	907.08
491.007	972.76
491.215	940.59
491.423	949.7
491.631	943.89
491.839	945.44
492.047	947.57
492.255	912.31
492.463	908.63
492.671	910.18
492.879	1000.46
493.087	930.52
493.295	968.49
493.503	958.81
493.711	1005.5
493.919	1003.56
494.127	1009.57
494.334	997.36
494.542	962.68
494.75	1014.8
494.958	1002.01
495.166	1066.92
495.374	1066.53
495.581	1035.92
495.789	1045.99
495.997	1074.09
496.205	1042.12
496.412	1027.78
496.62	1016.54
496.828	1040.96
497.035	1053.55
497.243	1096.37
497.451	1070.4
497.658	1097.92
497.866	1097.92
498.074	1117.29
498.281	1076.99
498.489	1147.13
498.696	1073.31
498.904	1073.31
499.112	1055.68
499.319	1150.62
499.527	1088.04
499.734	1144.22
499.942	1072.73
500.149	1112.64
500.357	1119.04
500.564	1092.49
500.771	1130.27
500.979	1118.65
501.186	1101.79
501.394	1153.91
501.601	1116.13
501.808	1132.6
502.016	1114.77
502.223	1078.93
502.43	1130.27
502.638	1147.71
502.845	1104.7
503.052	1203.51
503.26	1161.08
503.467	1211.84
503.674	1147.71
503.881	1182.39
504.089	1270.93
504.296	1231.99
504.503	1182.58
504.71	1221.53
504.917	1155.85
505.125	1232.57
505.332	1246.33
505.539	1262.41
505.746	1325.18
505.953	1289.53
506.16	1309.1
506.367	1349.4
506.574	1370.52
506.781	1396.48
506.988	1310.07
507.195	1350.76
507.402	1330.8
507.609	1391.44
507.816	1316.85
508.023	1354.05
508.23	1333.71
508.437	1267.83
508.644	1373.43
508.851	1397.84
509.058	1427.29
509.265	1385.05
509.472	1444.72
509.679	1524.74
509.885	1396.09
510.092	1434.07
510.299	1461.97
510.506	1462.16
510.713	1477.27
510.92	1459.06
511.126	1537.92
511.333	1549.35
511.54	1568.72
511.746	1607.28
511.953	1587.71
512.16	1615.42
512.367	1579.57
512.573	1582.09
512.78	1587.9
512.987	1591.59
513.193	1556.13
513.4	1514.47
513.606	1583.45
513.813	1626.65
514.02	1621.23
514.226	1662.5
514.433	1660.95
514.639	1626.07
514.846	1637.5
515.052	1635.37
515.259	1655.13
515.465	1679.16
515.672	1703.18
515.878	1771.96
516.085	1749.1
516.291	1781.65
516.497	1758.01
516.704	1740.77
516.91	1657.07
517.117	1604.37
517.323	1587.13
517.529	1620.84
517.736	1562.72
517.942	1604.76
518.148	1659.2
518.354	1704.15
518.561	1731.08
518.767	1751.04
518.973	1806.26
519.179	1828.34
519.386	1777.58
519.592	1789.79
519.798	1828.93
520.004	1958.15
520.21	1911.46
520.417	1960.48
520.623	2029.84
520.829	2048.44
521.035	2039.33
521.241	2065.1
521.447	2067.43
521.653	2161.59
521.859	2085.25
522.065	2136.4
522.271	2254.98
522.477	2213.13
522.683	2240.06
522.889	2188.52
523.095	2183.87
523.301	2193.95
523.507	2173.6
523.713	2235.79
523.919	2181.74
524.125	2327.82
524.331	2314.26
524.537	2407.45
524.742	2397.38
524.948	2423.15
525.154	2419.08
525.36	2468.87
525.566	2392.15
525.772	2457.83
525.977	2398.54
526.183	2431.29
526.389	2471.78
526.595	2357.08
526.8	2387.69
527.006	2291.98
527.212	2268.93
527.417	2250.71
527.623	2217
527.829	2365.22
528.034	2400.29
528.24	2406.68
528.446	2423.54
528.651	2508.2
528.857	2517.7
529.062	2597.13
529.268	2590.16
529.473	2608.95
529.679	2642.66
529.884	2678.51
530.09	2645.38
530.295	2653.13
530.501	2651.77
530.706	2677.15
530.912	2679.09
531.117	2669.79
531.323	2762.59
531.528	2768.21
531.733	2783.91
531.939	2730.43
532.144	2782.74
532.35	2752.52
532.555	2760.46
532.76	2714.93
532.966	2728.11
533.171	2673.86
533.376	2626.58
533.581	2659.71
533.787	2684.32
533.992	2733.14
534.197	2734.69
534.402	2743.02
534.607	2795.72
534.813	2839.12
535.018	2830.21
535.223	2830.99
535.428	2849.59
535.633	2900.15
535.838	2910.62
536.043	2950.33
536.249	3041.59
536.454	2960.41
536.659	2962.93
536.864	2944.13
537.069	2909.45
537.274	2906.16
537.479	2941.42
537.684	2923.79
537.889	2845.32
538.094	3010.98
538.299	2941.42
538.504	2980.17
538.708	2949.37
538.913	2992.76
539.118	2979.2
539.323	2996.64
539.528	2938.32
539.733	2948.4
539.938	2967
540.142	2982.3
540.347	2956.34
540.552	2884.46
540.757	2881.36
540.962	2899.77
541.166	2866.44
541.371	2838.93
541.576	2901.7
541.781	2836.22
541.985	2965.83
542.19	2948.4
542.395	3064.65
542.599	3041.2
542.804	2974.55
543.008	3051.08
543.213	3015.43
543.418	2973
543.622	3040.43
543.827	2969.71
544.031	3089.64
544.236	3080.73
544.44	3070.26
544.645	3150.86
544.849	3097
545.054	3149.89
545.258	3158.23
545.463	3150.67
545.667	3043.53
545.872	3128
546.076	3116.96
546.281	3099.13
546.485	3054.38
546.689	3111.34
546.894	3116.38
547.098	3116.76
547.302	3099.71
547.507	3119.28
547.711	3139.24
547.915	3152.22
548.119	3087.31
548.324	3061.55
548.528	3162.29
548.732	3098.36
548.936	3164.04
549.141	3189.42
549.345	3189.42
549.549	3166.75
549.753	3204.92
549.957	3254.71
550.161	3231.85
550.366	3215.77
550.57	3131.29
550.774	3200.85
550.978	3140.98
551.182	3200.07
551.386	3169.07
551.59	3190.58
551.794	3172.37
551.998	3218.67
552.202	3206.86
552.406	3183.41
552.61	3215.57
552.814	3225.65
553.018	3249.87
553.222	3168.3
553.426	3124.13
553.63	3279.7
553.833	3148.34
554.037	3151.44
554.241	3201.82
554.445	3204.72
554.649	3194.46
554.853	3187.09
555.056	3209.37
555.26	3258.78
555.464	3193.29
555.668	3204.34
555.871	3256.07
556.075	3206.08
556.279	3200.07
556.483	3146.41
556.686	3139.04
556.89	3151.25
557.094	3140.59
557.297	3105.53
557.501	3155.13
557.704	3022.8
557.908	3159.97
558.112	3047.6
558.315	3126.45
558.519	3088.86
558.722	3011.56
558.926	3035.39
559.129	2960.8
559.333	2944.91
559.536	3003.81
559.74	2942.58
559.943	2921.66
560.147	2941.03
560.35	2928.63
560.553	3001.87
560.757	2932.9
560.96	3016.21
561.164	2991.41
561.367	3071.62
561.57	3004.97
561.774	2962.54
561.977	2978.23
562.18	2917.4
562.384	3002.84
562.587	2928.05
562.79	2954.02
562.993	2902.87
563.197	2943.36
563.4	2985.6
563.603	2981.92
563.806	3046.82
564.009	2932.32
564.212	2941.81
564.416	2868.57
564.619	2870.51
564.822	2841.84
565.025	2899.19
565.228	2861.21
565.431	2878.26
565.634	2748.06
565.837	2796.11
566.04	2743.8
566.243	2745.93
566.446	2673.66
566.649	2801.92
566.852	2663.98
567.055	2754.84
567.258	2771.89
567.461	2781
567.664	2762.98
567.867	2710.67
568.07	2718.23
568.273	2756.59
568.475	2759.49
568.678	2656.03
568.881	2672.11
569.084	2644.79
569.287	2518.28
569.489	2567.88
569.692	2651.96
569.895	2619.8
570.098	2564
570.3	2529.52
570.503	2439.23
570.706	2486.7
570.909	2480.3
571.111	2435.74
571.314	2395.25
571.516	2428.96
571.719	2446.4
571.922	2389.24
572.124	2438.84
572.327	2372.58
572.529	2375.29
572.732	2389.82
572.935	2419.08
573.137	2532.03
573.34	2398.54
573.542	2464.8
573.745	2447.56
573.947	2457.44
574.15	2328.6
574.352	2385.75
574.554	2423.34
574.757	2350.11
574.959	2294.31
575.162	2358.82
575.364	2289.66
575.566	2383.82
575.769	2249.36
575.971	2306.12
576.173	2165.08
576.376	2279
576.578	2284.43
576.78	2309.61
576.982	2186.58
577.185	2266.21
577.387	2225.72
577.589	2210.41
577.791	2223.2
577.993	2237.73
578.196	2223.01
578.398	2237.34
578.6	2247.61
578.802	2144.93
579.004	2132.33
579.206	2138.73
579.408	2197.82
579.61	2148.41
579.812	2209.44
580.014	2167.21
580.216	2143.76
580.418	2195.69
580.62	2173.6
580.822	2144.93
581.024	2193.95
581.226	2247.81
581.428	2192.98
581.63	2296.63
581.832	2157.71
582.034	2229.01
582.236	2198.6
582.438	2220.29
582.64	2244.13
582.841	2242.58
583.043	2303.02
583.245	2224.75
583.447	2256.33
583.649	2233.47
583.85	2223.98
584.052	2265.05
584.254	2160.81
584.456	2205.96
584.657	2148.61
584.859	2211.19
585.061	2197.63
585.262	2147.83
585.464	2164.69
585.666	2199.56
585.867	2146.67
586.069	2142.41
586.27	2117.42
586.472	2124.2
586.674	2117.22
586.875	2101.92
587.077	2136.98
587.278	2095.33
587.48	2137.56
587.681	2235.79
587.883	2117.03
588.084	2014.34
588.285	2074.98
588.487	2073.63
588.688	2042.63
588.89	1935.68
589.091	1902.36
589.292	1898.29
589.494	1851.21
589.695	1822.73
589.896	1718.1
590.098	1775.06
590.299	1781.26
590.5	1759.37
590.702	1832.8
590.903	1855.66
591.104	1922.31
591.305	1909.91
591.507	1956.8
591.708	1950.4
591.909	1920.37
592.11	1996.32
592.311	1922.7
592.512	1902.16
592.714	1829.31
592.915	1876.97
593.116	1906.42
593.317	1927.16
593.518	1946.72
593.719	1963.58
593.92	1937.81
594.121	1999.62
594.322	1920.76
594.523	1949.24
594.724	1887.82
594.925	1868.64
595.126	1864.57
595.327	1878.14
595.528	1870.19
595.729	1896.35
595.929	1907.2
596.13	1893.44
596.331	1915.34
596.532	1907.97
596.733	1974.82
596.934	1937.42
597.135	1946.72
597.335	1939.75
597.536	1902.16
597.737	1934.52
597.938	1908.75
598.138	1923.67
598.339	1920.57
598.54	1898.48
598.74	1872.13
598.941	1936.46
599.142	1948.85
599.342	1915.14
599.543	1886.47
599.744	1946.72
599.944	1918.44
600.145	1849.08
600.345	1901.39
600.546	1946.72
600.746	1942.85
600.947	1950.6
601.147	1899.45
601.348	1968.42
601.548	1829.7
601.749	1903.91
601.949	1833.58
602.15	1848.11
602.35	1847.91
602.551	1858.96
602.751	1834.74
602.951	1860.51
603.152	1824.66
603.352	1904.49
603.552	1887.44
603.753	1887.05
603.953	1929.67
604.153	1874.84
604.354	1898.09
604.554	1893.83
604.754	1912.62
604.954	1842.1
605.155	1911.85
605.355	1906.04
605.555	1893.25
605.755	1922.31
605.955	1865.35
606.155	1877.94
606.356	1856.83
606.556	1893.06
606.756	1875.23
606.956	1854.69
607.156	1913.21
607.356	1829.89
607.556	1829.12
607.756	1863.02
607.956	1927.54
608.156	1864.96
608.356	1837.06
608.556	1855.86
608.756	1808.19
608.956	1849.27
609.156	1841.52
609.356	1811.68
609.556	1772.93
609.755	1840.55
609.955	1783.2
610.155	1801.8
610.355	1803.74
610.555	1728.37
610.755	1754.91
610.954	1719.46
611.154	1776.61
611.354	1803.93
611.554	1715.39
611.753	1732.83
611.953	1685.94
612.153	1784.94
612.352	1785.91
612.552	1709.77
612.752	1697.18
612.951	1748.71
613.151	1719.46
613.351	1708.61
613.55	1682.07
613.75	1723.14
613.949	1673.15
614.149	1738.83
614.348	1702.02
614.548	1670.63
614.747	1627.04
614.947	1680.32
615.146	1617.74
615.346	1665.21
615.545	1693.5
615.745	1677.61
615.944	1688.46
616.144	1658.04
616.343	1651.26
616.542	1647.38
616.742	1641.77
616.941	1610.57
