Data from gum_young_FLMT105791__53__17-39-11-035.txt Node

Date: Mon Mar 20 17:39:11 GMT 2023
User: antho
Spectrometer: FLMT10579
Trigger mode: 0
Integration Time (sec): 1.000000E-1
Scans to average: 10
Electric dark correction enabled: true
Nonlinearity correction enabled: false
Boxcar width: 0
XAxis mode: Wavelengths
Number of Pixels in Spectrum: 3648
>>>>>Begin Spectral Data<<<<<
345.248	-150.69
345.464	-150.69
345.681	-150.69
345.898	-138.29
346.114	-135.19
346.331	-44.32
346.548	34.92
346.764	12.45
346.981	-12.93
347.197	6.05
347.414	-8.86
347.631	-35.6
347.847	71.15
348.064	-5.38
348.28	46.55
348.497	-47.42
348.713	-16.61
348.93	50.23
349.146	15.55
349.363	-15.06
349.579	36.28
349.796	9.54
350.012	14
350.229	35.31
350.445	7.99
350.661	-15.65
350.878	7.99
351.094	11.67
351.311	26.59
351.527	46.74
351.743	-3.25
351.96	26.79
352.176	18.07
352.392	34.92
352.609	49.45
352.825	-24.17
353.041	-0.15
353.257	20
353.474	30.85
353.69	18.26
353.906	-0.73
354.122	12.25
354.339	62.24
354.555	9.74
354.771	-2.08
354.987	72.51
355.203	52.17
355.42	0.82
355.636	1.99
355.852	-4.6
356.068	18.45
356.284	-20.3
356.5	37.64
356.716	50.42
356.932	-0.92
357.148	24.46
357.364	9.74
357.58	56.82
357.796	48.49
358.012	42.87
358.228	23.49
358.444	-30.56
358.66	51.59
358.876	27.75
359.092	-13.13
359.308	49.45
359.524	47.52
359.74	-2.28
359.956	-3.83
360.172	18.26
360.388	33.57
360.604	10.9
360.819	56.62
361.035	20.2
361.251	5.67
361.467	-9.64
361.683	46.35
361.898	38.6
362.114	35.5
362.33	25.04
362.546	30.47
362.762	15.55
362.977	16.52
363.193	-4.8
363.409	53.52
363.624	-31.14
363.84	29.69
364.056	-3.44
364.271	32.4
364.487	23.49
364.703	-13.9
364.918	-12.74
365.134	2.37
365.35	23.88
365.565	113.39
365.781	23.3
365.996	28.34
366.212	75.42
366.427	45.77
366.643	-22.23
366.858	16.71
367.074	-0.15
367.289	61.47
367.505	109.32
367.72	-21.07
367.936	4.89
368.151	47.13
368.367	26.2
368.582	23.1
368.798	27.37
369.013	63.79
369.228	24.27
369.444	26.59
369.659	57.79
369.874	26.4
370.09	63.6
370.305	-31.34
370.52	21.55
370.736	69.02
370.951	19.23
371.166	55.65
371.381	66.7
371.597	49.26
371.812	8.96
372.027	-9.06
372.242	10.7
372.458	81.23
372.673	26.2
372.888	31.05
373.103	58.75
373.318	100.22
373.533	25.43
373.749	61.47
373.964	-36.18
374.179	38.99
374.394	-4.6
374.609	65.15
374.824	-9.25
375.039	77.74
375.254	10.12
375.469	50.23
375.684	30.66
375.899	43.64
376.114	19.62
376.329	15.16
376.544	30.27
376.759	56.62
376.974	-3.44
377.189	22.91
377.404	14.19
377.619	48.87
377.834	-31.53
378.049	-9.45
378.264	-7.31
378.478	12.25
378.693	5.28
378.908	11.09
379.123	19.04
379.338	76.38
379.553	32.6
379.767	27.95
379.982	51
380.197	28.72
380.412	30.27
380.626	13.61
380.841	104.09
381.056	40.15
381.271	94.6
381.485	-3.44
381.7	18.45
381.915	42.09
382.129	12.06
382.344	47.9
382.559	30.27
382.773	51.78
382.988	-17.97
383.202	18.84
383.417	1.02
383.632	110.87
383.846	14
384.061	47.71
384.275	26.4
384.49	39.38
384.704	39.19
384.919	47.13
385.133	-5.18
385.348	65.92
385.562	15.55
385.777	57.79
385.991	17.29
386.206	2.37
386.42	-14.1
386.634	64.76
386.849	15.74
387.063	21.17
387.277	-6.15
387.492	6.25
387.706	25.82
387.92	14.77
388.135	47.9
388.349	38.8
388.563	62.44
388.778	42.67
388.992	77.74
389.206	53.91
389.42	110.29
389.635	29.89
389.849	55.27
390.063	92.85
390.277	50.04
390.491	71.35
390.706	43.06
390.92	58.75
391.134	43.45
391.348	67.08
391.562	-10.41
391.776	34.73
391.99	9.54
392.205	55.46
392.419	2.57
392.633	45.97
392.847	61.27
393.061	-4.6
393.275	69.6
393.489	47.71
393.703	75.22
393.917	92.47
394.131	13.61
394.345	48.1
394.559	66.31
394.773	28.14
394.986	35.12
395.2	56.24
395.414	62.05
395.628	16.32
395.842	37.05
396.056	35.5
396.27	10.9
396.484	54.3
396.697	70.18
396.911	69.99
397.125	70.38
397.339	68.83
397.553	72.32
397.766	110.1
397.98	98.28
398.194	79.68
398.408	29.69
398.621	90.14
398.835	71.93
399.049	93.24
399.262	118.62
399.476	81.42
399.69	72.9
399.903	119.59
400.117	39.57
400.331	79.1
400.544	46.55
400.758	161.63
400.971	55.27
401.185	91.11
401.398	45
401.612	120.95
401.826	93.43
402.039	71.35
402.253	74.25
402.466	76.38
402.68	59.14
402.893	75.42
403.106	86.07
403.32	70.38
403.533	98.67
403.747	87.82
403.96	70.18
404.174	110.48
404.387	48.49
404.6	78.32
404.814	102.54
405.027	87.04
405.24	83.36
405.454	75.42
405.667	107
405.88	9.54
406.094	95.57
406.307	86.07
406.52	98.28
406.733	49.45
406.947	14
407.16	130.83
407.373	121.33
407.586	84.33
407.799	52.94
408.012	128.5
408.226	83.55
408.439	155.43
408.652	66.7
408.865	88.4
409.078	130.63
409.291	99.44
409.504	69.02
409.717	107
409.93	120.37
410.143	83.17
410.357	27.56
410.57	51.97
410.783	68.05
410.996	97.5
411.209	75.42
411.421	121.92
411.634	92.47
411.847	61.08
412.06	73.67
412.273	82.2
412.486	109.9
412.699	181.01
412.912	87.04
413.125	108.93
413.338	77.55
413.55	129.47
413.763	78.52
413.976	102.73
414.189	108.74
414.402	97.5
414.615	159.89
414.827	77.16
415.04	122.69
415.253	98.86
415.466	128.89
415.678	168.61
415.891	99.25
416.104	84.33
416.316	97.5
416.529	69.99
416.742	131.02
416.954	148.07
417.167	129.67
417.38	88.98
417.592	145.36
417.805	58.95
418.017	57.59
418.23	105.83
418.442	80.26
418.655	91.3
418.868	104.28
419.08	146.72
419.293	127.15
419.505	110.87
419.718	117.65
419.93	151.17
420.142	81.03
420.355	152.72
420.567	151.75
420.78	138.58
420.992	130.63
421.205	151.56
421.417	93.82
421.629	102.73
421.842	86.27
422.054	91.88
422.266	145.94
422.479	172.87
422.691	97.12
422.903	139.35
423.115	99.83
423.328	118.82
423.54	139.35
423.752	119.78
423.964	86.85
424.177	143.23
424.389	99.05
424.601	204.45
424.813	135.87
425.025	140.32
425.238	171.71
425.45	117.46
425.662	101.77
425.874	381.34
426.086	129.86
426.298	150.2
426.51	146.52
426.722	148.65
426.934	101.18
427.146	145.75
427.358	103.9
427.57	173.84
427.782	106.61
427.994	119.59
428.206	117.27
428.418	89.17
428.63	158.92
428.842	126.95
429.054	161.63
429.266	153.88
429.478	107.19
429.69	129.47
429.902	86.85
430.114	163.57
430.325	116.68
430.537	98.28
430.749	104.09
430.961	74.25
431.173	109.52
431.384	113.58
431.596	41.51
431.808	147.49
432.02	136.83
432.231	169.77
432.443	171.9
432.655	157.76
432.867	111.45
433.078	128.89
433.29	194.18
433.502	198.25
433.713	198.64
433.925	175.39
434.136	174.61
434.348	128.12
434.56	125.02
434.771	237.58
434.983	118.82
435.194	112.42
435.406	152.33
435.617	193.41
435.829	221.5
436.04	177.13
436.252	162.41
436.463	242.43
436.675	188.18
436.886	197.48
437.098	202.51
437.309	242.81
437.521	156.21
437.732	181.98
437.943	154.46
438.155	170.74
438.366	159.5
438.578	233.32
438.789	207.16
439	173.84
439.211	159.89
439.423	179.46
439.634	184.3
439.845	189.15
440.057	185.08
440.268	209.3
440.479	147.68
440.69	196.7
440.902	171.51
441.113	162.6
441.324	151.56
441.535	205.81
441.746	244.75
441.957	163.76
442.168	187.6
442.38	227.31
442.591	245.53
442.802	164.35
443.013	185.46
443.224	193.8
443.435	181.2
443.646	189.34
443.857	206.97
444.068	202.32
444.279	166.48
444.49	265.09
444.701	220.15
444.912	289.12
445.123	251.34
445.334	223.44
445.545	213.95
445.756	212.78
445.967	186.43
446.178	211.23
446.388	250.95
446.599	244.56
446.81	218.01
447.021	188.56
447.232	265.68
447.443	271.49
447.653	191.66
447.864	262.38
448.075	210.85
448.286	256.76
448.496	243.2
448.707	262.38
448.918	214.91
449.129	316.83
449.339	208.71
449.55	256.96
449.761	234.1
449.971	296.09
450.182	216.46
450.393	284.86
450.603	221.31
450.814	287.76
451.024	270.52
451.235	269.94
451.446	309.66
451.656	302.1
451.867	215.88
452.077	270.33
452.288	288.15
452.498	294.93
452.709	230.22
452.919	299.78
453.13	227.12
453.34	275.75
453.55	226.54
453.761	276.91
453.971	275.56
454.182	299.58
454.392	285.24
454.602	332.91
454.813	306.56
455.023	326.9
455.233	252.89
455.444	282.73
455.654	232.74
455.864	254.63
456.075	249.98
456.285	244.94
456.495	268.97
456.705	290.67
456.916	328.06
457.126	326.51
457.336	267.81
457.546	240.88
457.756	307.14
457.967	323.61
458.177	257.54
458.387	303.84
458.597	261.99
458.807	245.33
459.017	276.33
459.227	254.83
459.437	280.79
459.647	311.59
459.857	293.77
460.068	274.78
460.278	331.94
460.488	330.19
460.698	315.86
460.908	311.98
461.117	271.1
461.327	262.96
461.537	268.19
461.747	330.19
461.957	271.1
462.167	400.91
462.377	342.01
462.587	308.69
462.797	343.56
463.007	282.14
463.216	302.88
463.426	353.06
463.636	340.85
463.846	271.29
464.056	286.41
464.265	331.55
464.475	298.03
464.685	301.91
464.895	325.16
465.104	302.49
465.314	336.2
465.524	290.67
465.733	293.77
465.943	392.19
466.153	405.56
466.362	342.59
466.572	351.7
466.782	304.62
466.991	322.44
467.201	385.8
467.41	282.34
467.62	346.86
467.829	321.48
468.039	358.87
468.249	323.22
468.458	346.47
468.668	364.87
468.877	361
469.086	391.22
469.296	383.47
469.505	332.13
469.715	403.43
469.924	350.34
470.134	390.06
470.343	401.88
470.552	354.61
470.762	346.47
470.971	332.32
471.18	356.16
471.39	350.73
471.599	347.05
471.808	373.01
472.018	350.73
472.227	388.51
472.436	421.45
472.645	367.39
472.855	339.69
473.064	398.78
473.273	385.61
473.482	379.41
473.691	430.55
473.901	413.31
474.11	409.63
474.319	481.32
474.528	427.45
474.737	426.29
474.946	423.77
475.155	411.76
475.364	444.5
475.573	413.89
475.783	413.31
475.992	426.49
476.201	454.39
476.41	408.08
476.619	366.42
476.828	425.32
477.037	425.32
477.245	407.89
477.454	451.29
477.663	425.13
477.872	428.81
478.081	481.32
478.29	412.54
478.499	537.12
478.708	449.74
478.917	524.13
479.125	458.84
479.334	452.84
479.543	460.78
479.752	472.4
479.961	487.32
480.169	534.02
480.378	492.36
480.587	586.33
480.796	508.44
481.004	474.34
481.213	530.72
481.422	523.75
481.63	501.08
481.839	533.82
482.048	570.63
482.256	501.47
482.465	550.87
482.674	554.55
482.882	557.65
483.091	630.5
483.299	525.49
483.508	552.03
483.716	521.03
483.925	560.56
484.134	503.4
484.342	550.1
484.551	585.75
484.759	562.5
484.967	599.89
485.176	582.45
485.384	589.62
485.593	604.15
485.801	555.72
486.01	577.42
486.218	540.02
486.426	493.14
486.635	516.38
486.843	490.42
487.051	538.08
487.26	522
487.468	567.15
487.676	576.64
487.885	562.5
488.093	565.02
488.301	597.18
488.509	635.15
488.717	652.2
488.926	626.43
489.134	581.1
489.342	573.15
489.55	566.57
489.758	630.5
489.967	600.47
490.175	659.37
490.383	624.5
490.591	696.76
490.799	602.6
491.007	682.04
491.215	660.34
491.423	644.26
491.631	662.08
491.839	653.36
492.047	688.82
492.255	633.99
492.463	595.63
492.671	632.44
492.879	713.23
493.087	672.74
493.295	683.01
493.503	689.01
493.711	722.73
493.919	698.12
494.127	712.26
494.334	716.91
494.542	650.26
494.75	699.86
494.958	702.19
495.166	760.31
495.374	738.61
495.581	736.68
495.789	748.49
495.997	774.65
496.205	751.4
496.412	748.88
496.62	721.76
496.828	756.44
497.035	727.57
497.243	769.61
497.451	775.81
497.658	768.64
497.866	762.25
498.074	830.45
498.281	745.78
498.489	832.58
498.696	761.67
498.904	760.51
499.112	726.99
499.319	836.84
499.527	775.23
499.734	827.54
499.942	768.64
500.149	769.42
500.357	809.14
500.564	763.22
500.771	810.49
500.979	779.11
501.186	777.36
501.394	782.98
501.601	786.08
501.808	819.21
502.016	796.16
502.223	777.94
502.43	790.73
502.638	794.99
502.845	769.42
503.052	861.84
503.26	816.89
503.467	879.85
503.674	849.05
503.881	871.72
504.089	893.42
504.296	866.49
504.503	834.13
504.71	873.27
504.917	828.12
505.125	870.17
505.332	877.92
505.539	894.39
505.746	951.73
505.953	944.18
506.16	929.45
506.367	958.9
506.574	996.88
506.781	964.72
506.988	930.42
507.195	962.78
507.402	955.42
507.609	962.97
507.816	958.71
508.023	939.14
508.23	969.37
508.437	935.07
508.644	987.58
508.851	1024
509.058	1016.64
509.265	969.75
509.472	1013.93
509.679	1107.7
509.885	1035.63
510.092	1056.16
510.299	1009.47
510.506	1057.71
510.713	1052.87
510.92	1057.52
511.126	1098.79
511.333	1123.98
511.54	1085.81
511.746	1149.16
511.953	1126.3
512.16	1167.76
512.367	1145.09
512.573	1126.69
512.78	1131.92
512.987	1139.09
513.193	1128.63
513.4	1032.53
513.606	1110.22
513.813	1154.2
514.02	1158.46
514.226	1201.86
514.433	1234.8
514.639	1112.35
514.846	1165.24
515.052	1136.38
515.259	1182.68
515.465	1234.8
515.672	1209.22
515.878	1300.87
516.085	1223.17
516.291	1264.64
516.497	1199.54
516.704	1207.09
516.91	1159.43
517.117	1164.28
517.323	1135.02
517.529	1131.14
517.736	1131.73
517.942	1155.17
518.148	1166.79
518.354	1234.41
518.561	1266.96
518.767	1207.48
518.973	1251.46
519.179	1273.94
519.386	1281.49
519.592	1283.24
519.798	1277.23
520.004	1426.42
520.21	1323.54
520.417	1391.35
520.623	1433.2
520.829	1448.7
521.035	1444.63
521.241	1440.37
521.447	1474.85
521.653	1599.43
521.859	1478.53
522.065	1495.97
522.271	1600.98
522.477	1557.97
522.683	1579.67
522.889	1569.21
523.095	1555.45
523.301	1546.73
523.507	1534.72
523.713	1569.21
523.919	1545.18
524.125	1604.86
524.331	1611.64
524.537	1689.72
524.742	1657.56
524.948	1703.86
525.154	1720.14
525.36	1778.07
525.566	1675.96
525.772	1729.44
525.977	1690.69
526.183	1706.96
526.389	1743.39
526.595	1662.01
526.8	1667.63
527.006	1611.83
527.212	1590.13
527.417	1580.44
527.623	1555.45
527.829	1661.04
528.034	1686.62
528.24	1687.2
528.446	1705.22
528.651	1809.45
528.857	1772.45
529.062	1880.75
529.268	1829.6
529.473	1855.57
529.679	1856.15
529.884	1890.05
530.09	1870.29
530.295	1909.04
530.501	1901.48
530.706	1893.15
530.912	1848.98
531.117	1934.23
531.323	1894.9
531.528	1956.51
531.733	1960.77
531.939	1956.7
532.144	1975.88
532.35	1945.08
532.555	1976.85
532.76	1975.3
532.966	1935
533.171	1929.19
533.376	1857.89
533.581	1885.79
533.787	1931.9
533.992	1999.13
534.197	1947.6
534.402	1964.84
534.607	1988.48
534.813	2049.12
535.018	1968.52
535.223	2010.18
535.428	2028.39
535.633	2062.29
535.838	2077.02
536.043	2102.21
536.249	2192.1
536.454	2085.16
536.659	2109.76
536.864	2071.98
537.069	2051.25
537.274	2082.06
537.479	2048.93
537.684	2107.05
537.889	2027.23
538.094	2158.2
538.299	2077.99
538.504	2148.71
538.708	2139.41
538.913	2136.11
539.118	2177.77
539.323	2139.21
539.528	2066.94
539.733	2106.27
539.938	2141.73
540.142	2115.96
540.347	2085.54
540.552	2074.69
540.757	2068.3
540.962	2086.51
541.166	2065.78
541.371	2021.41
541.576	2080.12
541.781	2016.96
541.985	2113.06
542.19	2103.56
542.395	2213.42
542.599	2177.19
542.804	2140.76
543.008	2212.25
543.213	2155.68
543.418	2110.92
543.622	2155.1
543.827	2097.94
544.031	2214.19
544.236	2195.98
544.44	2226.98
544.645	2266.5
544.849	2172.73
545.054	2237.64
545.258	2281.42
545.463	2238.6
545.667	2196.17
545.872	2258.17
546.076	2222.72
546.281	2254.3
546.485	2247.52
546.689	2233.57
546.894	2251.58
547.098	2257.59
547.302	2191.52
547.507	2198.5
547.711	2274.25
547.915	2262.43
548.119	2185.9
548.324	2224.46
548.528	2281.62
548.732	2233.95
548.936	2299.63
549.141	2287.23
549.345	2237.64
549.549	2265.73
549.753	2286.65
549.957	2361.63
550.161	2324.43
550.366	2323.66
550.57	2261.27
550.774	2309.71
550.978	2308.74
551.182	2306.61
551.386	2243.06
551.59	2255.46
551.794	2264.18
551.998	2258.17
552.202	2286.85
552.406	2261.27
552.61	2324.63
552.814	2300.99
553.018	2373.45
553.222	2258.56
553.426	2294.6
553.63	2338.19
553.833	2319.98
554.037	2203.73
554.241	2314.94
554.445	2279.87
554.649	2267.67
554.853	2281.23
555.056	2350.78
555.26	2373.26
555.464	2294.4
555.668	2329.86
555.871	2355.05
556.075	2335.09
556.279	2278.13
556.483	2233.37
556.686	2265.92
556.89	2277.74
557.094	2295.95
557.297	2195.59
557.501	2265.73
557.704	2179.7
557.908	2280.07
558.112	2210.51
558.315	2292.85
558.519	2224.27
558.722	2179.12
558.926	2183.97
559.129	2102.4
559.333	2100.46
559.536	2132.24
559.74	2090.19
559.943	2101.24
560.147	2131.46
560.35	2128.75
560.553	2111.31
560.757	2117.32
560.96	2194.62
561.164	2144.44
561.367	2242.67
561.57	2182.03
561.774	2159.17
561.977	2124.87
562.18	2119.06
562.384	2146.19
562.587	2123.52
562.79	2135.72
562.993	2096.2
563.197	2142.31
563.4	2195.79
563.603	2141.34
563.806	2198.11
564.009	2085.54
564.212	2138.24
564.416	2066.36
564.619	2107.05
564.822	2046.02
565.025	2120.61
565.228	2068.11
565.431	2119.45
565.634	1984.8
565.837	2022.77
566.04	2030.91
566.243	2021.8
566.446	1912.91
566.649	2009.59
566.852	1939.07
567.055	1967.75
567.258	1981.89
567.461	1985.76
567.664	2031.29
567.867	1954.76
568.07	1984.02
568.273	1967.55
568.475	2043.69
568.678	1930.35
568.881	1928.8
569.084	1909.23
569.287	1831.54
569.489	1874.55
569.692	1924.73
569.895	1927.83
570.098	1825.15
570.3	1830.38
570.503	1776.71
570.706	1851.88
570.909	1786.01
571.111	1776.9
571.314	1717.42
571.516	1788.34
571.719	1791.82
571.922	1750.36
572.124	1760.63
572.327	1800.15
572.529	1708.9
572.732	1733.7
572.935	1789.11
573.137	1853.43
573.34	1736.6
573.542	1766.83
573.745	1736.6
573.947	1733.12
574.15	1742.03
574.352	1701.92
574.554	1797.64
574.757	1692.62
574.959	1670.34
575.162	1700.57
575.364	1679.45
575.566	1767.8
575.769	1637.02
575.971	1674.22
576.173	1589.94
576.376	1640.12
576.578	1711.61
576.78	1702.7
576.982	1610.28
577.185	1646.51
577.387	1586.45
577.589	1590.13
577.791	1662.4
577.993	1635.28
578.196	1615.51
578.398	1641.67
578.6	1662.98
578.802	1578.7
579.004	1535.69
579.206	1575.21
579.408	1604.28
579.61	1583.35
579.812	1649.42
580.014	1578.31
580.216	1598.27
580.418	1587.61
580.62	1587.03
580.822	1564.56
581.024	1613.58
581.226	1642.44
581.428	1608.34
581.63	1643.99
581.832	1573.86
582.034	1614.16
582.236	1590.52
582.438	1637.02
582.64	1631.4
582.841	1668.6
583.043	1721.69
583.245	1645.54
583.447	1667.44
583.649	1635.28
583.85	1620.36
584.052	1650.19
584.254	1579.48
584.456	1629.27
584.657	1570.18
584.859	1631.4
585.061	1583.35
585.262	1575.02
585.464	1568.82
585.666	1604.08
585.867	1573.08
586.069	1603.89
586.27	1576.57
586.472	1612.61
586.674	1534.72
586.875	1549.83
587.077	1565.14
587.278	1579.86
587.48	1558.94
587.681	1667.05
587.883	1547.12
588.084	1455.67
588.285	1507.6
588.487	1476.01
588.688	1478.53
588.89	1442.5
589.091	1384.57
589.292	1408.78
589.494	1360.93
589.695	1335.35
589.896	1253.98
590.098	1295.05
590.299	1329.35
590.5	1338.45
590.702	1358.41
590.903	1365.39
591.104	1420.99
591.305	1392.12
591.507	1472.91
591.708	1436.1
591.909	1410.53
592.11	1468.85
592.311	1438.04
592.512	1375.27
592.714	1382.63
592.915	1369.84
593.116	1393.67
593.317	1430.87
593.518	1388.25
593.719	1421.57
593.92	1446.95
594.121	1451.8
594.322	1431.07
594.523	1430.1
594.724	1360.54
594.925	1382.05
595.126	1407.04
595.327	1413.82
595.528	1409.95
595.729	1383.21
595.929	1392.7
596.13	1390.96
596.331	1381.85
596.532	1412.08
596.733	1466.52
596.934	1454.9
597.135	1436.1
597.335	1415.37
597.536	1387.67
597.737	1393.87
597.938	1400.07
598.138	1406.85
598.339	1398.13
598.54	1421.96
598.74	1352.02
598.941	1425.25
599.142	1448.5
599.342	1411.69
599.543	1357.44
599.744	1376.82
599.944	1346.79
600.145	1364.42
600.345	1389.22
600.546	1448.7
600.746	1424.87
600.947	1490.93
601.147	1357.25
601.348	1426.42
601.548	1355.31
601.749	1400.26
601.949	1359.38
602.15	1393.28
602.35	1377.59
602.551	1386.5
602.751	1370.04
602.951	1358.6
603.152	1338.45
603.352	1406.46
603.552	1384.57
603.753	1412.66
603.953	1421.57
604.153	1350.66
604.354	1362.87
604.554	1365
604.754	1389.8
604.954	1306.49
605.155	1389.02
605.355	1355.5
605.555	1403.36
605.755	1425.06
605.955	1364.61
606.155	1411.88
606.356	1378.95
606.556	1371.97
606.756	1372.17
606.956	1330.12
607.156	1382.05
607.356	1332.45
607.556	1370.04
607.756	1328.57
607.956	1387.08
608.156	1345.43
608.356	1294.09
608.556	1365.97
608.756	1322.18
608.956	1318.89
609.156	1315.4
609.356	1315.98
609.556	1279.36
609.755	1321.79
609.955	1290.99
610.155	1330.51
610.355	1320.24
610.555	1274.71
610.755	1286.72
610.954	1243.32
611.154	1314.04
611.354	1329.74
611.554	1265.02
611.753	1290.02
611.953	1218.91
612.153	1283.62
612.352	1257.66
612.552	1207.48
612.752	1168.54
612.951	1277.62
613.151	1275.1
613.351	1238.29
613.55	1240.42
613.75	1249.14
613.949	1227.82
614.149	1267.54
614.348	1220.27
614.548	1178.61
614.747	1172.03
614.947	1206.9
615.146	1176.68
615.346	1230.34
615.545	1253.59
615.745	1209.22
615.944	1256.89
616.144	1190.24
616.343	1203.8
616.542	1172.41
616.742	1205.16
616.941	1176.09
617.14	1115.84
617.34	1168.73
617.539	1188.49
617.738	1146.45
617.938	1229.76
618.137	1192.95
618.336	1142.58
618.535	1186.36
