Data from gum_young_FLMT105791__36__17-38-35-044.txt Node

Date: Mon Mar 20 17:38:35 GMT 2023
User: antho
Spectrometer: FLMT10579
Trigger mode: 0
Integration Time (sec): 1.000000E-1
Scans to average: 10
Electric dark correction enabled: true
Nonlinearity correction enabled: false
Boxcar width: 0
XAxis mode: Wavelengths
Number of Pixels in Spectrum: 3648
>>>>>Begin Spectral Data<<<<<
345.248	-169.45
345.464	-169.45
345.681	-169.45
345.898	-132.05
346.114	-131.86
346.331	-44.29
346.548	30.11
346.764	7.83
346.981	-17.16
347.197	-4.96
347.414	15.58
347.631	-14.45
347.847	47.16
348.064	15
348.28	8.61
348.497	-35.76
348.713	-7.67
348.93	43.67
349.146	31.66
349.363	-4.96
349.579	3.57
349.796	5.89
350.012	-3.41
350.229	53.17
350.445	9.77
350.661	6.86
350.878	8.8
351.094	37.67
351.311	41.35
351.527	11.51
351.743	6.28
351.96	27.79
352.176	36.51
352.392	32.63
352.609	46.39
352.825	1.05
353.041	8.8
353.257	-5.34
353.474	-0.89
353.69	12.29
353.906	-4.96
354.122	-24.72
354.339	58.01
354.555	16.55
354.771	-15.42
354.987	36.12
355.203	36.12
355.42	16.94
355.636	-6.31
355.852	-55.33
356.068	3.57
356.284	-22.78
356.5	50.84
356.716	30.69
356.932	-14.84
357.148	28.76
357.364	19.84
357.58	46
357.796	46.77
358.012	42.9
358.228	34.57
358.444	-20.07
358.66	42.71
358.876	10.74
359.092	-25.49
359.308	1.44
359.524	71.77
359.74	-2.44
359.956	-11.74
360.172	27.79
360.388	58.4
360.604	-5.73
360.819	83.97
361.035	1.44
361.251	46.58
361.467	-3.41
361.683	48.32
361.898	27.98
362.114	54.72
362.33	5.89
362.546	51.42
362.762	13.06
362.977	6.09
363.193	-22.98
363.409	26.62
363.624	-20.65
363.84	2.41
364.056	-28.4
364.271	35.54
364.487	13.45
364.703	0.08
364.918	-3.99
365.134	2.79
365.35	6.47
365.565	86.1
365.781	32.63
365.996	28.76
366.212	59.95
366.427	26.04
366.643	19.84
366.858	1.63
367.074	-15.61
367.289	64.6
367.505	106.45
367.72	7.25
367.936	-1.86
368.151	50.46
368.367	5.51
368.582	36.31
368.798	8.99
369.013	63.24
369.228	25.07
369.444	23.14
369.659	38.44
369.874	39.41
370.09	65.37
370.305	-16.39
370.52	15.19
370.736	61.89
370.951	21.2
371.166	62.47
371.381	55.88
371.597	30.5
371.812	-15.23
372.027	-22.98
372.242	36.7
372.458	85.72
372.673	36.31
372.888	28.17
373.103	14.22
373.318	86.69
373.533	37.67
373.749	47.36
373.964	-24.72
374.179	41.35
374.394	27.59
374.609	50.46
374.824	-4.57
375.039	31.66
375.254	-5.93
375.469	44.64
375.684	42.32
375.899	64.79
376.114	14.22
376.329	37.28
376.544	44.84
376.759	58.01
376.974	17.91
377.189	35.15
377.404	21.78
377.619	56.65
377.834	-17.55
378.049	4.34
378.264	-11.35
378.478	21.97
378.693	-6.7
378.908	33.6
379.123	26.04
379.338	46.19
379.553	32.44
379.767	18.87
379.982	39.02
380.197	33.02
380.412	32.82
380.626	30.5
380.841	106.06
381.056	52.39
381.271	82.81
381.485	5.12
381.7	-22.78
381.915	31.47
382.129	10.35
382.344	19.84
382.559	20.62
382.773	52.39
382.988	-20.65
383.202	28.76
383.417	12.29
383.632	103.54
383.846	33.6
384.061	36.31
384.275	22.94
384.49	33.6
384.704	54.91
384.919	49.1
385.133	27.21
385.348	36.51
385.562	-8.64
385.777	78.55
385.991	24.11
386.206	13.45
386.42	12.87
386.634	54.52
386.849	35.15
387.063	14.81
387.277	39.22
387.492	15
387.706	-2.44
387.92	13.26
388.135	45.22
388.349	29.72
388.563	22.36
388.778	43.87
388.992	55.1
389.206	30.31
389.42	88.82
389.635	38.25
389.849	44.84
390.063	83.97
390.277	67.12
390.491	90.95
390.706	44.26
390.92	46.97
391.134	23.14
391.348	39.8
391.562	-27.82
391.776	34.57
391.99	22.36
392.205	79.13
392.419	18.1
392.633	40.38
392.847	58.2
393.061	19.46
393.275	95.6
393.489	50.65
393.703	38.64
393.917	62.66
394.131	34.18
394.345	55.3
394.559	48.32
394.773	30.11
394.986	66.92
395.2	23.33
395.414	63.44
395.628	-9.99
395.842	47.36
396.056	11.9
396.27	-10.38
396.484	50.26
396.697	41.54
396.911	63.24
397.125	67.7
397.339	61.5
397.553	57.04
397.766	108
397.98	70.41
398.194	66.92
398.408	42.51
398.621	76.03
398.835	70.8
399.049	69.83
399.262	115.17
399.476	70.8
399.69	74.48
399.903	139.77
400.117	45.03
400.331	93.27
400.544	29.14
400.758	158.95
400.971	65.57
401.185	106.84
401.398	22.75
401.612	104.7
401.826	64.02
402.039	105.67
402.253	61.3
402.466	106.25
402.68	64.79
402.893	87.07
403.106	92.69
403.32	68.47
403.533	80.68
403.747	54.14
403.96	83
404.174	90.75
404.387	38.44
404.6	86.69
404.814	90.56
405.027	47.55
405.24	115.75
405.454	59.37
405.667	107.61
405.88	27.01
406.094	86.69
406.307	128.34
406.52	78.94
406.733	57.43
406.947	31.86
407.16	108.58
407.373	100.64
407.586	50.26
407.799	45.03
408.012	120.01
408.226	53.75
408.439	106.45
408.652	41.35
408.865	75.25
409.078	129.7
409.291	112.26
409.504	64.21
409.717	124.27
409.93	105.09
410.143	112.65
410.357	39.99
410.57	34.96
410.783	80.49
410.996	96.37
411.209	71.77
411.421	134.74
411.634	90.75
411.847	64.99
412.06	107.22
412.273	98.31
412.486	91.92
412.699	178.33
412.912	78.35
413.125	117.69
413.338	110.13
413.55	120.79
413.763	101.22
413.976	96.95
414.189	81.26
414.402	102.38
414.615	135.9
414.827	100.05
415.04	150.62
415.253	124.08
415.466	139.58
415.678	170.38
415.891	114
416.104	96.18
416.316	95.6
416.529	94.44
416.742	110.52
416.954	121.95
417.167	111.49
417.38	105.29
417.592	154.5
417.805	61.11
418.017	70.6
418.23	152.56
418.442	97.54
418.655	81.07
418.868	134.54
419.08	152.75
419.293	130.09
419.505	122.72
419.718	117.3
419.93	155.66
420.142	98.5
420.355	138.8
420.567	155.85
420.78	126.02
420.992	129.89
421.205	186.66
421.417	62.85
421.629	112.45
421.842	70.99
422.054	108.39
422.266	121.75
422.479	163.99
422.691	115.36
422.903	130.28
423.115	117.1
423.328	113.23
423.54	132.02
423.752	130.47
423.964	94.05
424.177	118.07
424.389	123.89
424.601	212.04
424.813	119.62
425.025	185.88
425.238	144.81
425.45	128.73
425.662	122.53
425.874	378.86
426.086	133.38
426.298	149.27
426.51	136.29
426.722	119.62
426.934	109.35
427.146	158.18
427.358	101.22
427.57	165.93
427.782	100.05
427.994	130.86
428.206	133.57
428.418	77.77
428.63	175.81
428.842	192.67
429.054	153.53
429.266	156.43
429.478	138.03
429.69	130.67
429.902	94.82
430.114	185.5
430.325	125.05
430.537	139.19
430.749	119.82
430.961	88.04
431.173	118.27
431.384	138.61
431.596	52.39
431.808	124.27
432.02	144.03
432.231	184.14
432.443	178.72
432.655	159.92
432.867	114.97
433.078	165.35
433.29	203.52
433.502	171.16
433.713	187.82
433.925	153.53
434.136	192.28
434.348	135.32
434.56	98.12
434.771	238.97
434.983	125.44
435.194	125.82
435.406	145.2
435.617	177.75
435.829	213.98
436.04	194.41
436.252	186.85
436.463	221.53
436.675	187.63
436.886	176
437.098	204.87
437.309	232.19
437.521	155.27
437.732	171.16
437.943	186.66
438.155	170.19
438.366	146.55
438.578	198.48
438.789	188.98
439	201
439.211	190.34
439.423	179.68
439.634	184.33
439.845	211.85
440.057	180.27
440.268	197.32
440.479	171.16
440.69	184.53
440.902	180.85
441.113	175.03
441.324	202.93
441.535	193.83
441.746	252.34
441.957	173.68
442.168	192.47
442.38	227.15
442.591	220.37
442.802	180.07
443.013	185.88
443.224	206.03
443.435	211.07
443.646	180.85
443.857	220.57
444.068	209.72
444.279	201.19
444.49	278.5
444.701	233.93
444.912	299.81
445.123	248.46
445.334	278.69
445.545	253.31
445.756	217.85
445.967	223.47
446.178	233.55
446.388	271.13
446.599	254.47
446.81	242.85
447.021	208.55
447.232	263.77
447.443	269
447.653	204.48
447.864	288.38
448.075	239.16
448.286	239.16
448.496	236.26
448.707	270.75
448.918	231.22
449.129	329.64
449.339	224.63
449.55	232.77
449.761	263
449.971	307.95
450.182	225.99
450.393	272.1
450.603	251.37
450.814	291.09
451.024	259.12
451.235	301.94
451.446	330.61
451.656	328.48
451.867	261.64
452.077	292.83
452.288	302.52
452.498	315.69
452.709	261.25
452.919	304.46
453.13	247.5
453.34	304.46
453.55	243.62
453.761	296.13
453.971	294.96
454.182	305.43
454.392	292.64
454.602	350.76
454.813	328.48
455.023	324.99
455.233	246.14
455.444	275.98
455.654	245.95
455.864	275.78
456.075	297.29
456.285	277.91
456.495	288.38
456.705	283.92
456.916	324.41
457.126	363.74
457.336	299.81
457.546	238
457.756	272.1
457.967	329.26
458.177	299.61
458.387	299.81
458.597	257.96
458.807	297.1
459.017	287.99
459.227	310.46
459.437	309.88
459.647	323.83
459.857	321.31
460.068	281.6
460.278	337.2
460.488	300.58
460.698	361.61
460.908	295.16
461.117	302.52
461.327	299.42
461.537	317.05
461.747	333.91
461.957	324.8
462.167	420.51
462.377	358.71
462.587	339.53
462.797	349.21
463.007	355.61
463.216	340.3
463.426	383.12
463.636	358.32
463.846	301.75
464.056	294.58
464.265	369.94
464.475	331
464.685	351.54
464.895	373.82
465.104	338.56
465.314	368.01
465.524	336.62
465.733	317.05
465.943	429.62
466.153	400.94
466.362	394.94
466.572	345.92
466.782	339.53
466.991	354.64
467.201	382.15
467.41	285.66
467.62	378.28
467.829	339.14
468.039	396.29
468.249	342.24
468.458	367.62
468.668	379.63
468.877	384.09
469.086	393.58
469.296	409.27
469.505	373.24
469.715	433.49
469.924	381.57
470.134	420.9
470.343	408.69
470.552	380.6
470.762	368.59
470.971	325.19
471.18	382.54
471.39	385.83
471.599	346.11
471.808	405.98
472.018	355.41
472.227	443.76
472.436	415.47
472.645	416.83
472.855	386.41
473.064	470.31
473.273	424.77
473.482	418.57
473.691	456.16
473.901	444.73
474.11	403.85
474.319	521.26
474.528	447.06
474.737	465.85
474.946	452.67
475.155	443.96
475.364	479.41
475.573	478.06
475.783	464.3
475.992	484.26
476.201	489.87
476.41	445.51
476.619	439.69
476.828	449.19
477.037	455.97
477.245	455.58
477.454	507.7
477.663	480.38
477.872	467.59
478.081	549.94
478.29	442.41
478.499	521.45
478.708	494.91
478.917	549.94
479.125	507.31
479.334	524.75
479.543	492.97
479.752	554.2
479.961	516.61
480.169	552.07
480.378	519.52
480.587	635.38
480.796	564.08
481.004	549.74
481.213	575.12
481.422	556.14
481.63	544.51
481.839	616.2
482.048	606.51
482.256	582.1
482.465	604.96
482.674	608.83
482.882	622.4
483.091	637.9
483.299	596.05
483.508	652.43
483.716	586.94
483.925	612.32
484.134	568.15
484.342	582.1
484.551	624.33
484.759	598.57
484.967	645.84
485.176	653.98
485.384	654.56
485.593	665.41
485.801	615.23
486.01	595.08
486.218	589.65
486.426	521.26
486.635	547.61
486.843	546.45
487.051	587.52
487.26	582.48
487.468	615.42
487.676	623.56
487.885	613.1
488.093	635.38
488.301	657.47
488.509	665.41
488.717	676.45
488.926	659.79
489.134	648.75
489.342	661.34
489.55	615.62
489.758	683.81
489.967	643.9
490.175	774.88
490.383	673.16
490.591	757.05
490.799	667.93
491.007	740.39
491.215	703.96
491.423	673.35
491.631	738.26
491.839	740.58
492.047	731.67
492.255	690.21
492.463	690.6
492.671	678.78
492.879	731.86
493.087	720.82
493.295	807.62
493.503	744.46
493.711	776.62
493.919	813.43
494.127	781.66
494.334	795.41
494.542	767.32
494.75	782.43
494.958	761.7
495.166	818.08
495.374	814.98
495.581	784.95
495.789	806.07
495.997	868.07
496.205	824.48
496.412	811.69
496.62	808.59
496.828	843.66
497.035	814.59
497.243	856.25
497.451	832.61
497.658	864.97
497.866	819.05
498.074	870.59
498.281	809.17
498.489	891.71
498.696	837.07
498.904	822.93
499.112	828.93
499.319	911.47
499.527	838.62
499.734	918.83
499.942	846.76
500.149	863.81
500.357	882.41
500.564	865.74
500.771	888.61
500.979	818.28
501.186	860.9
501.394	881.44
501.601	840.75
501.808	894.81
502.016	899.65
502.223	894.42
502.43	929.68
502.638	884.73
502.845	884.73
503.052	1003.11
503.26	944.6
503.467	994.2
503.674	907.59
503.881	934.72
504.089	1007.76
504.296	981.99
504.503	895.97
504.71	945.57
504.917	922.32
505.125	1007.95
505.332	992.07
505.539	989.55
505.746	1087.58
505.953	1032.17
506.16	1021.13
506.367	1062.78
506.574	1128.08
506.781	1074.02
506.988	1022.68
507.195	1053.1
507.402	1064.92
507.609	1098.82
507.816	1022.87
508.023	1033.72
508.23	1059.68
508.437	1040.31
508.644	1126.53
508.851	1145.9
509.058	1135.83
509.265	1113.93
509.472	1128.08
509.679	1230.38
509.885	1148.61
510.092	1159.66
510.299	1133.31
510.506	1128.27
510.713	1151.91
510.92	1181.94
511.126	1189.49
511.333	1256.53
511.54	1245.68
511.746	1288.31
511.953	1279.78
512.16	1303.81
512.367	1230.38
512.573	1247.23
512.78	1278.81
512.987	1268.35
513.193	1254.21
513.4	1211.58
513.606	1254.59
513.813	1301.48
514.02	1297.02
514.226	1347.4
514.433	1354.96
514.639	1281.33
514.846	1325.51
515.052	1261.96
515.259	1331.9
515.465	1311.56
515.672	1343.52
515.878	1410.17
516.085	1399.9
516.291	1407.85
516.497	1342.36
516.704	1318.34
516.91	1313.49
517.117	1273.39
517.323	1219.72
517.529	1274.16
517.736	1280.75
517.942	1297.61
518.148	1312.72
518.354	1380.72
518.561	1349.14
518.767	1372.39
518.973	1417.54
519.179	1456.09
519.386	1436.33
519.592	1444.66
519.798	1444.47
520.004	1533.01
520.21	1514.6
520.417	1532.23
520.623	1591.91
520.829	1566.72
521.035	1591.52
521.241	1591.33
521.447	1626.98
521.653	1727.53
521.859	1628.14
522.065	1659.14
522.271	1750.39
522.477	1703.89
522.683	1739.35
522.889	1724.04
523.095	1706.61
523.301	1693.04
523.507	1655.84
523.713	1689.56
523.919	1683.74
524.125	1789.92
524.331	1758.92
524.537	1892.02
524.742	1833.51
524.948	1826.92
525.154	1858.5
525.36	1951.7
525.566	1838.74
525.772	1905.2
525.977	1826.54
526.183	1879.43
526.389	1903.07
526.595	1834.48
526.8	1842.62
527.006	1740.12
527.212	1696.92
527.417	1676.77
527.623	1748.84
527.829	1813.75
528.034	1847.27
528.24	1837.19
528.446	1856.57
528.651	1934.45
528.857	1939.49
529.062	1992
529.268	2009.82
529.473	2000.91
529.679	2016.41
529.884	2085.58
530.09	2062.13
530.295	2047.8
530.501	2042.56
530.706	2063.49
530.912	2017.96
531.117	2069.88
531.323	2075.11
531.528	2117.16
531.733	2127.04
531.939	2095.65
532.144	2086.54
532.35	2080.73
532.555	2135.56
532.76	2082.48
532.966	2101.66
533.171	2051.48
533.376	2034.81
533.581	2065.62
533.787	2066.78
533.992	2112.12
534.197	2112.7
534.402	2138.08
534.607	2122
534.813	2219.26
535.018	2139.83
535.223	2164.04
535.428	2189.04
535.633	2245.42
535.838	2217.71
536.043	2218.1
536.249	2308.97
536.454	2226.62
536.659	2295.6
536.864	2257.82
537.069	2219.65
537.274	2217.52
537.479	2230.89
537.684	2243.67
537.889	2208.8
538.094	2299.86
538.299	2236.5
538.504	2288.82
538.708	2274.09
538.913	2306.84
539.118	2300.44
539.323	2299.47
539.528	2255.1
539.733	2263.63
539.938	2313.04
540.142	2259.75
540.347	2248.13
540.552	2210.35
540.757	2180.51
540.962	2219.65
541.166	2197.17
541.371	2208.41
541.576	2180.9
541.781	2189.62
541.985	2275.25
542.19	2244.84
542.395	2353.92
542.599	2376.58
542.804	2332.6
543.008	2347.72
543.213	2275.25
543.418	2278.35
543.622	2334.35
543.827	2264.4
544.031	2343.07
544.236	2356.43
544.44	2362.25
544.645	2453.31
544.849	2368.06
545.054	2407.2
545.258	2405.45
545.463	2425.99
545.667	2341.32
545.872	2418.82
546.076	2361.08
546.281	2388.02
546.485	2353.92
546.689	2426.18
546.894	2406.81
547.098	2399.25
547.302	2362.44
547.507	2379.68
547.711	2406.62
547.915	2439.36
548.119	2331.05
548.324	2359.92
548.528	2428.9
548.732	2397.9
548.936	2425.21
549.141	2448.08
549.345	2422.31
549.549	2391.31
549.753	2392.28
549.957	2482.95
550.161	2499.42
550.366	2452.73
550.57	2375.62
550.774	2458.93
550.978	2443.04
551.182	2454.86
551.386	2439.55
551.59	2445.56
551.794	2412.04
551.998	2460.28
552.202	2424.63
552.406	2411.26
552.61	2458.93
552.814	2460.09
553.018	2516.86
553.222	2421.73
553.426	2403.13
553.63	2486.05
553.833	2425.8
554.037	2396.15
554.241	2457.18
554.445	2471.71
554.649	2473.85
554.853	2426.57
555.056	2504.46
555.26	2495.35
555.464	2472.68
555.668	2478.69
555.871	2457.18
556.075	2471.33
556.279	2433.35
556.483	2406.23
556.686	2442.46
556.89	2413.78
557.094	2416.69
557.297	2339.19
557.501	2410.88
557.704	2318.85
557.908	2403.32
558.112	2358.18
558.315	2444.2
558.519	2364.57
558.722	2327.95
558.926	2291.53
559.129	2267.5
559.333	2249.49
559.536	2300.44
559.74	2235.34
559.943	2262.27
560.147	2270.22
560.35	2275.25
560.553	2254.33
560.757	2233.6
560.96	2317.88
561.164	2265.18
561.367	2344.23
561.57	2308.77
561.774	2279.52
561.977	2232.24
562.18	2242.7
562.384	2351.98
562.587	2267.31
562.79	2255.1
562.993	2235.92
563.197	2308.39
563.4	2288.62
563.603	2322.53
563.806	2298.5
564.009	2230.89
564.212	2271.19
564.416	2198.72
564.619	2219.65
564.822	2170.82
565.025	2268.28
565.228	2188.46
565.431	2197.56
565.634	2132.46
565.837	2141.57
566.04	2136.14
566.243	2127.81
566.446	2050.7
566.649	2163.66
566.852	2066.59
567.055	2082.67
567.258	2139.83
567.461	2166.76
567.664	2153.77
567.867	2072.21
568.07	2159.39
568.273	2103.59
568.475	2140.6
568.678	2094.68
568.881	2032.68
569.084	2045.28
569.287	1985.99
569.489	2037.72
569.692	2014.86
569.895	2022.03
570.098	1972.23
570.3	1951.5
570.503	1906.75
570.706	1930.97
570.909	1941.62
571.111	1880.59
571.314	1879.82
571.516	1909.85
571.719	1917.6
571.922	1899.77
572.124	1884.66
572.327	1891.25
572.529	1872.84
572.732	1904.03
572.935	1890.86
573.137	1974.36
573.34	1843.39
573.542	1951.12
573.745	1896.67
573.947	1905.78
574.15	1874.2
574.352	1870.9
574.554	1919.73
574.757	1887.76
574.959	1821.5
575.162	1831.96
575.364	1828.86
575.566	1904.81
575.769	1777.13
575.971	1811.23
576.173	1697.89
576.376	1759.5
576.578	1825.95
576.78	1869.74
576.982	1759.89
577.185	1784.11
577.387	1753.88
577.589	1764.73
577.791	1808.32
577.993	1792.82
578.196	1775.39
578.398	1755.82
578.6	1786.62
578.802	1722.69
579.004	1712.81
579.206	1705.06
579.408	1782.36
579.61	1713
579.812	1765.51
580.014	1694.59
580.216	1697.5
580.418	1725.4
580.62	1684.13
580.822	1720.36
581.024	1682.19
581.226	1761.44
581.428	1723.66
581.63	1814.33
581.832	1764.34
582.034	1787.79
582.236	1750.97
582.438	1806.77
582.64	1802.9
582.841	1821.5
583.043	1871.68
583.245	1814.33
583.447	1787.98
583.649	1785.07
583.85	1753.88
584.052	1817.24
584.254	1772.48
584.456	1802.12
584.657	1732.57
584.859	1764.54
585.061	1739.16
585.262	1748.84
585.464	1714.55
585.666	1761.82
585.867	1721.91
586.069	1768.99
586.27	1736.64
586.472	1700.99
586.674	1678.9
586.875	1676.96
587.077	1701.96
587.278	1742.26
587.48	1700.21
587.681	1807.55
587.883	1692.46
588.084	1659.53
588.285	1639.57
588.487	1614.58
588.688	1643.64
588.89	1537.46
589.091	1504.53
589.292	1533.59
589.494	1510.34
589.695	1498.52
589.896	1397
590.098	1415.4
590.299	1476.24
590.5	1429.35
590.702	1479.92
590.903	1521.77
591.104	1554.51
591.305	1557.03
591.507	1588.23
591.708	1556.45
591.909	1501.62
592.11	1602.56
592.311	1595.2
592.512	1549.67
592.714	1473.92
592.915	1546.96
593.116	1565.17
593.317	1564.2
593.518	1565.56
593.719	1561.3
593.92	1580.28
594.121	1563.04
594.322	1528.55
594.523	1542.7
594.724	1476.24
594.925	1500.65
595.126	1545.99
595.327	1527
595.528	1547.35
595.729	1579.51
595.929	1520.42
596.13	1531.07
596.331	1553.55
596.532	1553.93
596.733	1602.76
596.934	1583.38
597.135	1570.21
597.335	1558.78
597.536	1508.6
597.737	1554.71
597.938	1529.52
598.138	1547.35
598.339	1542.11
598.54	1547.15
598.74	1497.17
598.941	1529.91
599.142	1551.22
599.342	1543.86
599.543	1504.14
599.744	1550.83
599.944	1549.09
600.145	1553.74
600.345	1538.05
600.546	1621.75
600.746	1590.75
600.947	1594.43
601.147	1546.96
601.348	1588.42
601.548	1531.46
601.749	1543.66
601.949	1506.66
602.15	1524.1
602.35	1497.17
602.551	1567.5
602.751	1485.15
602.951	1531.65
603.152	1478.18
603.352	1554.13
603.552	1508.02
603.753	1583.96
603.953	1527.39
604.153	1538.05
604.354	1575.44
604.554	1533.4
604.754	1549.28
604.954	1516.93
605.155	1529.72
605.355	1523.13
605.555	1548.51
605.755	1582.61
605.955	1534.75
606.155	1557.23
606.356	1545.41
606.556	1528.36
606.756	1538.43
606.956	1502.78
607.156	1584.74
607.356	1495.81
607.556	1538.63
607.756	1486.51
607.956	1556.26
608.156	1547.35
608.356	1512.47
608.556	1538.63
608.756	1505.11
608.956	1466.55
609.156	1511.7
609.356	1473.72
609.556	1461.52
609.755	1474.69
609.955	1468.1
610.155	1457.25
610.355	1530.68
610.555	1444.85
610.755	1422.96
610.954	1432.45
611.154	1442.53
611.354	1503.95
611.554	1423.54
611.753	1454.73
611.953	1408.43
612.153	1464.62
612.352	1438.46
612.552	1392.54
612.752	1365.61
612.951	1412.3
613.151	1424.51
613.351	1385.57
613.55	1382.85
613.75	1395.84
613.949	1388.47
614.149	1392.54
614.348	1408.43
614.548	1337.71
614.747	1330.93
614.947	1379.95
615.146	1294.12
615.346	1388.28
615.545	1402.81
615.745	1370.26
615.944	1381.5
616.144	1348.76
616.343	1380.92
616.542	1310.59
616.742	1301.67
616.941	1333.06
617.14	1255.76
617.34	1332.87
617.539	1322.41
617.738	1307.68
617.938	1398.94
618.137	1269.13
