Data from calibration4_FLMT105791__7__17-36-41-048.txt Node

Date: Mon Mar 20 17:36:41 GMT 2023
User: antho
Spectrometer: FLMT10579
Trigger mode: 0
Integration Time (sec): 1.000000E-1
Scans to average: 10
Electric dark correction enabled: true
Nonlinearity correction enabled: false
Boxcar width: 0
XAxis mode: Wavelengths
Number of Pixels in Spectrum: 3648
>>>>>Begin Spectral Data<<<<<
345.248	-175.87
345.464	-175.87
345.681	-175.87
345.898	-163.28
346.114	-146.81
346.331	-35.41
346.548	10.51
346.764	9.15
346.981	-13.13
347.197	-2.28
347.414	31.05
347.631	-26.69
347.847	45.97
348.064	6.64
348.28	11.87
348.497	-47.81
348.713	10.12
348.93	41.7
349.146	72.7
349.363	92.47
349.579	119.2
349.796	125.98
350.012	86.46
350.229	153.88
350.445	105.25
350.661	100.8
350.878	110.29
351.094	143.42
351.311	122.11
351.527	152.33
351.743	110.87
351.96	169.19
352.176	166.67
352.392	161.44
352.609	174.03
352.825	123.85
353.041	124.43
353.257	106.42
353.474	118.82
353.69	152.91
353.906	140.9
354.122	113.2
354.339	185.46
354.555	148.07
354.771	187.6
354.987	198.83
355.203	234.48
355.42	155.63
355.636	167.45
355.852	153.5
356.068	168.03
356.284	115.13
356.5	202.51
356.716	178.68
356.932	150.59
357.148	177.91
357.364	127.92
357.58	166.28
357.796	179.46
358.012	176.36
358.228	190.11
358.444	124.43
358.66	181.59
358.876	165.12
359.092	130.83
359.308	165.12
359.524	195.54
359.74	203.87
359.956	201.74
360.172	204.26
360.388	261.03
360.604	184.3
360.819	254.83
361.035	216.85
361.251	225.57
361.467	187.6
361.683	233.71
361.898	216.27
362.114	220.73
362.33	198.06
362.546	244.75
362.762	220.34
362.977	262.77
363.193	208.33
363.409	291.83
363.624	224.8
363.84	229.83
364.056	235.65
364.271	269.74
364.487	246.11
364.703	255.79
364.918	245.33
365.134	268.97
365.35	258.7
365.565	375.53
365.781	339.3
365.996	329.42
366.212	389.09
366.427	342.21
366.643	346.66
366.858	321.67
367.074	323.8
367.289	415.05
367.505	433.07
367.72	307.53
367.936	311.79
368.151	403.43
368.367	355.19
368.582	345.69
368.798	328.84
369.013	386.57
369.228	345.89
369.444	384.25
369.659	387.74
369.874	374.95
370.09	429.39
370.305	361.39
370.52	392.58
370.736	444.12
370.951	371.46
371.166	385.22
371.381	440.63
371.597	445.47
371.812	380.18
372.027	403.43
372.242	393.36
372.458	422.61
372.673	372.04
372.888	368.56
373.103	384.64
373.318	453.03
373.533	370.88
373.749	373.01
373.964	312.37
374.179	369.14
374.394	305.59
374.609	386.57
374.824	317.79
375.039	383.86
375.254	316.24
375.469	411.37
375.684	395.1
375.899	447.41
376.114	409.82
376.329	432.3
376.544	456.32
376.759	448.19
376.974	393.74
377.189	442.18
377.404	443.54
377.619	524.91
377.834	453.22
378.049	511.73
378.264	484.22
378.478	584.97
378.693	557.46
378.908	592.53
379.123	531.88
379.338	570.44
379.553	530.92
379.767	519.1
379.982	509.6
380.197	531.69
380.412	496.62
380.626	531.69
380.841	636.9
381.056	599.31
381.271	646.2
381.485	539.63
381.7	535.95
381.915	554.17
382.129	478.02
382.344	472.79
382.559	452.25
382.773	496.62
382.988	389.67
383.202	436.95
383.417	370.3
383.632	494.49
383.846	447.41
384.061	413.12
384.275	429.59
384.49	533.05
384.704	562.11
384.919	603.57
385.133	640
385.348	660.92
385.562	591.75
385.777	662.47
385.991	602.6
386.206	622.17
386.42	580.9
386.634	654.14
386.849	640
387.063	703.16
387.277	643.1
387.492	648.52
387.706	611.13
387.92	635.15
388.135	699.28
388.349	694.44
388.563	664.8
388.778	679.71
388.992	692.5
389.206	721.76
389.42	811.85
389.635	805.84
389.849	848.47
390.063	890.32
390.277	871.52
390.491	941.08
390.706	876.17
390.92	920.35
391.134	922.67
391.348	985.64
391.562	952.32
391.776	1023.81
391.99	1004.43
392.205	1008.12
392.419	928.1
392.633	884.7
392.847	839.17
393.061	733.77
393.275	734.35
393.489	570.05
393.703	538.86
393.917	568.31
394.131	565.98
394.345	685.14
394.559	794.22
394.773	860.29
394.986	988.16
395.2	1007.34
395.414	1109.45
395.628	1109.25
395.842	1181.52
396.056	1144.32
396.27	1042.41
396.484	1016.25
396.697	925.39
396.911	828.32
397.125	727.96
397.339	701.99
397.553	729.12
397.766	897.87
397.98	1020.9
398.194	1218.33
398.408	1275.49
398.621	1410.14
398.835	1481.83
399.049	1470.98
399.262	1582.77
399.476	1638.76
399.69	1620.36
399.903	1657.56
400.117	1615.32
400.331	1696.89
400.544	1686.42
400.758	1818.37
400.971	1746.1
401.185	1745.32
401.398	1767.99
401.612	1851.5
401.826	1913.69
402.039	1857.31
402.253	1849.75
402.466	1936.36
402.68	1903.61
402.893	1961.93
403.106	1924.35
403.32	1857.7
403.533	1894.7
403.747	1894.51
403.96	1930.16
404.174	1991.96
404.387	1979.37
404.6	2005.53
404.814	2010.76
405.027	1922.8
405.24	1912.33
405.454	1932.68
405.667	2051.64
405.88	2029.55
406.094	2025.29
406.307	2065.59
406.52	1989.83
406.733	1912.33
406.947	1957.28
407.16	2027.03
407.373	2068.88
407.586	2090.19
407.799	2048.54
408.012	2077.02
408.226	2111.12
408.439	2248.1
408.652	2242.67
408.865	2366.28
409.078	2384.11
409.291	2353.3
409.504	2355.63
409.717	2396.51
409.93	2340.51
410.143	2188.62
410.357	2080.89
410.57	2024.32
410.783	2116.74
410.996	2177.57
411.209	2249.07
411.421	2463.74
411.634	2519.92
411.847	2515.86
412.06	2555.38
412.273	2618.15
412.486	2594.71
412.699	2599.17
412.912	2621.64
413.125	2615.83
413.338	2570.69
413.55	2547.05
413.763	2529.03
413.976	2603.62
414.189	2561.77
414.402	2633.65
414.615	2712.32
414.827	2628.62
415.04	2704.76
415.253	2713.87
415.466	2734.21
415.678	2743.12
415.891	2755.33
416.104	2676.47
416.316	2726.07
416.529	2820.62
416.742	2875.26
416.954	2885.33
417.167	2832.63
417.38	2812.29
417.592	2759.98
417.805	2710.18
418.017	2745.45
418.23	2740.8
418.442	2746.42
418.655	2768.12
418.868	2737.5
419.08	2823.14
419.293	2906.26
419.505	2928.34
419.718	2852.4
419.93	2882.81
420.142	2873.71
420.355	2871.58
420.567	2819.65
420.78	2937.84
420.992	2914.98
421.205	3038.39
421.417	3085.47
421.629	3170.33
421.842	3164.91
422.054	3160.45
422.266	3164.72
422.479	3137.78
422.691	2962.06
422.903	2976.78
423.115	2922.92
423.328	2906.64
423.54	2949.66
423.752	2987.44
423.964	3103.1
424.177	3170.14
424.389	3143.02
424.601	3236.01
424.813	3231.56
425.025	3195.72
425.238	3223.42
425.45	3131
425.662	3185.06
425.874	3441.39
426.086	3204.82
426.298	3249.77
426.51	3251.9
426.722	3303.83
426.934	3325.14
427.146	3301.69
427.358	3228.46
427.57	3232.72
427.782	3116.28
427.994	3145.53
428.206	3183.51
428.418	3390.24
428.63	3476.07
428.842	3423.76
429.054	3318.94
429.266	3295.11
429.478	3207.34
429.69	3217.61
429.902	3076.37
430.114	3034.13
430.325	2905.87
430.537	2729.95
430.749	2682.67
430.961	2569.72
431.173	2599.55
431.384	2672.99
431.596	2836.12
431.808	3201.53
432.02	3625.06
432.231	3857.94
432.443	3995.89
432.655	3835.66
432.867	3772.5
433.078	3850.77
433.29	3897.27
433.502	4013.91
433.713	4062.35
433.925	4156.9
434.136	3954.82
434.348	3718.45
434.56	3655.28
434.771	3830.62
434.983	3763.78
435.194	3990.66
435.406	4211.14
435.617	4248.93
435.829	4316.74
436.04	4393.65
436.252	4321
436.463	4533.35
436.675	4702.87
436.886	4779.6
437.098	4751.7
437.309	4736.01
437.521	4618.98
437.732	4504.67
437.943	4508.74
438.155	4413.42
438.366	4378.54
438.578	4506.8
438.789	4254.35
439	4164.84
439.211	4246.99
439.423	4313.64
439.634	4540.9
439.845	4674.01
440.057	4695.13
440.268	4867.95
440.479	4808.85
440.69	4786.19
440.902	4709.07
441.113	4712.56
441.324	4857.49
441.535	5067.7
441.746	5160.31
441.957	5133.57
442.168	5179.3
442.38	5271.52
442.591	5318.02
442.802	5224.64
443.013	5364.52
443.224	5390.68
443.435	5394.36
443.646	5313.76
443.857	5338.17
444.068	5369.37
444.279	5271.14
444.49	5624.34
444.701	5423.81
444.912	5722.37
445.123	5670.84
445.334	5454.61
445.545	5548.78
445.756	5419.55
445.967	5381.38
446.178	5263.77
446.388	5242.85
446.599	5348.25
446.81	5431.36
447.021	5420.13
447.232	5615.04
447.443	5682.07
447.653	5802.2
447.864	5968.63
448.075	5955.26
448.286	5917.28
448.496	5860.9
448.707	5939.18
448.918	5808.78
449.129	5876.4
449.339	5909.73
449.55	6013.96
449.761	6002.53
449.971	5879.11
450.182	6114.52
450.393	6211.2
450.603	6134.67
450.814	6397.19
451.024	6345.46
451.235	6553.35
451.446	6560.33
451.656	6542.89
451.867	6467.33
452.077	6258.28
452.288	6410.18
452.498	6353.41
452.709	6302.84
452.919	6080.81
453.13	5963.78
453.34	5946.15
453.55	5812.27
453.761	6104.83
453.971	6013.77
454.182	6232.12
454.392	6247.23
454.602	6496.97
454.813	6537.08
455.023	6325.9
455.233	6263.9
455.444	6408.82
455.654	6145.71
455.864	6322.41
456.075	6483.41
456.285	6471.59
456.495	6567.11
456.705	6511.89
456.916	6721.91
457.126	6822.86
457.336	6749.23
457.546	6594.62
457.756	6793.99
457.967	6900.94
458.177	6622.91
458.387	6703.51
458.597	6521.97
458.807	6690.53
459.017	6549.48
459.227	6538.44
459.437	6563.62
459.647	6752.33
459.857	6711.84
460.068	6855.41
460.278	6880.59
460.488	6863.93
460.698	6902.87
460.908	6986.38
461.117	7140.8
461.327	7159.4
461.537	7211.51
461.747	7240.96
461.957	7241.16
462.167	7355.08
462.377	7332.22
462.587	7307.81
462.797	7501.75
463.007	7327.57
463.216	7586.61
463.426	7737.15
463.636	7533.33
463.846	7355.86
464.056	7398.48
464.265	7300.83
464.475	7389.18
464.685	7592.03
464.895	7445.56
465.104	7340.36
465.314	7603.85
465.524	7503.68
465.733	7427.15
465.943	7747.42
466.153	7847.78
466.362	7882.07
466.572	7791.59
466.782	7640.66
466.991	7822.4
467.201	7718.74
467.41	7585.25
467.62	7862.89
467.829	7833.64
468.039	8064.97
468.249	7978.37
468.458	8125.81
468.668	8060.9
468.877	8262.4
469.086	8206.6
469.296	8500.9
469.505	8511.36
469.715	8477.85
469.924	8372.25
470.134	8520.08
470.343	8281
470.552	8326.92
470.762	8272.47
470.971	8466.22
471.18	8542.94
471.39	8647.37
471.599	8574.72
471.808	8679.34
472.018	9004.45
472.227	9146.47
472.436	9397.56
472.645	9428.76
472.855	9345.06
473.064	9598.87
473.273	9606.04
473.482	9305.53
473.691	9554.5
473.901	9428.18
474.11	9362.69
474.319	9665.9
474.528	9623.28
474.737	10145.04
474.946	9980.16
475.155	10108.81
475.364	10273.5
475.573	10068.51
475.783	10343.83
475.992	10204.33
476.201	10240.17
476.41	10353.32
476.619	10135.74
476.828	10138.07
477.037	10156.28
477.245	10251.41
477.454	10436.44
477.663	10742.56
477.872	11043.64
478.081	11179.46
478.29	11063.4
478.499	11240.68
478.708	11484.61
478.917	11424.16
479.125	11130.05
479.334	11326.32
479.543	11554.16
479.752	11772.71
479.961	11720.98
480.169	11983.51
480.378	12048.03
480.587	12387.86
480.796	12252.43
481.004	12234.41
481.213	12371.78
481.422	12476.98
481.63	12762.18
481.839	12829.21
482.048	12968.13
482.256	12932.48
482.465	13312.42
482.674	13115.57
482.882	13169.63
483.091	13435.26
483.299	13119.84
483.508	13466.06
483.716	13618.54
483.925	13713.86
484.134	13303.12
484.342	13632.49
484.551	13526.32
484.759	13508.69
484.967	13998.29
485.176	13840.38
485.384	13891.14
485.593	13646.25
485.801	13467.03
486.01	12962.13
486.218	12355.12
486.426	11955.8
486.635	11672.16
486.843	11921.7
487.051	12374.88
487.26	12529.68
487.468	12824.76
487.676	13143.28
487.885	13659.03
488.093	13936.48
488.301	14434.02
488.509	14375.9
488.717	14646.18
488.926	14615.76
489.134	14401.86
489.342	14497.38
489.55	14401.47
489.758	14762.42
489.967	15233.42
490.175	15188.67
490.383	15702.1
490.591	16046.19
490.799	15890.23
491.007	15770.49
491.215	15817.38
491.423	15674.97
491.631	15667.61
491.839	15508.93
492.047	15503.31
492.255	15143.53
492.463	15234.78
492.671	14935.05
492.879	15496.92
493.087	15625.57
493.295	15860.2
493.503	16022.75
493.711	16416.06
493.919	16315.7
494.127	16347.86
494.334	16273.65
494.542	16290.7
494.75	16799.87
494.958	16526.88
495.166	17044.38
495.374	17046.32
495.581	17224.18
495.789	17167.6
495.997	17117.23
496.205	16602.25
496.412	16818.28
496.62	17180.2
496.828	17043.6
497.035	17309.81
497.243	17305.94
497.451	17404.56
497.658	17487.29
497.866	17363.29
498.074	17551.03
498.281	17156.56
498.489	17151.33
498.696	16903.14
498.904	16847.14
499.112	16864.58
499.319	17284.24
499.527	17417.15
499.734	17570.4
499.942	17434.39
500.149	17450.09
500.357	17488.25
500.564	17123.23
500.771	17000.4
500.979	16847.14
501.186	16798.32
501.394	17084.1
501.601	16560.4
501.808	16649.14
502.016	16754.15
502.223	16648.55
502.43	16854.7
502.638	16762.86
502.845	17116.84
503.052	17334.42
503.26	17344.11
503.467	17463.26
503.674	17568.47
503.881	17407.07
504.089	17227.86
504.296	17139.32
504.503	16992.07
504.71	16893.84
504.917	17274.75
505.125	17367.36
505.332	17471.79
505.539	17517.9
505.746	18047.99
505.953	18228.37
506.16	18327.95
506.367	18415.92
506.574	18652.87
506.781	18558.71
506.988	18409.91
507.195	18272.35
507.402	18259.56
507.609	18260.53
507.816	17955.57
508.023	17959.06
508.23	17806
508.437	17583.38
508.644	17749.23
508.851	17937.55
509.058	18473.27
509.265	18372.52
509.472	18584.28
509.679	18689.29
509.885	18674.57
510.092	18630.78
510.299	18651.32
510.506	18277
510.713	18506.4
510.92	18351.4
511.126	18540.5
511.333	18726.49
511.54	18901.25
511.746	18977.78
511.953	18996
512.16	19263.17
512.367	19014.4
512.573	18826.85
512.78	18761.95
512.987	18686.97
513.193	18495.55
513.4	18326.21
513.606	18464.16
513.813	18577.7
514.02	18376.39
514.226	18353.72
514.433	18375.81
514.639	18214.03
514.846	18299.67
515.052	18288.82
515.259	18461.25
515.465	18547.28
515.672	18542.24
515.878	18647.64
516.085	18973.13
516.291	18858.24
516.497	18693.56
516.704	18045.08
516.91	17626.01
517.117	16928.91
517.323	16451.51
517.529	16319.57
517.736	16464.88
517.942	16570.09
518.148	16916.31
518.354	17100.76
518.561	17095.92
518.767	16918.64
518.973	17093.4
519.179	17530.88
519.386	17707.77
519.592	17665.15
519.798	17718.43
520.004	18614.7
520.21	18513.56
520.417	18701.11
520.623	18774.35
520.829	18731.14
521.035	18816.39
521.241	18769.31
521.447	18835.19
521.653	19237.4
521.859	18986.89
522.065	19200.4
522.271	19283.32
522.477	19217.64
522.683	19416.43
522.889	18958.41
523.095	18726.69
523.301	18836.35
523.507	18774.35
523.713	18848.94
523.919	18792.75
524.125	19359.27
524.331	19618.31
524.537	19996.31
524.742	19900.99
524.948	19841.12
525.154	19868.63
525.36	19887.81
525.566	19569.29
525.772	19801.21
525.977	19686.7
526.183	19451.11
526.389	19488.69
526.595	18880.72
526.8	18727.27
527.006	18061.17
527.212	17693.05
527.417	17627.17
527.623	17845.14
527.829	18036.56
528.034	18480.63
528.24	18604.04
528.446	18990.38
528.651	19324.01
528.857	19483.27
529.062	19615.99
529.268	19843.45
529.473	20052.31
529.679	20171.07
529.884	20170.1
530.09	20085.44
530.295	19494.7
530.501	19962.79
530.706	19893.43
530.912	20254.38
531.117	20092.6
531.323	20254.58
531.528	20499.47
531.733	20531.64
531.939	20340.21
532.144	20225.32
532.35	20172.62
532.555	20067.22
532.76	19469.32
532.966	19361.6
533.171	19245.35
533.376	19040.17
533.581	19075.63
533.787	19366.63
533.992	19785.9
534.197	19395.31
534.402	19899.25
534.607	19906.03
534.813	19859.14
535.018	19943.81
535.223	20266.01
535.428	20086.99
535.633	20394.08
535.838	20654.47
536.043	20796.88
536.249	21013.29
536.454	20615.72
536.659	20743.01
536.864	20602.35
537.069	20294.3
537.274	20192.58
537.479	20133.68
537.684	20194.13
537.889	20125.35
538.094	20591.7
538.299	20394.85
538.504	20652.73
538.708	20563.41
538.913	20892.2
539.118	20748.63
539.323	20513.42
539.528	20385.94
539.733	20193.74
539.938	20322
540.142	20121.67
540.347	19993.21
540.552	19955.04
540.757	19590.8
540.962	19805.86
541.166	19647.37
541.371	19651.44
541.576	19717.32
541.781	19897.11
541.985	20306.31
542.19	19945.16
542.395	20531.44
542.599	20455.69
542.804	20208.47
543.008	20485.14
543.213	20435.15
543.418	20149.37
543.622	20479.52
543.827	20137.55
544.031	20553.53
544.236	20652.92
544.44	20819.54
544.645	20811.02
544.849	20643.04
545.054	20852.87
545.258	20885.42
545.463	20942.57
545.667	20602.55
545.872	20899.17
546.076	20686.44
546.281	20776.73
546.485	20725.77
546.689	20809.08
546.894	20745.53
547.098	20895.69
547.302	20835.63
547.507	20801.53
547.711	20875.73
547.915	20617.08
548.119	20481.84
548.324	20524.27
548.528	20580.85
548.732	20558.95
548.936	20890.46
549.141	20739.53
549.345	20793.78
549.549	20810.63
549.753	21148.91
549.957	21050.88
550.161	21055.14
550.366	21152.21
550.57	20883.48
550.774	20985.97
550.978	21021.24
551.182	20956.14
551.386	20748.05
551.59	20839.89
551.794	20806.56
551.998	20997.21
552.202	21018.14
552.406	21054.37
552.61	21243.08
552.814	21085.37
553.018	20930.17
553.222	20674.62
553.426	20847.44
553.63	21106.87
553.833	20952.07
554.037	20638.2
554.241	20833.3
554.445	21092.53
554.649	21067.15
554.853	20916.22
555.056	21201.23
555.26	21199.87
555.464	20970.67
555.668	21054.56
555.871	21050.49
556.075	21155.89
556.279	20993.92
556.483	20825.74
556.686	20676.95
556.89	20778.28
557.094	20647.3
557.297	20366.37
557.501	20426.82
557.704	20199.55
557.908	20562.25
558.112	20490.56
558.315	20588.99
558.519	20345.25
558.722	20066.64
558.926	20149.76
559.129	19693.87
559.333	19960.47
559.536	19875.41
559.74	19728.55
559.943	19520.47
560.147	19804.12
560.35	19735.14
560.553	20094.15
560.757	19982.36
560.96	20093.38
561.164	20251.86
561.367	20320.65
561.57	20275.7
561.774	20217.18
561.977	19998.44
562.18	20048.24
562.384	20052.11
562.587	19997.09
562.79	20196.07
562.993	20005.81
563.197	19963.96
563.4	20272.21
563.603	20260.39
563.806	20182.12
564.009	20147.63
564.212	20184.25
564.416	19893.63
564.619	19951.94
564.822	19819.81
565.025	20030.02
565.228	19904.28
565.431	20135.04
565.634	19815.55
565.837	19582.66
566.04	19488.31
566.243	19301.15
566.446	19165.14
566.649	19565.22
566.852	19177.73
567.055	19511.17
567.258	19477.84
567.461	19613.47
567.664	19716.54
567.867	19697.17
568.07	19436.58
568.273	19810.12
568.475	19783.97
568.678	19156.61
568.881	19234.11
569.084	18925.08
569.287	18825.3
569.489	19044.43
569.692	19104.49
569.895	18984.56
570.098	18884.98
570.3	18916.56
570.503	18846.04
570.706	18720.29
570.909	18587
571.111	18340.16
571.314	18361.86
571.516	18491.87
571.719	18566.85
571.922	18455.63
572.124	18535.65
572.327	18668.56
572.529	18786.17
572.732	18824.14
572.935	18934.38
573.137	19190.32
573.34	18823.37
573.542	19128.32
573.745	18990.96
573.947	19082.6
574.15	18961.9
574.352	18889.43
574.554	19078.34
574.757	18825.11
574.959	18557.55
575.162	18847.59
575.364	18500.58
575.566	18601.72
575.769	18334.93
575.971	18539.72
576.173	18094.68
576.376	18327.57
576.578	18564.71
576.78	18497.48
576.982	18539.91
577.185	18590.87
577.387	18438.39
577.589	18687.55
577.791	18541.85
577.993	18560.26
578.196	18621.48
578.398	18342.29
578.6	18213.45
578.802	18258.98
579.004	18067.56
579.206	18286.11
579.408	18528.1
579.61	18342.1
579.812	18654.81
580.014	18408.94
580.216	18517.44
580.418	18749.55
580.62	18812.13
580.822	18873.16
581.024	18884.59
581.226	18951.24
581.428	18934.38
581.63	19288.75
581.832	19089.19
582.034	19214.93
582.236	19157
582.438	19394.15
582.64	19473.58
582.841	19513.3
583.043	19842.67
583.245	19433.28
583.447	19627.22
583.649	19630.13
583.85	19652.99
584.052	19689.42
584.254	19474.36
584.456	19646.79
584.657	19590.22
584.859	19840.15
585.061	19561.54
585.262	19504.39
585.464	19363.53
585.666	19344.35
585.867	19077.76
586.069	19174.63
586.27	19086.28
586.472	19105.27
586.674	19145.96
586.875	19173.08
587.077	19230.62
587.278	19193.04
587.48	19173.66
587.681	19353.65
587.883	19209.89
588.084	18872.58
588.285	18917.72
588.487	18488.18
588.688	18449.24
588.89	17795.93
589.091	17493.29
589.292	17088.75
589.494	16664.44
589.695	16391.06
589.896	16242.46
590.098	16494.91
590.299	16451.32
590.5	16746.01
590.702	17071.7
590.903	17321.63
591.104	17597.14
591.305	17879.62
591.507	17843.39
591.708	17822.08
591.909	17904.62
592.11	17785.27
592.311	18027.07
592.512	17689.36
592.714	17706.03
592.915	17956.15
593.116	17834.87
593.317	18131.11
593.518	18143.7
593.719	18094.3
593.92	18156.68
594.121	18183.61
594.322	18127.23
594.523	17927.87
594.724	17768.61
594.925	17788.37
595.126	17591.52
595.327	17642.09
595.528	17809.68
595.729	17878.85
595.929	17844.17
596.13	18067.36
596.331	18285.52
596.532	18137.7
596.733	18408.17
596.934	18339.77
597.135	18349.07
597.335	18298.51
597.536	18348.69
597.737	18153.2
597.938	18163.27
598.138	18258.01
598.339	18286.49
598.54	18265.96
598.74	18055.93
598.941	18139.05
599.142	18385.69
599.342	18220.43
599.543	18236.12
599.744	18435.48
599.944	18345
600.145	18493.22
