Data from calibration4_FLMT105791__5__17-36-39-048.txt Node

Date: Mon Mar 20 17:36:39 GMT 2023
User: antho
Spectrometer: FLMT10579
Trigger mode: 0
Integration Time (sec): 1.000000E-1
Scans to average: 10
Electric dark correction enabled: true
Nonlinearity correction enabled: false
Boxcar width: 0
XAxis mode: Wavelengths
Number of Pixels in Spectrum: 3648
>>>>>Begin Spectral Data<<<<<
345.248	-138.45
345.464	-138.45
345.681	-138.45
345.898	-156.66
346.114	-128.95
346.331	-40.99
346.548	22.17
346.764	-6.89
346.981	1.44
347.197	-14.06
347.414	22.17
347.631	-39.44
347.847	37.47
348.064	3.37
348.28	35.54
348.497	-8.64
348.713	-12.13
348.93	19.46
349.146	75.45
349.363	91.34
349.579	108.39
349.796	108.19
350.012	105.67
350.229	128.34
350.445	129.7
350.661	86.49
350.878	127.76
351.094	133.19
351.311	113.42
351.527	128.73
351.743	87.46
351.96	160.31
352.176	149.65
352.392	156.43
352.609	147.72
352.825	110.71
353.041	139.77
353.257	136.09
353.474	138.8
353.69	145.58
353.906	137.25
354.122	130.28
354.339	187.05
354.555	149.85
354.771	158.18
354.987	210.3
355.203	187.82
355.42	145.97
355.636	154.5
355.852	154.69
356.068	151.4
356.284	120.79
356.5	228.7
356.716	177.17
356.932	158.57
357.148	187.24
357.364	160.31
357.58	176.2
357.796	215.14
358.012	191.89
358.228	192.47
358.444	111.29
358.66	190.73
358.876	189.18
359.092	139.97
359.308	177.75
359.524	214.75
359.74	197.7
359.956	191.5
360.172	234.71
360.388	260.86
360.604	208.75
360.819	284.11
361.035	215.53
361.251	240.71
361.467	196.73
361.683	236.26
361.898	197.32
362.114	239.75
362.33	217.27
362.546	275.98
362.762	240.91
362.977	251.56
363.193	223.67
363.409	282.95
363.624	231.61
363.84	236.84
364.056	242.46
364.271	316.66
364.487	283.73
364.703	259.9
364.918	280.43
365.134	266.68
365.35	298.26
365.565	392.42
365.781	318.21
365.996	338.56
366.212	391.26
366.427	373.82
366.643	326.35
366.858	347.66
367.074	308.14
367.289	388.74
367.505	440.27
367.72	337.01
367.936	334.88
368.151	388.54
368.367	365.29
368.582	349.99
368.798	338.56
369.013	401.72
369.228	354.25
369.444	365.49
369.659	399.78
369.874	393.39
370.09	439.89
370.305	358.13
370.52	378.66
370.736	454.61
370.951	372.08
371.166	408.69
371.381	422.26
371.597	440.47
371.812	395.52
372.027	389.9
372.242	394.16
372.458	455.97
372.673	381.38
372.888	363.74
373.103	380.21
373.318	445.7
373.533	377.11
373.749	381.76
373.964	287.21
374.179	385.44
374.394	290.31
374.609	401.91
374.824	325.19
375.039	415.28
375.254	330.61
375.469	396.88
375.684	403.07
375.899	433.49
376.114	447.83
376.329	468.37
376.544	433.69
376.759	431.17
376.974	414.12
377.189	436.79
377.404	464.3
377.619	540.44
377.834	483.09
378.049	498.79
378.264	533.47
378.478	578.22
378.693	559.62
378.908	574.54
379.123	553.04
379.338	573.19
379.553	513.7
379.767	508.67
379.982	526.69
380.197	511.96
380.412	505.57
380.626	562.53
380.841	655.14
381.056	635.38
381.271	625.3
381.485	580.93
381.7	542.57
381.915	566.99
382.129	513.32
382.344	501.5
382.559	478.83
382.773	494.91
382.988	419.35
383.202	436.59
383.417	388.74
383.632	506.15
383.846	439.89
384.061	429.81
384.275	435.24
384.49	486.58
384.704	541.8
384.919	610.97
385.133	600.7
385.348	657.85
385.562	590.82
385.777	651.46
385.991	606.51
386.206	583.45
386.42	595.08
386.634	653.98
386.849	681.1
387.063	681.68
387.277	603.99
387.492	645.45
387.706	638.28
387.92	647.97
388.135	694.86
388.349	706.87
388.563	690.4
388.778	697.96
388.992	718.11
389.206	701.25
389.42	808.39
389.635	787.66
389.849	860.51
390.063	916.31
390.277	885.89
390.491	949.44
390.706	894.22
390.92	917.28
391.134	906.24
391.348	932.2
391.562	957.97
391.776	1017.45
391.99	982.77
392.205	993.62
392.419	925.03
392.633	894.61
392.847	848.89
393.061	759.18
393.275	760.15
393.489	604.96
393.703	504.21
393.917	560.79
394.131	544.9
394.345	679.94
394.559	809.17
394.773	848.11
394.986	982.19
395.2	1017.83
395.414	1138.15
395.628	1103.28
395.842	1204.22
396.056	1139.7
396.27	1045.93
396.484	1045.15
396.697	902.36
396.911	788.63
397.125	701.64
397.339	676.45
397.553	727.21
397.766	896.74
397.98	1034.3
398.194	1176.32
398.408	1269.9
398.621	1412.3
398.835	1455.9
399.049	1488.64
399.262	1569.43
399.476	1617.68
399.69	1628.72
399.903	1683.55
400.117	1616.9
400.331	1708.35
400.544	1639.96
400.758	1800.38
400.971	1725.98
401.185	1758.34
401.398	1720.36
401.612	1829.05
401.826	1874.97
402.039	1889.12
402.253	1891.63
402.466	1957.51
402.68	1938.13
402.893	1977.85
403.106	1891.83
403.32	1903.65
403.533	1901.71
403.747	1867.22
403.96	1950.15
404.174	1996.65
404.387	1971.46
404.6	1976.5
404.814	1999.55
405.027	1948.6
405.24	1943.56
405.454	1971.85
405.667	2056.32
405.88	2025.71
406.094	2075.69
406.307	2078.6
406.52	1960.8
406.733	1929.61
406.947	1966.03
407.16	2030.16
407.373	2066.78
407.586	2082.28
407.799	2062.91
408.012	2089.06
408.226	2131.88
408.439	2244.64
408.652	2207.25
408.865	2337.45
409.078	2399.06
409.291	2339.77
409.504	2359.34
409.717	2414.95
409.93	2325.82
410.143	2191.94
410.357	2090.61
410.57	2053.8
410.783	2109.6
410.996	2167.14
411.209	2270.6
411.421	2473.46
411.634	2492.64
411.847	2519.57
412.06	2557.54
412.273	2605.98
412.486	2576.34
412.699	2637.56
412.912	2605.98
413.125	2585.44
413.338	2555.22
413.55	2564.33
413.763	2549.99
413.976	2593.19
414.189	2557.35
414.402	2603.27
414.615	2737.73
414.827	2614.89
415.04	2644.34
415.253	2657.13
415.466	2727.07
415.678	2751.87
415.891	2700.72
416.104	2673.02
416.316	2719.9
416.529	2804.18
416.742	2913.26
416.954	2869.28
417.167	2832.08
417.38	2748.39
417.592	2764.85
417.805	2715.84
418.017	2686.39
418.23	2745.29
418.442	2698.79
418.655	2792.75
418.868	2735.4
419.08	2783.65
419.293	2901.64
419.505	2911.52
419.718	2852.81
419.93	2930.7
420.142	2843.32
420.355	2873.93
420.567	2830.92
420.78	2925.08
420.992	2921.6
421.205	3080.66
421.417	3124.45
421.629	3148.67
421.842	3104.69
422.054	3148.67
422.266	3175.79
422.479	3128.71
422.691	2983.4
422.903	3011.49
423.115	2857.85
423.328	2901.45
423.54	3019.24
423.752	2979.14
423.964	3117.09
424.177	3114.95
424.389	3124.64
424.601	3272.86
424.813	3239.53
425.025	3205.63
425.238	3224.23
425.45	3191.49
425.662	3175.6
425.874	3414.88
426.086	3177.34
426.298	3248.06
426.51	3258.91
426.722	3224.23
426.934	3301.92
427.146	3277.9
427.358	3243.6
427.57	3223.26
427.782	3117.86
427.994	3136.27
428.206	3208.92
428.418	3338.73
428.63	3437.74
428.842	3441.81
429.054	3311.8
429.266	3274.41
429.478	3238.18
429.69	3140.34
429.902	3101.39
430.114	3086.09
430.325	2889.82
430.537	2731.14
430.749	2675.54
430.961	2566.46
431.173	2629.42
431.384	2746.64
431.596	2789.27
431.808	3213.96
432.02	3586.34
432.231	3842.86
432.443	3989.72
432.655	3827.36
432.867	3787.45
433.078	3798.3
433.29	3866.5
433.502	4031.57
433.713	4090.67
433.925	4134.45
434.136	3960.08
434.348	3703.95
434.56	3705.88
434.771	3867.08
434.983	3766.72
435.194	4065.48
435.406	4190.64
435.617	4235.98
435.829	4372.76
436.04	4322.78
436.252	4316.38
436.463	4559.92
436.675	4630.25
436.886	4730.61
437.098	4736.43
437.309	4786.41
437.521	4631.41
437.732	4565.93
437.943	4472.15
438.155	4482.62
438.366	4376.25
438.578	4462.27
438.789	4218.54
439	4260.58
439.211	4272.98
439.423	4328.01
439.634	4540.35
439.845	4711.24
440.057	4669.78
440.268	4836.01
440.479	4843.37
440.69	4810.44
440.902	4707.56
441.113	4695.35
441.324	4907.12
441.535	5001.08
441.746	5160.93
441.957	5145.23
442.168	5246.37
442.38	5242.88
442.591	5336.27
442.802	5204.91
443.013	5377.92
443.224	5453.48
443.435	5381.8
443.646	5344.21
443.857	5280.27
444.068	5370.95
444.279	5312.63
444.49	5611.78
444.701	5497.46
444.912	5697.8
445.123	5697.02
445.334	5488.16
445.545	5618.56
445.756	5391.68
445.967	5330.26
446.178	5284.92
446.388	5255.47
446.599	5332.2
446.81	5440.12
447.021	5444.57
447.232	5555.98
447.443	5705.94
447.653	5856.48
447.864	5940.95
448.075	5929.33
448.286	5883.41
448.496	5849.7
448.707	5909.76
448.918	5817.34
449.129	5868.88
449.339	5896
449.55	6014.77
449.761	5981.45
449.971	5943.47
450.182	6072.7
450.393	6182.94
450.603	6108.35
450.814	6401.49
451.024	6364.1
451.235	6583.22
451.446	6603.57
451.656	6503.79
451.867	6479.57
452.077	6277.1
452.288	6433.26
452.498	6306.75
452.709	6334.65
452.919	6059.14
453.13	5998.3
453.34	5971.95
453.55	5770.07
453.761	6069.6
453.971	6035.89
454.182	6192.05
454.392	6242.04
454.602	6511.34
454.813	6541.57
455.023	6347.24
455.233	6223.82
455.444	6385.8
455.654	6129.66
455.864	6336.58
456.075	6431.52
456.285	6483.83
456.495	6521.42
456.705	6534.59
456.916	6737.06
457.126	6809.52
457.336	6716.33
457.546	6593.11
457.756	6735.9
457.967	6863
458.177	6620.81
458.387	6655.3
458.597	6516.19
458.807	6740.55
459.017	6533.24
459.227	6563.07
459.437	6581.67
459.647	6768.25
459.857	6759.92
460.068	6877.72
460.278	6838
460.488	6814.17
460.698	6886.24
460.908	6957.16
461.117	7107.12
461.327	7124.94
461.537	7306.87
461.747	7245.65
461.957	7233.05
462.167	7434.74
462.377	7365.96
462.587	7310.74
462.797	7523.48
463.007	7393.09
463.216	7569.01
463.426	7754.23
463.636	7531.04
463.846	7368.68
464.056	7346.2
464.265	7310.36
464.475	7330.31
464.685	7592.26
464.895	7454.7
465.104	7334.58
465.314	7518.64
465.524	7447.92
465.733	7415.17
465.943	7718.2
466.153	7835.41
466.362	7853.62
466.572	7830.96
466.782	7641.47
466.991	7797.83
467.201	7708.31
467.41	7574.82
467.62	7821.27
467.829	7836.96
468.039	8053.96
468.249	7960.77
468.458	8171.56
468.668	8099.49
468.877	8182.99
469.086	8278.51
469.296	8495.12
469.505	8539.49
469.715	8431.57
469.924	8400.19
470.134	8480.98
470.343	8286.26
470.552	8306.02
470.762	8307.19
470.971	8477.49
471.18	8518.37
471.39	8608.85
471.599	8526.51
471.808	8675.89
472.018	8925.24
472.227	9083.92
472.436	9507.26
472.645	9350.9
472.855	9296.85
473.064	9588.82
473.273	9637.65
473.482	9305.95
473.691	9527.79
473.901	9447.97
474.11	9325.13
474.319	9626.22
474.528	9608.78
474.737	10073
474.946	10004.03
475.155	10094.31
475.364	10193.32
475.573	10029.79
475.783	10298.52
475.992	10274.69
476.201	10199.9
476.41	10332.04
476.619	10155.73
476.828	10155.73
477.037	10142.17
477.245	10244.47
477.454	10431.24
477.663	10689.31
477.872	10961.14
478.081	11163.21
478.29	11024.49
478.499	11198.48
478.708	11404.62
478.917	11387.77
479.125	11114.58
479.334	11238.58
479.543	11507.12
479.752	11727.21
479.961	11632.86
480.169	11933.55
480.378	12066.66
480.587	12333.64
480.796	12229.02
481.004	12262.92
481.213	12377.04
481.422	12473.14
481.63	12725.01
481.839	12793.99
482.048	12962.93
482.256	12907.52
482.465	13257.62
482.674	13185.35
482.882	13208.22
483.091	13246
483.299	13055.16
483.508	13518.79
483.716	13620.7
483.925	13554.44
484.134	13252.78
484.342	13523.25
484.551	13490.51
484.759	13435.87
484.967	14009.17
485.176	13793.91
485.384	13857.85
485.593	13687.35
485.801	13486.05
486.01	12926.12
486.218	12374.52
486.426	11933.75
486.635	11616.78
486.843	11779.91
487.051	12212.16
487.26	12475.08
487.468	12779.26
487.676	13117.54
487.885	13609.66
488.093	13918.69
488.301	14394.72
488.509	14304.63
488.717	14597.97
488.926	14612.3
489.134	14397.05
489.342	14517.75
489.55	14417.97
489.758	14678.37
489.967	15236.36
490.175	15117.98
490.383	15661.25
490.591	15963.11
490.799	15766.46
491.007	15762.58
491.215	15837.75
491.423	15601.58
491.631	15601.19
491.839	15473.51
492.047	15480.48
492.255	15096.67
492.463	15214.28
492.671	15048.62
492.879	15415.39
493.087	15686.05
493.295	15795.9
493.503	15986.75
493.711	16385.09
493.919	16284.15
494.127	16249.47
494.334	16241.52
494.542	16259.15
494.75	16722.6
494.958	16557.53
495.166	16989.58
495.374	17094.2
495.581	17113.97
495.789	17139.93
495.997	17183.33
496.205	16557.53
496.412	16816.57
496.62	17271.29
496.828	17005.66
497.035	17239.71
497.243	17246.1
497.451	17334.06
497.658	17366.23
497.866	17229.83
498.074	17460.39
498.281	17075.02
498.489	17174.22
498.696	16860.74
498.904	16685.79
499.112	16787.7
499.319	17184.3
499.527	17291.83
499.734	17522.58
499.942	17359.44
500.149	17320.31
500.357	17351.7
500.564	17016.9
500.771	17037.82
500.979	16748.56
501.186	16672.03
501.394	16992.29
501.601	16490.68
501.808	16550.74
502.016	16678.04
502.223	16624.56
502.43	16737.13
502.638	16713.88
502.845	17098.47
503.052	17260.44
503.26	17195.73
503.467	17391.03
503.674	17419.31
503.881	17341.62
504.089	17196.7
504.296	17070.96
504.503	16930.88
504.71	16851.63
504.917	17193.98
505.125	17332.71
505.332	17478.41
505.539	17567.72
505.746	18031.36
505.953	18236.93
506.16	18301.64
506.367	18270.06
506.574	18615.31
506.781	18477.95
506.988	18289.43
507.195	18210.96
507.402	18267.73
507.609	18183.45
507.816	17986.22
508.023	17891.47
508.23	17798.48
508.437	17558.04
508.644	17729.31
508.851	17936.81
509.058	18363.83
509.265	18364.02
509.472	18552.73
509.679	18653.68
509.885	18658.13
510.092	18538.01
510.299	18495.58
510.506	18274.9
510.713	18313.46
510.92	18377.78
511.126	18503.52
511.333	18663.36
511.54	18780
511.746	18848
511.953	19037.1
512.16	19176.6
512.367	18998.16
512.573	18817.2
512.78	18743.38
512.987	18666.08
513.193	18397.35
513.4	18310.74
513.606	18530.65
513.813	18517.28
514.02	18351.24
514.226	18272.38
514.433	18366.93
514.639	18220.85
514.846	18218.52
515.052	18292.92
515.259	18354.34
515.465	18428.93
515.672	18493.64
515.878	18517.28
516.085	18838.12
516.291	18797.82
516.497	18582.57
516.704	18017.99
516.91	17464.26
517.117	16828.77
517.323	16368.23
517.529	16378.7
517.736	16297.13
517.942	16575.35
518.148	16975.63
518.354	17036.86
518.561	17035.31
518.767	16893.87
518.973	17111.45
519.179	17511.54
519.386	17713.61
519.592	17707.8
519.798	17688.23
520.004	18439
520.21	18428.93
520.417	18589.16
520.623	18654.84
520.829	18767.99
521.035	18842.97
521.241	18644.57
521.447	18892.57
521.653	19081.08
521.859	18978.59
522.065	19066.55
522.271	19222.13
522.477	19186.68
522.683	19357.95
522.889	18908.65
523.095	18637.4
523.301	18846.26
523.507	18708.12
523.713	18783.1
523.919	18761.21
524.125	19294.59
524.331	19533.68
524.537	19713.47
524.742	19816.93
524.948	19837.47
525.154	19891.72
525.36	19765.79
525.566	19541.43
525.772	19765.59
525.977	19640.04
526.183	19350.59
526.389	19486.01
526.595	18799.76
526.8	18627.33
527.006	18022.84
527.212	17671.77
527.417	17617.9
527.623	17739.38
527.829	18009.85
528.034	18486.86
528.24	18589.35
528.446	19000.29
528.651	19354.46
528.857	19408.13
529.062	19575.33
529.268	19861.11
529.473	20000.22
529.679	20210.63
529.884	20141.66
530.09	19949.85
530.295	19574.17
530.501	19873.7
530.706	19921.75
530.912	20164.71
531.117	20088.37
531.323	20134.49
531.528	20419.88
531.733	20394.3
531.939	20298.2
532.144	20127.9
532.35	20088.76
532.555	19948.1
532.76	19537.36
532.966	19353.1
533.171	19128.74
533.376	19132.23
533.581	19165.17
533.787	19437
533.992	19706.89
534.197	19386.23
534.402	19751.45
534.607	19901.02
534.813	19777.6
535.018	19771.79
535.223	20237.95
535.428	20057.96
535.633	20295.1
535.838	20549.69
536.043	20800.59
536.249	20882.74
536.454	20496.79
536.659	20661.48
536.864	20491.76
537.069	20240.27
537.274	20093.99
537.479	20068.22
537.684	20008.94
537.889	20060.09
538.094	20452.81
538.299	20278.25
538.504	20600.45
538.708	20376.67
538.913	20833.14
539.118	20672.14
539.323	20494.66
539.528	20317.38
539.733	20139.52
539.938	20203.85
540.142	20104.65
540.347	19871.77
540.552	19756.29
540.757	19489.7
540.962	19771.02
541.166	19592.58
541.371	19558.09
541.576	19511.2
541.781	19804.34
541.985	20221.87
542.19	19887.07
542.395	20570.42
542.599	20496.41
542.804	20162.58
543.008	20431.69
543.213	20359.62
543.418	20053.69
543.622	20421.81
543.827	20051.95
544.031	20343.54
544.236	20447.19
544.44	20733.17
544.645	20762.03
544.849	20625.25
545.054	20750.8
545.258	20908.89
545.463	20872.86
545.667	20499.89
545.872	20897.46
546.076	20716.89
546.281	20677.37
546.485	20613.24
546.689	20686.86
546.894	20669.42
547.098	20850.19
547.302	20767.07
547.507	20689.18
547.711	20811.25
547.915	20664
548.119	20284.06
548.324	20403.21
548.528	20517.91
548.732	20454.56
548.936	20805.43
549.141	20691.9
549.345	20799.04
549.549	20802.14
549.753	21010.03
549.957	20934.08
550.161	20963.72
550.366	20988.14
550.57	20887.39
550.774	20869.37
550.978	20938.15
551.182	20817.25
551.386	20688.6
551.59	20819.96
551.794	20790.32
551.998	20899.21
552.202	20978.06
552.406	20908.12
552.61	21188.47
552.814	20997.24
553.018	20923.62
553.222	20645.4
553.426	20714.76
553.63	20921.29
553.833	20922.46
554.037	20662.64
554.241	20707.4
554.445	20995.11
554.649	20962.37
554.853	20827.33
555.056	21087.72
555.26	21240.4
555.464	20957.33
555.668	21111.94
555.871	21016.04
556.075	21123.57
556.279	20877.7
556.483	20766.88
556.686	20674.07
556.89	20692.67
557.094	20630.09
557.297	20255.38
557.501	20379.96
557.704	20107.36
557.908	20364.08
558.112	20293.55
558.315	20506.67
558.519	20357.3
558.722	19984.33
558.926	20071.32
559.129	19531.16
559.333	19941.13
559.536	19784.77
559.74	19629.58
559.943	19543.56
560.147	19709.02
560.35	19502.29
560.553	19994.79
560.757	19882.23
560.96	19989.37
561.164	20107.56
561.367	20339.08
561.57	20250.15
561.774	19960.89
561.977	19926.98
562.18	19928.15
562.384	20047.3
562.587	19974.26
562.79	20165.1
562.993	19879.13
563.197	19882.03
563.4	20075.2
563.603	20146.31
563.806	20175.56
564.009	20155.41
564.212	20126.54
564.416	19835.53
564.619	19861.3
564.822	19859.37
565.025	19990.34
565.228	19853.75
565.431	19934.35
565.634	19670.07
565.837	19604.2
566.04	19368.6
566.243	19244.41
566.446	19197.52
566.649	19466.25
566.852	19322.1
567.055	19446.88
567.258	19376.16
567.461	19585.21
567.664	19710.37
567.867	19621.25
568.07	19352.52
568.273	19544.33
568.475	19610.4
568.678	19100.84
568.881	19156.84
569.084	18954.37
569.287	18723.62
569.489	18919.3
569.692	19010.75
569.895	19032.06
570.098	18811.58
570.3	18858.27
570.503	18781.55
570.706	18768.18
570.909	18578.7
571.111	18346.78
571.314	18281.1
571.516	18365.57
571.719	18447.34
571.922	18300.28
572.124	18534.72
572.327	18673.63
572.529	18604.66
572.732	18826.69
572.935	18816.04
573.137	19136.69
573.34	18766.44
573.542	19091.93
573.745	18942.55
573.947	18999.71
574.15	18839.87
574.352	18921.82
574.554	18982.27
574.757	18756.94
574.959	18574.05
575.162	18783.49
575.364	18392.7
575.566	18566.88
575.769	18327.79
575.971	18453.34
576.173	18067.98
576.376	18295.05
576.578	18493.45
576.78	18454.5
576.982	18350.85
577.185	18470.59
577.387	18432.22
577.589	18625
577.791	18508.95
577.993	18468.84
578.196	18504.1
578.398	18215.81
578.6	18121.07
578.802	18089.68
579.004	18065.07
579.206	18188.3
579.408	18377.2
579.61	18237.12
579.812	18582.76
580.014	18341.94
580.216	18446.75
580.418	18683.71
580.62	18702.31
580.822	18825.14
581.024	18798.41
581.226	18831.73
581.428	18927.25
581.63	19181.83
581.832	18975.1
582.034	19145.6
582.236	19119.44
582.438	19342.84
582.64	19301.95
582.841	19450.17
583.043	19688.87
583.245	19383.13
583.447	19560.8
583.649	19609.04
583.85	19556.15
584.052	19536.39
584.254	19384.88
584.456	19515.08
584.657	19443.39
584.859	19735.75
585.061	19372.48
585.262	19529.22
585.464	19255.46
585.666	19365.89
585.867	19178.15
586.069	19221.16
586.27	19012.88
586.472	19028.58
586.674	19055.9
586.875	19090.77
587.077	19162.26
587.278	19123.9
587.48	19138.82
587.681	19251.77
587.883	19174.66
588.084	18923.76
588.285	18807.32
588.487	18421.57
588.688	18422.54
588.89	17821.34
589.091	17382.69
589.292	16965.94
589.494	16569.73
589.695	16443.99
589.896	16195.99
590.098	16327.16
590.299	16403.88
590.5	16638.51
590.702	17081.22
590.903	17211.03
591.104	17466.97
591.305	17651.62
591.507	17743.45
591.708	17607.25
591.909	17738.03
592.11	17641.54
592.311	17885.27
592.512	17642.32
592.714	17688.04
592.915	17895.93
593.116	17742.48
593.317	18047.05
593.518	18034.85
593.719	18149.16
593.92	18109.25
594.121	18050.54
594.322	17971.69
594.523	17909.69
594.724	17693.27
594.925	17733.38
595.126	17530.72
595.327	17596.98
595.528	17788.4
595.729	17682.62
595.929	17830.25
596.13	17934.1
596.331	18259.21
596.532	18064.3
596.733	18365.96
596.934	18224.33
597.135	18309.97
597.335	18203.6
597.536	18172.21
597.737	18138.5
597.938	18024.19
598.138	18127.65
598.339	18166.01
598.54	18288.46
598.74	18001.91
598.941	18045.7
599.142	18324.69
599.342	18222.01
599.543	18114.67
599.744	18270.64
599.944	18223.17
600.145	18339.03
