Data from calibration4_FLMT105791__6__17-36-40-048.txt Node

Date: Mon Mar 20 17:36:40 GMT 2023
User: antho
Spectrometer: FLMT10579
Trigger mode: 0
Integration Time (sec): 1.000000E-1
Scans to average: 10
Electric dark correction enabled: true
Nonlinearity correction enabled: false
Boxcar width: 0
XAxis mode: Wavelengths
Number of Pixels in Spectrum: 3648
>>>>>Begin Spectral Data<<<<<
345.248	-135.48
345.464	-135.48
345.681	-135.48
345.898	-149.23
346.114	-133.54
346.331	-34.54
346.548	12.16
346.764	-24.85
346.981	4.21
347.197	-24.07
347.414	27.66
347.631	-16.52
347.847	56.33
348.064	15.84
348.28	-8.57
348.497	-31.05
348.713	23.39
348.93	9.64
349.146	81.91
349.363	80.94
349.579	89.85
349.796	83.46
350.012	85.78
350.229	135.38
350.445	127.82
350.661	92.56
350.878	118.91
351.094	128.99
351.311	125.5
351.527	110.39
351.743	110.19
351.96	137.12
352.176	132.09
352.392	117.75
352.609	145.26
352.825	100.7
353.041	132.47
353.257	114.65
353.474	107.29
353.69	123.76
353.906	166.19
354.122	133.25
354.339	195.44
354.555	170.64
354.771	110.77
354.987	223.15
355.203	205.32
355.42	150.3
355.636	146.04
355.852	142.74
356.068	165.22
356.284	124.92
356.5	192.54
356.716	161.34
356.932	151.66
357.148	159.6
357.364	149.72
357.58	192.34
357.796	165.99
358.012	182.27
358.228	171.03
358.444	88.3
358.66	182.27
358.876	181.88
359.092	130.34
359.308	177.04
359.524	186.14
359.74	175.1
359.956	165.02
360.172	196.99
360.388	231.09
360.604	216.95
360.819	290.57
361.035	207.26
361.251	216.56
361.467	190.79
361.683	222.18
361.898	212.1
362.114	227.22
362.33	203.97
362.546	261.12
362.762	231.09
362.977	270.23
363.193	226.64
363.409	266.74
363.624	220.63
363.84	236.32
364.056	242.91
364.271	272.17
364.487	247.56
364.703	276.82
364.918	229.15
365.134	252.6
365.35	261.32
365.565	358.77
365.781	297.16
365.996	320.99
366.212	394.03
366.427	344.05
366.643	338.23
366.858	321.38
367.074	320.99
367.289	391.32
367.505	437.24
367.72	315.95
367.936	339.2
368.151	372.53
368.367	375.63
368.582	333.78
368.798	327.38
369.013	381.05
369.228	343.47
369.444	366.91
369.659	384.15
369.874	387.64
370.09	427.55
370.305	356.83
370.52	385.31
370.736	410.11
370.951	372.14
371.166	410.11
371.381	434.72
371.597	404.88
371.812	353.73
372.027	379.5
372.242	382.21
372.458	427.94
372.673	318.47
372.888	357.42
373.103	394.61
373.318	419.41
373.533	387.45
373.749	341.92
373.964	301.23
374.179	386.09
374.394	284.57
374.609	423.68
374.824	332.03
375.039	405.27
375.254	337.27
375.469	402.36
375.684	408.37
375.899	462.43
376.114	435.5
376.329	453.71
376.544	428.13
376.759	459.52
376.974	393.65
377.189	421.16
377.404	428.91
377.619	507.38
377.834	480.25
378.049	484.71
378.264	505.24
378.478	579.45
378.693	546.51
378.908	581.19
379.123	527.91
379.338	563.56
379.553	502.53
379.767	491.68
379.982	491.1
380.197	516.87
380.412	478.31
380.626	509.31
380.841	607.54
381.056	599.21
381.271	628.08
381.485	560.46
381.7	528.3
381.915	540.31
382.129	489.94
382.344	500.59
382.559	430.07
382.773	465.91
382.988	383.96
383.202	427.55
383.417	371.95
383.632	460.49
383.846	431.43
384.061	424.84
384.275	427.16
384.49	486.26
384.704	546.9
384.919	594.56
385.133	617.62
385.348	650.36
385.562	613.16
385.777	646.1
385.991	588.56
386.206	608.71
386.42	616.65
386.634	676.9
386.849	631.76
387.063	671.87
387.277	609.48
387.492	621.69
387.706	607.74
387.92	593.21
388.135	685.43
388.349	699.77
388.563	667.8
388.778	683.49
388.992	679.04
389.206	714.88
389.42	783.27
389.635	785.21
389.849	845.27
390.063	900.29
390.277	865.81
390.491	910.18
390.706	894.68
390.92	893.51
391.134	923.16
391.348	979.34
391.562	969.08
391.776	1015.96
391.99	972.37
392.205	1033.98
392.419	895.06
392.633	925.48
392.847	856.31
393.061	744.72
393.275	745.1
393.489	587.97
393.703	519.19
393.917	545.16
394.131	583.52
394.345	682.14
394.559	818.73
394.773	857.67
394.986	991.36
395.2	1014.41
395.414	1109.74
395.628	1097.34
395.842	1163.6
396.056	1133.37
396.27	1049.87
396.484	1021
396.697	902.62
396.911	800.52
397.125	717.4
397.339	696.47
397.553	719.53
397.766	907.66
397.98	1011.7
398.194	1180.65
398.408	1268.8
398.621	1380.01
398.835	1455.38
399.049	1466.23
399.262	1596.62
399.476	1579.77
399.69	1614.83
399.903	1688.07
400.117	1576.28
400.331	1693.3
400.544	1664.05
400.758	1803.54
400.971	1718.88
401.185	1764.02
401.398	1715.78
401.612	1843.26
401.826	1875.04
402.039	1895.77
402.253	1884.53
402.466	1950.02
402.68	1916.5
402.893	1974.04
403.106	1918.63
403.32	1884.34
403.533	1951.18
403.747	1857.21
403.96	1917.47
404.174	1998.84
404.387	1976.17
404.6	1956.99
404.814	2001.17
405.027	1947.5
405.24	1929.87
405.454	1945.95
405.667	2051.15
405.88	1991.48
406.094	2026.55
406.307	2022.48
406.52	1969.59
406.733	1921.15
406.947	1963.77
407.16	2050.18
407.373	2074.98
407.586	2073.24
407.799	2077.5
408.012	2075.18
408.226	2101.92
408.439	2221.07
408.652	2187.75
408.865	2324.34
409.078	2380.14
409.291	2389.05
409.504	2305.74
409.717	2389.44
409.93	2328.21
410.143	2235.02
410.357	2088.93
410.57	2028.29
410.783	2101.14
410.996	2151.13
411.209	2281.91
411.421	2463.84
411.634	2518.67
411.847	2478.95
412.06	2571.95
412.273	2591.51
412.486	2549.28
412.699	2650.41
412.912	2604.11
413.125	2572.53
413.338	2584.54
413.55	2558.77
413.763	2553.15
413.976	2586.48
414.189	2589
414.402	2629.3
414.615	2769.96
414.827	2607.4
415.04	2663.2
415.253	2653.32
415.466	2770.54
415.678	2736.44
415.891	2685.29
416.104	2669.59
416.316	2719.78
416.529	2793.01
416.742	2935.8
416.954	2904.42
417.167	2842.22
417.38	2791.85
417.592	2765.11
417.805	2662.62
418.017	2695.17
418.23	2791.27
418.442	2697.11
418.655	2746.71
418.868	2797.47
419.08	2804.25
419.293	2871.29
419.505	2928.63
419.718	2893.37
419.93	2883.1
420.142	2833.89
420.355	2892.02
420.567	2829.44
420.78	2877.87
420.992	2922.63
421.205	3067.94
421.417	3106.69
421.629	3181.67
421.842	3164.43
422.054	3152.99
422.266	3178.18
422.479	3149.89
422.691	2958.08
422.903	2980.95
423.115	2899.38
423.328	2904.8
423.54	2973.39
423.752	3016.21
423.964	3098.36
424.177	3133.23
424.389	3119.09
424.601	3227.78
424.813	3203.76
425.025	3218.87
425.238	3230.11
425.45	3184.77
425.662	3184.57
425.874	3488.95
426.086	3240.96
426.298	3297.14
426.51	3247.35
426.722	3225.46
426.934	3324.07
427.146	3284.35
427.358	3195.04
427.57	3195.04
427.782	3133.23
427.994	3123.16
428.206	3170.04
428.418	3366.89
428.63	3445.16
428.842	3433.54
429.054	3295.98
429.266	3260.52
429.478	3233.79
429.69	3162.29
429.902	3084.99
430.114	3100.49
430.325	2878.26
430.537	2762.98
430.749	2663.78
430.961	2551.22
431.173	2579.89
431.384	2734.31
431.596	2802.7
431.808	3256.07
432.02	3610.24
432.231	3849.52
432.443	4009.94
432.655	3824.52
432.867	3748.57
433.078	3806.5
433.29	3887.1
433.502	4023.89
433.713	4062.25
433.925	4184.89
434.136	3969.44
434.348	3730.17
434.56	3677.47
434.771	3864.24
434.983	3736.75
435.194	4045.59
435.406	4252.51
435.617	4211.05
435.829	4321.68
436.04	4383.48
436.252	4324.97
436.463	4543.13
436.675	4658.8
436.886	4725.45
437.098	4745.21
437.309	4742.3
437.521	4611.14
437.732	4545.84
437.943	4486.36
438.155	4474.35
438.366	4377.67
438.578	4495.66
438.789	4236.82
439	4201.75
439.211	4267.04
439.423	4361.98
439.634	4506.71
439.845	4655.89
440.057	4711.3
440.268	4926.75
440.479	4790.55
440.69	4809.34
440.902	4685.73
441.113	4691.35
441.324	4828.13
441.535	5013.74
441.746	5155.18
441.957	5134.25
442.168	5220.86
442.38	5283.44
442.591	5300.1
442.802	5268.52
443.013	5362.29
443.224	5470.4
443.435	5342.53
443.646	5332.46
443.857	5273.17
444.068	5348.34
444.279	5264.26
444.49	5571.35
444.701	5448.51
444.912	5673.06
445.123	5662.8
445.334	5503.73
445.545	5627.34
445.756	5416.93
445.967	5379.15
446.178	5312.5
446.388	5292.54
446.599	5313.08
446.81	5420.22
447.021	5414.22
447.232	5560.3
447.443	5662.21
447.653	5882.12
447.864	5986.35
448.075	5959.81
448.286	5835.04
448.496	5824.57
448.707	5932.3
448.918	5750.18
449.129	5917.38
449.339	5927.07
449.55	6032.66
449.761	5997.78
449.971	5925.13
450.182	6169.44
450.393	6191.34
450.603	6146.78
450.814	6400.2
451.024	6381.4
451.235	6584.26
451.446	6573.6
451.656	6555
451.867	6466.65
452.077	6321.15
452.288	6449.8
452.498	6338.59
452.709	6317.47
452.919	6140.19
453.13	5985.97
453.34	6009.02
453.55	5774.98
453.761	6068.11
453.971	6002.24
454.182	6192.69
454.392	6253.72
454.602	6436.43
454.813	6534.85
455.023	6380.05
455.233	6308.56
455.444	6383.92
455.654	6163.83
455.864	6362.42
456.075	6449.02
456.285	6486.42
456.495	6488.16
456.705	6592.39
456.916	6767.15
457.126	6822.18
457.336	6696.63
457.546	6637.15
457.756	6734.02
457.967	6850.27
458.177	6620.68
458.387	6742.55
458.597	6582.71
458.807	6694.11
459.017	6527.49
459.227	6614.09
459.437	6604.21
459.647	6738.29
459.857	6758.44
460.068	6899.29
460.278	6850.66
460.488	6867.32
460.698	6904.13
460.908	7000.04
461.117	7137.21
461.327	7188.94
461.537	7245.32
461.747	7219.17
461.957	7215.29
462.167	7367.77
462.377	7325.53
462.587	7296.47
462.797	7496.81
463.007	7397.8
463.216	7551.83
463.426	7767.67
463.636	7543.11
463.846	7360.6
464.056	7364.86
464.265	7376.1
464.475	7401.87
464.685	7583.22
464.895	7499.71
465.104	7329.22
465.314	7617.71
465.524	7508.04
465.733	7484.02
465.943	7727.95
466.153	7857.76
466.362	7892.44
466.572	7863.57
466.782	7626.42
466.991	7856.01
467.201	7666.92
467.41	7569.07
467.62	7866.48
467.829	7879.46
468.039	8032.13
468.249	7949.98
468.458	8176.08
468.668	8151.67
468.877	8223.17
469.086	8251.26
469.296	8503.13
469.505	8558.35
469.715	8450.43
469.924	8318.1
470.134	8479.49
470.343	8261.72
470.552	8310.55
470.762	8315.2
470.971	8451.4
471.18	8525.02
471.39	8648.25
471.599	8502.94
471.808	8638.75
472.018	9015.59
472.227	9193.06
472.436	9486.2
472.645	9407.74
472.855	9379.25
473.064	9658.64
473.273	9641.98
473.482	9318.61
473.691	9475.55
473.901	9443.77
474.11	9310.47
474.319	9640.23
474.528	9660.58
474.737	10151.14
474.946	9975.03
475.155	10050.78
475.364	10260.22
475.573	10110.46
475.783	10278.63
475.992	10194.16
476.201	10255.57
476.41	10333.65
476.619	10213.34
476.828	10166.06
477.037	10202.87
477.245	10287.35
477.454	10426.65
477.663	10725.6
477.872	11005.18
478.081	11185.37
478.29	11131.89
478.499	11251.24
478.708	11539.34
478.917	11440.53
479.125	11119.88
479.334	11265.58
479.543	11601.73
479.752	11733.09
479.961	11732.12
480.169	12006.08
480.378	12052.39
480.587	12337
480.796	12258.34
481.004	12184.13
481.213	12396.29
481.422	12504.98
481.63	12803.16
481.839	12770.8
482.048	13057.74
482.256	12961.06
482.465	13357.66
482.674	13171.86
482.882	13172.83
483.091	13336.93
483.299	13110.44
483.508	13501.03
483.716	13568.65
483.925	13648.67
484.134	13253.23
484.342	13477.4
484.551	13499.29
484.759	13483.6
484.967	13974.36
485.176	13850.75
485.384	13821.3
485.593	13690.32
485.801	13524.86
486.01	13035.65
486.218	12300.96
486.426	11928.58
486.635	11686.01
486.843	11803.42
487.051	12297.86
487.26	12498.2
487.468	12862.44
487.676	13218.55
487.885	13597.52
488.093	13940.65
488.301	14387.04
488.509	14335.5
488.717	14605.78
488.926	14623.99
489.134	14382.97
489.342	14533.32
489.55	14351.97
489.758	14795.46
489.967	15235.46
490.175	15174.04
490.383	15697.93
490.591	15996.5
490.799	15727.96
491.007	15668.29
491.215	15869.59
491.423	15673.52
491.631	15652.98
491.839	15556.11
492.047	15502.64
492.255	15110.88
492.463	15200.39
492.671	14979.32
492.879	15523.75
493.087	15716.34
493.295	15815.54
493.503	15945.35
493.711	16412.28
493.919	16228.03
494.127	16311.34
494.334	16277.82
494.542	16361.32
494.75	16886.96
494.958	16525.23
495.166	16989.06
495.374	17171.77
495.581	17230.67
495.789	17116.36
495.997	17193.47
496.205	16558.36
496.412	16891.42
496.62	17261.86
496.828	17056.1
497.035	17236.29
497.243	17367.84
497.451	17407.75
497.658	17371.72
497.866	17391.67
498.074	17531.17
498.281	17156.85
498.489	17246.55
498.696	16961.75
498.904	16846.08
499.112	16864.29
499.319	17182.62
499.527	17350.02
499.734	17516.44
499.942	17470.72
500.149	17411.24
500.357	17476.73
500.564	17103.76
500.771	16992.94
500.979	16803.65
501.186	16625.01
501.394	17135.34
501.601	16547.32
501.808	16653.69
502.016	16773.42
502.223	16689.73
502.43	16834.26
502.638	16840.85
502.845	17097.37
503.052	17346.53
503.26	17362.03
503.467	17499.01
503.674	17573.6
503.881	17431.58
504.089	17180.68
504.296	17040.21
504.503	16947.8
504.71	16877.47
504.917	17259.34
505.125	17313.79
505.332	17553.06
505.539	17573.02
505.746	18049.44
505.953	18290.08
506.16	18374.94
506.367	18311.2
506.574	18640.18
506.781	18501.65
506.988	18401.09
507.195	18336.38
507.402	18249.58
507.609	18237.57
507.816	17937.65
508.023	18034.72
508.23	17955.09
508.437	17590.65
508.644	17836.32
508.851	17894.06
509.058	18308.68
509.265	18355.18
509.472	18617.9
509.679	18745.77
509.885	18608.6
510.092	18596.97
510.299	18540.79
510.506	18308.87
510.713	18393.54
510.92	18349.75
511.126	18524.51
511.333	18658.39
511.54	18849.04
511.746	18914.52
511.953	19021.67
512.16	19270.24
512.367	19075.33
512.573	18918.59
512.78	18844.78
512.987	18706.63
513.193	18571.59
513.4	18345.1
513.606	18481.31
513.813	18585.93
514.02	18381.33
514.226	18313.13
514.433	18398.77
514.639	18278.65
514.846	18341.03
515.052	18300.15
515.259	18432.48
515.465	18505.72
515.672	18615.96
515.878	18568.3
516.085	18961.99
516.291	18749.26
516.497	18722.13
516.704	18063.97
516.91	17606.73
517.117	16856.15
517.323	16470.98
517.529	16361.13
517.736	16352.61
517.942	16556.04
518.148	16916.02
518.354	16984.41
518.561	17041.57
518.767	16947.22
518.973	17073.15
519.179	17463.75
519.386	17721.04
519.592	17729.37
519.798	17800.09
520.004	18559.19
520.21	18465.81
520.417	18705.08
520.623	18848.46
520.829	18720
521.035	18803.7
521.241	18718.65
521.447	18906.58
521.653	19199.53
521.859	19028.06
522.065	19174.34
522.271	19299.5
522.477	19191.78
522.683	19414.01
522.889	18987.18
523.095	18870.74
523.301	18893.02
523.507	18668.47
523.713	18834.12
523.919	18897.47
524.125	19378.94
524.331	19517.85
524.537	19925.11
524.742	19919.88
524.948	19852.46
525.154	19859.43
525.36	19894.11
525.566	19564.55
525.772	19782.51
525.977	19628.87
526.183	19528.51
526.389	19520.76
526.595	18880.04
526.8	18612.28
527.006	18062.23
527.212	17651.49
527.417	17654.39
527.623	17722.79
527.829	17961.87
528.034	18466.77
528.24	18490.41
528.446	18971.68
528.651	19315.39
528.857	19487.44
529.062	19594.19
529.268	19855.75
529.473	20037.29
529.679	20196.16
529.884	20093.09
530.09	19978.2
530.295	19697.07
530.501	19967.54
530.706	19944.87
530.912	20081.85
531.117	20151.21
531.323	20212.82
531.528	20458.3
531.733	20449.97
531.939	20231.23
532.144	20164.58
532.35	20109.17
532.555	20034.19
532.76	19548.08
532.966	19372.93
533.171	19200.11
533.376	19091.22
533.581	19199.91
533.787	19413.42
533.992	19762.36
534.197	19351.42
534.402	19940.8
534.607	19916
534.813	19835.6
535.018	19905.74
535.223	20161.09
535.428	20162.64
535.633	20338.57
535.838	20690.22
536.043	20794.45
536.249	20932.98
536.454	20631.71
536.659	20655.54
536.864	20542.58
537.069	20282.96
537.274	20215.34
537.479	20140.17
537.684	20134.94
537.889	20157.99
538.094	20584.82
538.299	20313.96
538.504	20722.19
538.708	20495.5
538.913	20860.13
539.118	20739.82
539.323	20629.77
539.528	20317.84
539.733	20206.24
539.938	20238.59
540.142	20017.72
540.347	19983.82
540.552	19830.37
540.757	19524.44
540.962	19773.99
541.166	19684.67
541.371	19660.65
541.576	19715.09
541.781	19837.92
541.985	20393.01
542.19	19959.6
542.395	20529.6
542.599	20482.13
542.804	20187.06
543.008	20441.64
543.213	20406.57
543.418	20179.5
543.622	20391.85
543.827	20155.86
544.031	20553.43
544.236	20541.61
544.44	20836.3
544.645	20804.92
544.849	20767.52
545.054	20872.73
545.258	20910.9
545.463	20954.88
545.667	20588.89
545.872	20891.33
546.076	20765.97
546.281	20762.29
546.485	20700.1
546.689	20789.22
546.894	20791.55
547.098	20847.35
547.302	20930.27
547.507	20716.37
547.711	20798.14
547.915	20712.69
548.119	20472.83
548.324	20394.37
548.528	20568.35
548.732	20650.31
548.936	20923.68
549.141	20667.55
549.345	20837.27
549.549	20790
549.753	21115.3
549.957	20914.58
550.161	20969.21
550.366	21130.02
550.57	20923.88
550.774	20944.03
550.978	21015.33
551.182	20919.03
551.386	20680.14
551.59	20862.46
551.794	20867.5
551.998	21010.09
552.202	21016.68
552.406	20843.67
552.61	21169.55
552.814	21084.88
553.018	20905.67
553.222	20698.94
553.426	20798.52
553.63	20993.04
553.833	20945.96
554.037	20761.71
554.241	20729.74
554.445	21133.12
554.649	21031.99
554.853	20817.51
555.056	21131.77
555.26	21232.9
555.464	21021.33
555.668	21102.9
555.871	21046.52
556.075	21193.57
556.279	20910.12
556.483	20816.93
556.686	20648.17
556.89	20783.6
557.094	20671.23
557.297	20402.12
557.501	20454.04
557.704	20217.09
557.908	20399.02
558.112	20447.26
558.315	20517.4
558.519	20455.2
558.722	20012.88
558.926	20171.56
559.129	19650.18
559.333	20019.08
559.536	19840.83
559.74	19629.26
559.943	19546.14
560.147	19772.24
560.35	19650.38
560.553	20125.64
560.757	20004.35
560.96	20143.08
561.164	20175.63
561.367	20408.9
561.57	20314.15
561.774	20089.8
561.977	19992.34
562.18	20021.21
562.384	20082.43
562.587	19971.8
562.79	20218.44
562.993	19963.86
563.197	19934.41
563.4	20162.06
563.603	20140.36
563.806	20297.49
564.009	20091.54
564.212	20194.03
564.416	19925.3
564.619	19925.89
564.822	19761.01
565.025	20052.79
565.228	19853.04
565.431	20083.79
565.634	19741.83
565.837	19580.24
566.04	19467.67
566.243	19339.02
566.446	19173.37
566.649	19482.59
566.852	19232.66
567.055	19480.27
567.258	19388.82
567.461	19586.44
567.664	19714.12
567.867	19720.71
568.07	19465.74
568.273	19661.61
568.475	19763.14
568.678	19222.39
568.881	19232.08
569.084	18940.68
569.287	18710.12
569.489	18962.19
569.692	18983.11
569.895	19013.72
570.098	18836.83
570.3	18857.56
570.503	18881.98
570.706	18768.25
570.909	18595.23
571.111	18320.69
571.314	18311
571.516	18360.02
571.719	18494.48
571.922	18446.04
572.124	18574.5
572.327	18684.55
572.529	18708.96
572.732	18775.22
572.935	18928.67
573.137	19178.8
573.34	18846.13
573.542	19118.54
573.745	18940.1
573.947	19010.04
574.15	18855.43
574.352	18904.26
574.554	18974.39
574.757	18815.33
574.959	18537.11
575.162	18851.75
575.364	18441.39
575.566	18612.86
575.769	18360.8
575.971	18519.28
576.173	18022.32
576.376	18316.04
576.578	18562.49
576.78	18496.22
576.982	18399.74
577.185	18572.75
577.387	18477.04
577.589	18654.32
577.791	18550.28
577.993	18515.41
578.196	18575.85
578.398	18231.37
578.6	18220.13
578.802	18224.59
579.004	18112.41
579.206	18282.33
579.408	18482.27
579.61	18251.72
579.812	18699.85
580.014	18378.81
580.216	18434.81
580.418	18764.95
580.62	18763.01
580.822	18767.08
581.024	18801.57
581.226	18909.1
581.428	18960.64
581.63	19244.86
581.832	19098
582.034	19200.11
582.236	19171.43
582.438	19465.15
582.64	19471.55
582.841	19455.08
583.043	19854.2
583.245	19494.02
583.447	19583.73
583.649	19618.8
583.85	19526.77
584.052	19614.92
584.254	19563.77
584.456	19619.38
584.657	19507.2
584.859	19752.68
585.061	19467.67
585.262	19486.27
585.464	19345.22
585.666	19352.39
585.867	19093.35
586.069	19082.7
586.27	19122.8
586.472	19149.73
586.674	19151.09
586.875	19186.74
587.077	19263.08
587.278	19221.81
587.48	19178.41
587.681	19362.08
587.883	19251.64
588.084	18945.72
588.285	18948.43
588.487	18464.06
588.688	18427.44
588.89	17852.01
589.091	17423.45
589.292	16953.61
589.494	16609.51
589.695	16405.11
589.896	16183.27
590.098	16336.33
590.299	16458.97
590.5	16688.95
590.702	17063.66
590.903	17257.79
591.104	17595.3
591.305	17834.19
591.507	17749.52
591.708	17828.57
591.909	17817.33
592.11	17754.95
592.311	17964.78
592.512	17661.56
592.714	17641.8
592.915	17965.36
593.116	17799.51
593.317	18115.7
593.518	18085.09
593.719	18099.04
593.92	18169.57
594.121	18107.37
594.322	17981.83
594.523	17903.55
594.724	17648.97
594.925	17719.1
595.126	17473.82
595.327	17624.75
595.528	17770.64
595.729	17796.41
595.929	17812.88
596.13	17944.63
596.331	18220.72
596.532	18105.05
596.733	18241.64
596.934	18321.27
597.135	18276.32
597.335	18297.83
597.536	18196.11
597.737	18219.75
597.938	18133.72
598.138	18268.96
598.339	18220.13
598.54	18223.04
598.74	17980.86
598.941	18057.58
599.142	18320.11
599.342	18239.51
599.543	18149.61
599.744	18306.74
599.944	18271.28
