Data from calibration4_FLMT105791__4__17-36-38-048.txt Node

Date: Mon Mar 20 17:36:38 GMT 2023
User: antho
Spectrometer: FLMT10579
Trigger mode: 0
Integration Time (sec): 1.000000E-1
Scans to average: 10
Electric dark correction enabled: true
Nonlinearity correction enabled: false
Boxcar width: 0
XAxis mode: Wavelengths
Number of Pixels in Spectrum: 3648
>>>>>Begin Spectral Data<<<<<
345.248	-138.72
345.464	-138.72
345.681	-138.72
345.898	-148.22
346.114	-172.05
346.331	-38.94
346.548	10.27
346.764	-4.07
346.981	5.23
347.197	9.49
347.414	18.79
347.631	-1.55
347.847	41.46
348.064	-12.4
348.28	28.67
348.497	-51.73
348.713	-5.23
348.93	28.67
349.146	84.86
349.363	80.79
349.579	106.37
349.796	95.9
350.012	98.62
350.229	140.85
350.445	113.73
350.661	61.81
350.878	129.62
351.094	105.59
351.311	99.97
351.527	137.37
351.743	107.34
351.96	134.07
352.176	151.12
352.392	133.1
352.609	135.04
352.825	114.89
353.041	124.77
353.257	126.52
353.474	121.48
353.69	155
353.906	147.83
354.122	134.07
354.339	201.3
354.555	138.92
354.771	126.32
354.987	170.11
355.203	184.45
355.42	148.41
355.636	158.1
355.852	154.22
356.068	142.02
356.284	142.21
356.5	196.27
356.716	170.5
356.932	148.6
357.148	178.05
357.364	133.1
357.58	207.12
357.796	210.6
358.012	194.91
358.228	165.07
358.444	96.49
358.66	191.42
358.876	150.54
359.092	128.07
359.308	163.14
359.524	195.3
359.74	175.34
359.956	196.65
360.172	202.66
360.388	226.3
360.604	205.76
360.819	273.76
361.035	196.85
361.251	234.24
361.467	176.12
361.683	209.44
361.898	211.57
362.114	236.18
362.33	248.77
362.546	239.08
362.762	227.65
362.977	253.62
363.193	216.03
363.409	263.11
363.624	235.02
363.84	215.25
364.056	221.26
364.271	258.27
364.487	267.37
364.703	262.91
364.918	246.83
365.134	235.79
365.35	269.11
365.565	364.05
365.781	306.12
365.996	340.03
366.212	366.18
366.427	345.45
366.643	331.89
366.858	348.36
367.074	300.89
367.289	390.21
367.505	431.67
367.72	311.35
367.936	337.7
368.151	372.96
368.367	350.29
368.582	371.22
368.798	323.17
369.013	379.74
369.228	353.59
369.444	369.09
369.659	407.45
369.874	406.29
370.09	401.44
370.305	334.21
370.52	386.53
370.736	462.67
370.951	371.41
371.166	446.59
371.381	403.38
371.597	438.64
371.812	357.27
372.027	383.43
372.242	389.82
372.458	461.89
372.673	369.09
372.888	367.54
373.103	371.41
373.318	469.45
373.533	382.26
373.749	344.48
373.964	269.11
374.179	385.36
374.394	305.15
374.609	394.86
374.824	317.16
375.039	385.17
375.254	316.2
375.469	413.84
375.684	395.63
375.899	445.23
376.114	439.42
376.329	445.42
376.544	450.07
376.759	442.71
376.974	401.06
377.189	435.93
377.404	433.99
377.619	500.06
377.834	455.11
378.049	485.14
378.264	506.07
378.478	572.52
378.693	542.49
378.908	565.74
379.123	508.97
379.338	565.16
379.553	530.48
379.767	500.45
379.982	494.44
380.197	515.17
380.412	475.46
380.626	556.44
380.841	658.74
381.056	597.71
381.271	655.06
381.485	560.51
381.7	547.34
381.915	557.8
382.129	502.77
382.344	475.65
382.559	457.82
382.773	487.08
382.988	404.35
383.202	441.36
383.417	364.63
383.632	504.13
383.846	418.49
384.061	457.82
384.275	404.54
384.49	511.49
384.704	542.3
384.919	576.01
385.133	631.03
385.348	669.98
385.562	577.17
385.777	635.3
385.991	599.26
386.206	584.92
386.42	583.95
386.634	640.14
386.849	689.74
387.063	655.25
387.277	608.37
387.492	645.76
387.706	623.48
387.92	627.16
388.135	719.19
388.349	706.6
388.563	632.78
388.778	653.51
388.992	686.64
389.206	727.33
389.42	777.31
389.635	770.92
389.849	831.37
390.063	904.99
390.277	921.07
390.491	919.91
390.706	875.16
390.92	898.6
391.134	906.93
391.348	948.39
391.562	957.31
391.776	987.72
391.99	1020.66
392.205	1031.32
392.419	926.11
392.633	919.33
392.847	869.34
393.061	749.22
393.275	735.27
393.489	570.97
393.703	527.57
393.917	551.02
394.131	527.19
394.345	672.88
394.559	787.19
394.773	835.24
394.986	991.4
395.2	1016.2
395.414	1108.62
395.628	1067.55
395.842	1135.94
396.056	1148.53
396.27	1067.74
396.484	1003.8
396.697	892.21
396.911	800.95
397.125	697.49
397.339	697.68
397.553	724.23
397.766	866.24
397.98	995.86
398.194	1190.77
398.408	1288.03
398.621	1345.19
398.835	1438.38
399.049	1474.03
399.262	1576.13
399.476	1619.34
399.69	1650.34
399.903	1682.89
400.117	1624.96
400.331	1707.11
400.544	1637.55
400.758	1776.27
400.971	1721.83
401.185	1765.81
401.398	1728.03
401.612	1839.24
401.826	1863.27
402.039	1853.39
402.253	1896.01
402.466	1936.5
402.68	1939.22
402.893	1995.98
403.106	1934.18
403.32	1882.64
403.533	1894.46
403.747	1865.4
403.96	1917.71
404.174	1989.01
404.387	1934.76
404.6	1975.25
404.814	1993.85
405.027	1900.47
405.24	1927.78
405.454	1966.34
405.667	2038.22
405.88	2005.67
406.094	2042.68
406.307	2015.36
406.52	1958.98
406.733	1886.9
406.947	1962.47
407.16	2006.45
407.373	2064.38
407.586	2032.41
407.799	2034.35
408.012	2090.92
408.226	2103.71
408.439	2205.42
408.652	2179.08
408.865	2333.1
409.078	2384.64
409.291	2391.42
409.504	2337.95
409.717	2380.96
409.93	2350.35
410.143	2170.36
410.357	2090.34
410.57	2045.97
410.783	2094.41
410.996	2167.26
411.209	2252.31
411.421	2447.03
411.634	2518.52
411.847	2487.52
412.06	2554.75
412.273	2575.48
412.486	2558.24
412.699	2621.98
412.912	2630.7
413.125	2533.25
413.338	2535.18
413.55	2513.29
413.763	2516.2
413.976	2561.34
414.189	2579.74
414.402	2623.14
414.615	2769.81
414.827	2631.28
415.04	2650.85
415.253	2644.46
415.466	2741.91
415.678	2784.34
415.891	2692.51
416.104	2658.99
416.316	2721.57
416.529	2799.65
416.742	2920.93
416.954	2834.91
417.167	2806.04
417.38	2769.62
417.592	2752.18
417.805	2687.08
418.017	2684.56
418.23	2703.94
418.442	2731.45
418.655	2751.4
418.868	2744.82
419.08	2807.78
419.293	2867.07
419.505	2897.68
419.718	2840.14
419.93	2894
420.142	2841.3
420.355	2833.94
420.567	2823.28
420.78	2893.42
420.992	2899.62
421.205	3047.84
421.417	3147.62
421.629	3119.91
421.842	3135.41
422.054	3105.19
422.266	3161.37
422.479	3132.51
422.691	2948.25
422.903	3011.03
423.115	2855.25
423.328	2884.7
423.54	2942.44
423.752	2997.66
423.964	3064.11
424.177	3100.92
424.389	3076.9
424.601	3264.45
424.813	3221.05
425.025	3207.29
425.238	3210.2
425.45	3173
425.662	3197.02
425.874	3434.17
426.086	3213.49
426.298	3260.57
426.51	3208.45
426.722	3259.02
426.934	3245.65
427.146	3261.73
427.358	3182.49
427.57	3222.02
427.782	3142
427.994	3157.3
428.206	3137.93
428.418	3353.96
428.63	3433.59
428.842	3439.4
429.054	3324.12
429.266	3272.39
429.478	3206.52
429.69	3175.71
429.902	3072.06
430.114	3052.29
430.325	2866.88
430.537	2719.82
430.749	2638.64
430.961	2567.15
431.173	2580.52
431.384	2682.04
431.596	2821.15
431.808	3219.5
432.02	3618.23
432.231	3874.94
432.443	3992.74
432.655	3829.61
432.867	3767.22
433.078	3772.26
433.29	3876.88
433.502	4014.83
433.713	4068.3
433.925	4118.29
434.136	3948.57
434.348	3695.15
434.56	3623.46
434.771	3832.71
434.983	3708.32
435.194	3988.48
435.406	4206.45
435.617	4190.17
435.829	4361.06
436.04	4346.91
436.252	4303.32
436.463	4551.9
436.675	4647.61
436.886	4697.01
437.098	4721.43
437.309	4754.75
437.521	4602.27
437.732	4484.09
437.943	4486.41
438.155	4484.47
438.366	4346.14
438.578	4397.67
438.789	4208.58
439	4222.53
439.211	4245
439.423	4306.23
439.634	4502.69
439.845	4627.07
440.057	4649.74
440.268	4842.71
440.479	4776.45
440.69	4835.35
440.902	4673.18
441.113	4671.05
441.324	4842.13
441.535	4944.82
441.746	5175.96
441.957	5103.11
442.168	5221.29
442.38	5250.36
442.591	5330.18
442.802	5173.44
443.013	5343.55
443.224	5429.96
443.435	5362.54
443.646	5285.42
443.857	5261.79
444.068	5394.31
444.279	5283.87
444.49	5605.11
444.701	5430.15
444.912	5656.45
445.123	5694.81
445.334	5424.92
445.545	5528.96
445.756	5410.2
445.967	5378.23
446.178	5254.42
446.388	5217.23
446.599	5294.53
446.81	5368.15
447.021	5392.37
447.232	5552.02
447.443	5719.61
447.653	5774.25
447.864	5957.15
448.075	5899.99
448.286	5905.8
448.496	5821.72
448.707	5868.22
448.918	5774.83
449.129	5833.34
449.339	5897.47
449.55	5966.06
449.761	5919.17
449.971	5918.01
450.182	6079.79
450.393	6137.72
450.603	6120.67
450.814	6356.27
451.024	6307.63
451.235	6549.82
451.446	6474.84
451.656	6530.83
451.867	6427.95
452.077	6227.42
452.288	6414.39
452.498	6314.42
452.709	6267.14
452.919	6030.38
453.13	5959.86
453.34	5979.04
453.55	5727.17
453.761	6062.74
453.971	6021.86
454.182	6157.48
454.392	6193.13
454.602	6492.47
454.813	6479.88
455.023	6271.99
455.233	6211.92
455.444	6371.38
455.654	6119.12
455.864	6327.2
456.075	6390.17
456.285	6380.87
456.495	6519.79
456.705	6541.49
456.916	6685.25
457.126	6793.94
457.336	6692.22
457.546	6595.93
457.756	6695.9
457.967	6770.11
458.177	6606.97
458.387	6658.51
458.597	6483.36
458.807	6675.95
459.017	6527.54
459.227	6549.24
459.437	6542.84
459.647	6721.29
459.857	6723.8
460.068	6853.23
460.278	6822.42
460.488	6772.43
460.698	6834.82
460.908	6930.92
461.117	7100.84
461.327	7101.8
461.537	7157.99
461.747	7151.02
461.957	7210.5
462.167	7336.63
462.377	7313.18
462.587	7232.97
462.797	7445.9
463.007	7318.41
463.216	7550.33
463.426	7636.74
463.636	7526.3
463.846	7306.21
464.056	7354.45
464.265	7320.55
464.475	7366.85
464.685	7543.35
464.895	7440.67
465.104	7271.14
465.314	7581.52
465.524	7406.57
465.733	7352.9
465.943	7653.79
466.153	7825.84
466.362	7829.13
466.572	7732.26
466.782	7614.65
466.991	7756.67
467.201	7592.57
467.41	7563.12
467.62	7791.93
467.829	7832.43
468.039	7959.72
468.249	7930.27
468.458	8131.96
468.668	8058.92
468.877	8236.97
469.086	8245.69
469.296	8463.85
469.505	8517.13
469.715	8420.64
469.924	8330.16
470.134	8431.1
470.343	8220.69
470.552	8325.9
470.762	8217.59
470.971	8351.67
471.18	8435.56
471.39	8560.53
471.599	8512.48
471.808	8657.21
472.018	8909.27
472.227	9079.77
472.436	9428.52
472.645	9352.76
472.855	9259.96
473.064	9566.85
473.273	9596.69
473.482	9236.51
473.691	9534.49
473.901	9375.04
474.11	9277.39
474.319	9643.77
474.528	9601.73
474.737	10075.63
474.946	9850.5
475.155	10024.48
475.364	10151.19
475.573	9971.78
475.783	10254.27
475.992	10159.72
476.201	10164.37
476.41	10287.59
476.619	10141.5
476.828	10069.43
477.037	10085.51
477.245	10169.99
477.454	10381.75
477.663	10657.65
477.872	10968.22
478.081	11093
478.29	11013.17
478.499	11188.51
478.708	11411.13
478.917	11336.93
479.125	11110.63
479.334	11219.13
479.543	11602.55
479.752	11688
479.961	11620.96
480.169	11953.04
480.378	12049.14
480.587	12190.58
480.796	12119.28
481.004	12223.51
481.213	12341.7
481.422	12435.08
481.63	12643.75
481.839	12725.9
482.048	12927.98
482.256	12814.64
482.465	13234.87
482.674	13100.99
482.882	13092.47
483.091	13166.48
483.299	13024.46
483.508	13405.56
483.716	13570.06
483.925	13648.14
484.134	13212.2
484.342	13470.47
484.551	13442.96
484.759	13391.23
484.967	13918.03
485.176	13814.95
485.384	13865.71
485.593	13564.63
485.801	13411.96
486.01	12902.02
486.218	12360.88
486.426	11806.76
486.635	11619.02
486.843	11742.24
487.051	12193.87
487.26	12407.38
487.468	12767.94
487.676	13051.39
487.885	13573.74
488.093	13903.69
488.301	14361.9
488.509	14280.91
488.717	14495.39
488.926	14568.24
489.134	14392.9
489.342	14381.86
489.55	14301.65
489.758	14708.9
489.967	15138.83
490.175	15054.55
490.383	15637.34
490.591	15872.94
490.799	15662.72
491.007	15601.5
491.215	15786.14
491.423	15603.05
491.631	15570.69
491.839	15503.85
492.047	15381.59
492.255	15012.7
492.463	15158.4
492.671	14890.64
492.879	15393.22
493.087	15608.66
493.295	15710.19
493.503	15960.32
493.711	16301.12
493.919	16211.22
494.127	16114.34
494.334	16091.29
494.542	16205.6
494.75	16668.07
494.958	16475.88
495.166	16901.93
495.374	17065.06
495.581	17025.15
495.789	17018.76
495.997	17047.04
496.205	16436.93
496.412	16795.75
496.62	17144.5
496.828	16923.82
497.035	17142.17
497.243	17267.92
497.451	17316.35
497.658	17301.24
497.866	17253.58
498.074	17346
498.281	17040.07
498.489	17062.93
498.696	16843.8
498.904	16694.23
499.112	16741.89
499.319	17126.48
499.527	17242.92
499.734	17458.56
499.942	17250.28
500.149	17287.1
500.357	17273.15
500.564	16910.06
500.771	16933.51
500.979	16689.19
501.186	16500.87
501.394	16921.69
501.601	16446.04
501.808	16555.51
502.016	16576.24
502.223	16549.69
502.43	16710.31
502.638	16710.12
502.845	17052.47
503.052	17181.5
503.26	17207.47
503.467	17389.39
503.674	17477.36
503.881	17268.88
504.089	17110.21
504.296	16984.46
504.503	16936.03
504.71	16829.66
504.917	17120.09
505.125	17228.78
505.332	17407.61
505.539	17476.39
505.746	17935.18
505.953	18127.96
506.16	18181.43
506.367	18246.34
506.574	18484.45
506.781	18471.67
506.988	18253.51
507.195	18184.92
507.402	18168.26
507.609	18086.69
507.816	17817.19
508.023	17791.61
508.23	17665.29
508.437	17462.24
508.644	17716.83
508.851	17784.06
509.058	18233.16
509.265	18355.22
509.472	18574.93
509.679	18583.65
509.885	18461.59
510.092	18509.25
510.299	18488.52
510.506	18166.13
510.713	18344.96
510.92	18244.01
511.126	18412.19
511.333	18606.32
511.54	18756.48
511.746	18738.46
511.953	18887.25
512.16	19130.8
512.367	18898.88
512.573	18740.01
512.78	18650.69
512.987	18617.17
513.193	18370.34
513.4	18216.31
513.606	18402.69
513.813	18403.86
514.02	18161.48
514.226	18225.61
514.433	18174.46
514.639	18115.95
514.846	18128.73
515.052	18174.07
515.259	18314.54
515.465	18350.96
515.672	18424.59
515.878	18481.35
516.085	18843.27
516.291	18625.31
516.497	18509.45
516.704	17893.72
516.91	17468.64
517.117	16737.05
517.323	16294.53
517.529	16317.39
517.736	16223.62
517.942	16544.46
518.148	16884.1
518.354	17022.83
518.561	16994.93
518.767	16818.81
518.973	16955.98
519.179	17371.96
519.386	17581.01
519.592	17548.07
519.798	17641.27
520.004	18444.93
520.21	18402.31
520.417	18588.69
520.623	18720.83
520.829	18668.32
521.035	18685.56
521.241	18622.4
521.447	18776.43
521.653	19122.08
521.859	18882.22
522.065	19048.84
522.271	19132.15
522.477	19130.21
522.683	19294.71
522.889	18872.34
523.095	18644.1
523.301	18696.03
523.507	18648.75
523.713	18848.12
523.919	18699.32
524.125	19252.27
524.331	19455.71
524.537	19712.81
524.742	19727.92
524.948	19704.48
525.154	19740.91
525.36	19629.5
525.566	19403.4
525.772	19649.84
525.977	19498.33
526.183	19287.73
526.389	19402.43
526.595	18668.71
526.8	18532.31
527.006	17965.41
527.212	17535.87
527.417	17514.56
527.623	17647.47
527.829	17925.11
528.034	18309.89
528.24	18413.93
528.446	18823.51
528.651	19223.02
528.857	19358.45
529.062	19535.73
529.268	19751.95
529.473	19934.26
529.679	20037.92
529.884	19958.29
530.09	19884.28
530.295	19525.85
530.501	19849.98
530.706	19864.71
530.912	20024.36
531.117	20028.04
531.323	19980.57
531.528	20334.74
531.733	20315.75
531.939	20132.47
532.144	20082.09
532.35	19972.43
532.555	19858.9
532.76	19347.99
532.966	19359.03
533.171	19149.39
533.376	18938.21
533.581	19017.84
533.787	19358.06
533.992	19601.79
534.197	19249.56
534.402	19781.79
534.607	19807.94
534.813	19709.32
535.018	19812.01
535.223	20047.61
535.428	20035.98
535.633	20237.87
535.838	20485.28
536.043	20713.13
536.249	20924.12
536.454	20422.12
536.659	20544.96
536.864	20530.62
537.069	20199.7
537.274	20070.47
537.479	20059.04
537.684	20064.08
537.889	20006.53
538.094	20388.21
538.299	20221.2
538.504	20572.66
538.708	20363.61
538.913	20688.14
539.118	20594.17
539.323	20359.93
539.528	20230.7
539.733	20124.33
539.938	20124.52
540.142	19957.9
540.347	19865.1
540.552	19758.92
540.757	19386.74
540.962	19738.19
541.166	19466.17
541.371	19450.48
541.576	19558.01
541.781	19687.24
541.985	20193.5
542.19	19798.25
542.395	20392.28
542.599	20324.28
542.804	20128.98
543.008	20274.87
543.213	20145.26
543.418	20041.21
543.622	20292.5
543.827	20039.47
544.031	20270.42
544.236	20482.76
544.44	20723.78
544.645	20684.45
544.849	20500.78
545.054	20735.41
545.258	20761.57
545.463	20790.05
545.667	20369.23
545.872	20739.67
546.076	20656.17
546.281	20621.87
546.485	20535.46
546.689	20598.43
546.894	20646.29
547.098	20818.72
547.302	20649.77
547.507	20634.85
547.711	20640.28
547.915	20516.86
548.119	20297.54
548.324	20310.13
548.528	20408.75
548.732	20496.52
548.936	20638.34
549.141	20639.7
549.345	20676.9
549.549	20802.25
549.753	20983.99
549.957	20825.31
550.161	20940.2
550.366	21012.47
550.57	20856.7
550.774	20893.7
550.978	20838.68
551.182	20775.52
551.386	20648.8
551.59	20643.38
551.794	20629.62
551.998	20851.27
552.202	20809.81
552.406	20779.39
552.61	21137.24
552.814	20934
553.018	20805.74
553.222	20550.19
553.426	20682.52
553.63	20923.93
553.833	20866
554.037	20606.96
554.241	20552.12
554.445	20928.19
554.649	20903
554.853	20675.35
555.056	20932.06
555.26	21109.15
555.464	20877.23
555.668	20945.82
555.871	20933.23
556.075	21004.14
556.279	20776.48
556.483	20661.79
556.686	20585.84
556.89	20626.52
557.094	20500.39
557.297	20151.07
557.501	20371.36
557.704	20019.9
557.908	20317.5
558.112	20275.26
558.315	20405.07
558.519	20171.02
558.722	20073.18
558.926	19991.81
559.129	19485.55
559.333	19873.43
559.536	19751.75
559.74	19558.01
559.943	19446.8
560.147	19556.65
560.35	19458.81
560.553	19969.72
560.757	19857.15
560.96	19926.32
561.164	20080.16
561.367	20200.47
561.57	20124.72
561.774	20025.33
561.977	19948.8
562.18	19828.09
562.384	19909.27
562.587	19815.3
562.79	20020.29
562.993	19861.8
563.197	19825.19
563.4	20067.76
563.603	20095.46
563.806	20119.29
564.009	19995.68
564.212	20002.08
564.416	19792.05
564.619	19807.36
564.822	19584.74
565.025	19831.77
565.228	19791.47
565.431	19813.95
565.634	19574.28
565.837	19529.72
566.04	19367.75
566.243	19173.03
566.446	19033.15
566.649	19433.82
566.852	19190.47
567.055	19329.19
567.258	19234.45
567.461	19521
567.664	19528.75
567.867	19564.79
568.07	19297.22
568.273	19489.03
568.475	19655.27
568.678	19039.15
568.881	19002.53
569.084	18763.26
569.287	18724.89
569.489	18882.41
569.692	18943.83
569.895	18938.21
570.098	18756.86
570.3	18745.24
570.503	18702.61
570.706	18649.91
570.909	18526.69
571.111	18265.13
571.314	18192.09
571.516	18216.11
571.719	18421.29
571.922	18318.03
572.124	18354.45
572.327	18606.52
572.529	18548
572.732	18713.46
572.935	18806.46
573.137	19101.15
573.34	18667.35
573.542	18965.53
573.745	18803.94
573.947	18957
574.15	18772.17
574.352	18638.29
574.554	18923.68
574.757	18729.74
574.959	18390.49
575.162	18771.01
575.364	18325.78
575.566	18524.17
575.769	18282.96
575.971	18307.37
576.173	17979.36
576.376	18209.91
576.578	18432.34
576.78	18368.79
576.982	18275.59
577.185	18418.97
577.387	18356
577.589	18587.53
577.791	18315.7
577.993	18431.76
578.196	18402.11
578.398	18167.87
578.6	18102.97
578.802	18112.85
579.004	17996.41
579.206	18141.13
579.408	18397.66
579.61	18113.04
579.812	18662.7
580.014	18248.28
580.216	18481.74
580.418	18668.13
580.62	18630.35
580.822	18674.71
581.024	18739.04
581.226	18818.28
581.428	18750.66
581.63	19092.43
581.832	18889.19
582.034	19086.04
582.236	19053.3
582.438	19310.21
582.64	19409.79
582.841	19374.92
583.043	19622.53
583.245	19266.81
583.447	19581.06
583.649	19525.65
583.85	19545.22
584.052	19509.96
584.254	19383.25
584.456	19444.28
584.657	19389.64
584.859	19610.32
585.061	19271.26
585.262	19368.14
585.464	19199.19
585.666	19283.66
585.867	18975.22
586.069	19059.3
586.27	18961.65
586.472	18959.14
586.674	18963.98
586.875	19028.88
587.077	19117.23
587.278	19136.41
587.48	18996.14
587.681	19253.44
587.883	19143
588.084	18784.18
588.285	18777.4
588.487	18312.79
588.688	18377.12
588.89	17748.99
589.091	17356.85
589.292	16930.8
589.494	16614.41
589.695	16331.92
589.896	16119.38
590.098	16232.92
590.299	16322.43
590.5	16651.41
590.702	16955.59
590.903	17119.7
591.104	17441.13
591.305	17745.89
591.507	17645.34
591.708	17731.75
591.909	17712.95
592.11	17529.67
592.311	17815.83
592.512	17534.12
592.714	17557.96
592.915	17802.85
593.116	17691.64
593.317	17947.58
593.518	18000.67
593.719	18036.51
593.92	18135.13
594.121	18021.2
594.322	17953.01
594.523	17773.79
594.724	17585.85
594.925	17662.38
595.126	17414.78
595.327	17502.93
595.528	17792.97
595.729	17671.1
595.929	17780.76
596.13	17814.28
596.331	18142.1
596.532	17944.67
596.733	18217.28
596.934	18236.07
597.135	18226.58
597.335	18105.48
597.536	18227.55
597.737	18097.73
597.938	18009
598.138	18026.24
598.339	18169.23
598.54	18089.79
598.74	17853.23
598.941	18024.89
599.142	18140.36
599.342	18171.94
599.543	18017.52
599.744	18263
599.944	18197.13
600.145	18334.49
