Data from calibration4_FLMT105791__2__17-36-36-048.txt Node

Date: Mon Mar 20 17:36:36 GMT 2023
User: antho
Spectrometer: FLMT10579
Trigger mode: 0
Integration Time (sec): 1.000000E-1
Scans to average: 10
Electric dark correction enabled: true
Nonlinearity correction enabled: false
Boxcar width: 0
XAxis mode: Wavelengths
Number of Pixels in Spectrum: 3648
>>>>>Begin Spectral Data<<<<<
345.248	-143.74
345.464	-143.74
345.681	-143.74
345.898	-138.51
346.114	-141.23
346.331	-14.71
346.548	3.89
346.764	7.96
346.981	1.37
347.197	-14.32
347.414	11.06
347.631	-40.28
347.847	67.44
348.064	5.44
348.28	11.06
348.497	-46.87
348.713	7.96
348.93	34.31
349.146	87.01
349.363	91.85
349.579	107.74
349.796	103.86
350.012	121.88
350.229	121.88
350.445	115.3
350.661	111.81
350.878	109.29
351.094	132.93
351.311	136.61
351.527	122.85
351.743	109.1
351.96	163.15
352.176	152.3
352.392	148.62
352.609	138.35
352.825	131.96
353.041	140.1
353.257	130.21
353.474	122.66
353.69	132.93
353.906	130.41
354.122	135.06
354.339	182.33
354.555	186.98
354.771	156.76
354.987	195.12
355.203	198.22
355.42	166.64
355.636	162.96
355.852	151.33
356.068	139.9
356.284	108.51
356.5	219.14
356.716	158.7
356.932	141.45
357.148	186.4
357.364	143
357.58	176.91
357.796	213.53
358.012	160.44
358.228	163.93
358.444	111.81
358.66	177.68
358.876	146.88
359.092	142.81
359.308	166.25
359.524	186.79
359.74	193.38
359.956	182.14
360.172	225.34
360.388	220.89
360.604	179.04
360.819	269.32
361.035	233.48
361.251	219.73
361.467	181.94
361.683	226.7
361.898	212.17
362.114	241.23
362.33	248.98
362.546	261.19
362.762	232.51
362.977	270.29
363.193	218.37
363.409	268.74
363.624	219.73
363.84	215.08
364.056	219.14
364.271	262.74
364.487	254.79
364.703	267
364.918	229.99
365.134	249.18
365.35	260.41
365.565	387.32
365.781	327.64
365.996	332.49
366.212	393.13
366.427	343.14
366.643	326.09
366.858	348.37
367.074	313.69
367.289	391.58
367.505	442.73
367.72	326.67
367.936	352.05
368.151	378.79
368.367	361.74
368.582	355.15
368.798	332.49
369.013	401.46
369.228	348.95
369.444	391.19
369.659	396.23
369.874	377.24
370.09	432.07
370.305	363.49
370.52	387.32
370.736	439.43
370.951	380.92
371.166	418.9
371.381	437.3
371.597	428
371.812	397.2
372.027	357.67
372.242	397
372.458	450.48
372.673	381.7
372.888	357.67
373.103	390.8
373.318	448.35
373.533	377.63
373.749	366.78
373.964	261.19
374.179	400.88
374.394	330.36
374.609	380.54
374.824	315.24
375.039	375.3
375.254	330.55
375.469	409.6
375.684	387.9
375.899	456.29
376.114	455.52
376.329	447.38
376.544	436.33
376.759	444.28
376.974	413.09
377.189	454.74
377.404	431.68
377.619	498.92
377.834	460.75
378.049	509.18
378.264	488.07
378.478	578.16
378.693	522.36
378.908	568.86
379.123	511.12
379.338	554.91
379.553	518.87
379.767	490.97
379.982	490.58
380.197	519.45
380.412	479.15
380.626	561.69
380.841	641.51
381.056	578.35
381.271	641.51
381.485	545.22
381.7	534.18
381.915	554.33
382.129	510.54
382.344	507.05
382.559	448.54
382.773	487.48
382.988	418.12
383.202	425.1
383.417	398.36
383.632	488.45
383.846	399.91
384.061	446.41
384.275	434.01
384.49	511.51
384.704	524.68
384.919	591.53
385.133	601.99
385.348	660.89
385.562	582.42
385.777	645.58
385.991	602.96
386.206	580.68
386.42	570.02
386.634	649.07
386.849	653.53
387.063	665.73
387.277	630.86
387.492	648.49
387.706	612.06
387.92	646.55
388.135	689.76
388.349	680.65
388.563	662.63
388.778	682.78
388.992	710.49
389.206	708.74
389.42	787.79
389.635	761.25
389.849	822.09
390.063	889.9
390.277	874.78
390.491	930.58
390.706	888.73
390.92	899.58
391.134	905.98
391.348	978.44
391.562	950.54
391.776	1013.31
391.99	1002.85
392.205	1002.85
392.419	923.22
392.633	918.57
392.847	845.34
393.061	736.64
393.275	734.51
393.489	589.78
393.703	532.05
393.917	560.33
394.131	543.28
394.345	680.84
394.559	786.82
394.773	850.76
394.986	979.21
395.2	1053.23
395.414	1123.75
395.628	1083.45
395.842	1176.26
396.056	1145.26
396.27	1043.73
396.484	1023
396.697	924.58
396.911	791.28
397.125	701.19
397.339	699.25
397.553	722.89
397.766	891.83
397.98	1050.51
398.194	1200.28
398.408	1286.11
398.621	1385.12
398.835	1408.17
399.049	1472.5
399.262	1541.66
399.476	1618
399.69	1606.18
399.903	1666.05
400.117	1621.87
400.331	1688.33
400.544	1655.59
400.758	1824.53
400.971	1715.26
401.185	1733.86
401.398	1706.74
401.612	1842.75
401.826	1888.08
402.039	1897
402.253	1893.12
402.466	1959.96
402.68	1948.14
402.893	1995.23
403.106	1949.69
403.32	1859.8
403.533	1899.71
403.747	1849.53
403.96	1925.86
404.174	2023.32
404.387	1962.68
404.6	1973.91
404.814	2002.2
405.027	1920.83
405.24	1939.04
405.454	1965.39
405.667	2047.73
405.88	1997.55
406.094	2047.15
406.307	2045.6
406.52	1977.01
406.733	1951.83
406.947	1935.16
407.16	2027.58
407.373	2067.3
407.586	2092.68
407.799	2051.99
408.012	2097.14
408.226	2098.88
408.439	2220.17
408.652	2201.18
408.865	2336.61
409.078	2398.61
409.291	2378.07
409.504	2337.19
409.717	2394.34
409.93	2341.26
410.143	2184.32
410.357	2067.88
410.57	2050.25
410.783	2054.12
410.996	2131.04
411.209	2285.46
411.421	2451.69
411.634	2519.51
411.847	2515.82
412.06	2517.57
412.273	2612.7
412.486	2565.23
412.699	2635.37
412.912	2587.7
413.125	2564.07
413.338	2542.56
413.55	2508.46
413.763	2556.12
413.976	2547.21
414.189	2578.6
414.402	2626.84
414.615	2718.29
414.827	2653
415.04	2641.76
415.253	2683.42
415.466	2729.14
415.678	2756.65
415.891	2738.44
416.104	2663.27
416.316	2730.5
416.529	2833.57
416.742	2943.42
416.954	2885.49
417.167	2865.73
417.38	2767.5
417.592	2761.5
417.805	2679.54
418.017	2732.43
418.23	2770.8
418.442	2723.91
418.655	2781.84
418.868	2749.68
419.08	2815.74
419.293	2890.92
419.505	2912.81
419.718	2880.84
419.93	2944.59
420.142	2836.67
420.355	2859.92
420.567	2838.03
420.78	2946.52
420.992	2926.18
421.205	3115.28
421.417	3076.33
421.629	3144.53
421.842	3134.85
422.054	3159.65
422.266	3157.32
422.479	3134.27
422.691	2962.99
422.903	3027.9
423.115	2902.93
423.328	2901.77
423.54	2967.64
423.752	2971.32
423.964	3097.07
424.177	3105.4
424.389	3082.53
424.601	3240.83
424.813	3221.06
425.025	3231.72
425.238	3229.01
425.45	3166.04
425.662	3153.06
425.874	3449.69
426.086	3167.01
426.298	3277.25
426.51	3245.86
426.722	3253.42
426.934	3273.57
427.146	3290.43
427.358	3190.06
427.57	3224.75
427.782	3118.18
427.994	3151.9
428.206	3151.31
428.418	3400.47
428.63	3449.1
428.842	3425.66
429.054	3292.94
429.266	3297.21
429.478	3189.68
429.69	3166.23
429.902	3085.44
430.114	3079.43
430.325	2874.45
430.537	2753.36
430.749	2645.63
430.961	2528.61
431.173	2607.85
431.384	2686.52
431.596	2783.2
431.808	3235.21
432.02	3574.07
432.231	3886.2
432.443	4003.8
432.655	3845.7
432.867	3767.43
433.078	3791.84
433.29	3920.69
433.502	3970.67
433.713	4056.11
433.925	4109.01
434.136	3944.32
434.348	3679.28
434.56	3665.91
434.771	3875.15
434.983	3761.04
435.194	4052.82
435.406	4181.28
435.617	4220.02
435.829	4319.22
436.04	4361.85
436.252	4317.09
436.463	4535.25
436.675	4685.79
436.886	4709.82
437.098	4762.52
437.309	4770.07
437.521	4626.51
437.732	4498.83
437.943	4462.21
438.155	4485.46
438.366	4369.79
438.578	4402.73
438.789	4267.11
439	4185.93
439.211	4255.67
439.423	4303.34
439.634	4498.83
439.845	4671.84
440.057	4681.72
440.268	4818.32
440.479	4753.22
440.69	4820.45
440.902	4693.16
441.113	4712.53
441.324	4831.3
441.535	5024.85
441.746	5184.5
441.957	5087.24
442.168	5244.75
442.38	5223.25
442.591	5280.6
442.802	5212.59
443.013	5388.51
443.224	5421.26
443.435	5354.22
443.646	5348.41
443.857	5270.91
444.068	5341.82
444.279	5286.02
444.49	5600.86
444.701	5465.04
444.912	5733.97
445.123	5660.54
445.334	5434.63
445.545	5599.31
445.756	5428.43
445.967	5341.24
446.178	5280.79
446.388	5245.14
446.599	5268.97
446.81	5410.41
447.021	5458.65
447.232	5569.09
447.443	5703.55
447.653	5768.84
447.864	5946.12
448.075	5957.55
448.286	5863
448.496	5828.71
448.707	5980.61
448.918	5798.1
449.129	5898.65
449.339	5890.32
449.55	6004.24
449.761	5940.69
449.971	5935.46
450.182	6080.77
450.393	6163.5
450.603	6148.78
450.814	6376.62
451.024	6359.96
451.235	6519.03
451.446	6558.55
451.656	6565.72
451.867	6419.06
452.077	6224.53
452.288	6398.91
452.498	6339.04
452.709	6255.53
452.919	6092.2
453.13	5966.27
453.34	5926.16
453.55	5744.04
453.761	6082.71
453.971	6056.94
454.182	6222.01
454.392	6226.47
454.602	6492.29
454.813	6476.4
455.023	6326.64
455.233	6189.66
455.444	6364.81
455.654	6150.33
455.864	6323.73
456.075	6428.36
456.285	6350.66
456.495	6503.72
456.705	6463.04
456.916	6678.68
457.126	6791.05
457.336	6730.02
457.546	6608.15
457.756	6719.95
457.967	6852.86
458.177	6645.74
458.387	6707.74
458.597	6509.73
458.807	6706.96
459.017	6547.51
459.227	6592.65
459.437	6563.98
459.647	6738.35
459.857	6681.58
460.068	6820.69
460.278	6835.42
460.488	6792.41
460.698	6893.54
460.908	6950.5
461.117	7098.33
461.327	7175.44
461.537	7316.49
461.747	7223.88
461.957	7190.75
462.167	7349.62
462.377	7282.78
462.587	7268.64
462.797	7460.45
463.007	7337.8
463.216	7549.38
463.426	7721.62
463.636	7547.44
463.846	7375.97
464.056	7354.66
464.265	7309.13
464.475	7329.28
464.685	7513.73
464.895	7450.57
465.104	7283.75
465.314	7596.84
465.524	7414.34
465.733	7439.72
465.943	7739.64
466.153	7818.69
466.362	7838.64
466.572	7786.14
466.782	7592
466.991	7757.27
467.201	7653.81
467.41	7550.73
467.62	7794.85
467.829	7826.82
468.039	7963.03
468.249	7898.32
468.458	8114.73
468.668	8050.6
468.877	8202.11
469.086	8223.23
469.296	8477.04
469.505	8587.67
469.715	8362.34
469.924	8379
470.134	8490.21
470.343	8259.27
470.552	8295.3
470.762	8259.27
470.971	8469.29
471.18	8499.71
471.39	8585.34
471.599	8486.14
471.808	8628.55
472.018	8962.96
472.227	9073.2
472.436	9422.14
472.645	9410.71
472.855	9320.81
473.064	9577.72
473.273	9659.87
473.482	9244.08
473.691	9496.34
473.901	9442.67
474.11	9282.83
474.319	9675.37
474.528	9527.73
474.737	10077.78
474.946	9925.3
475.155	9986.91
475.364	10208.95
475.573	10062.47
475.783	10279.66
475.992	10132.41
476.201	10191.7
476.41	10288.96
476.619	10124.67
476.828	10210.5
477.037	10123.31
477.245	10154.89
477.454	10396.88
477.663	10695.44
477.872	10988.2
478.081	11187.37
478.29	11035.86
478.499	11210.04
478.708	11452.41
478.917	11343.53
479.125	11130.99
479.334	11202.67
479.543	11542.7
479.752	11716.3
479.961	11665.34
480.169	11907.33
480.378	12002.08
480.587	12329.9
480.796	12183.81
481.004	12202.99
481.213	12348.3
481.422	12453.12
481.63	12762.34
481.839	12797.02
482.048	12926.44
482.256	12897.96
482.465	13291.27
482.674	13079.5
482.882	13140.15
483.091	13232.76
483.299	13077.95
483.508	13452.27
483.716	13593.32
483.925	13610.95
484.134	13255.04
484.342	13508.65
484.551	13512.72
484.759	13459.64
484.967	13975.97
485.176	13806.44
485.384	13860.89
485.593	13670.24
485.801	13478.04
486.01	12932.26
486.218	12388.8
486.426	11846.88
486.635	11595.21
486.843	11774.42
487.051	12219.85
487.26	12402.94
487.468	12783.85
487.676	13162.82
487.885	13592.16
488.093	13869.8
488.301	14324.33
488.509	14329.75
488.717	14616.69
488.926	14573.88
489.134	14386.33
489.342	14512.07
489.55	14362.11
489.758	14729.07
489.967	15124.89
490.175	15061.15
490.383	15629.8
490.591	15929.72
490.799	15753.6
491.007	15715.44
491.215	15748.37
491.423	15710.79
491.631	15577.87
491.839	15510.45
492.047	15420.75
492.255	15135.74
492.463	15128.57
492.671	14862.17
492.879	15421.33
493.087	15634.06
493.295	15770.85
493.503	15893.1
493.711	16368.17
493.919	16191.47
494.127	16195.54
494.334	16122.3
494.542	16309.85
494.75	16723.5
494.958	16504.76
495.166	16964.14
495.374	16990.1
495.581	17097.82
495.789	17098.21
495.997	17116.23
496.205	16533.63
496.412	16807.2
496.62	17141.03
496.828	17010.64
497.035	17166.6
497.243	17202.64
497.451	17284.21
497.658	17344.46
497.866	17229.57
498.074	17474.66
498.281	17034.08
498.489	17141.8
498.696	16797.71
498.904	16741.91
499.112	16845.76
499.319	17151.1
499.527	17296.22
499.734	17470.78
499.942	17327.61
500.149	17337.49
500.357	17247.39
500.564	17030.2
500.771	16978.09
500.979	16800.23
501.186	16597.18
501.394	17096.66
501.601	16500.89
501.808	16563.08
502.016	16658.79
502.223	16490.62
502.43	16758.96
502.638	16757.8
502.845	16977.7
503.052	17214.65
503.26	17217.56
503.467	17363.64
503.674	17379.92
503.881	17326.44
504.089	17135.21
504.296	17019.16
504.503	16934.11
504.71	16813.59
504.917	17171.25
505.125	17296.02
505.332	17439.01
505.539	17472.14
505.746	17975.69
505.953	18193.27
506.16	18189.2
506.367	18224.66
506.574	18527.68
506.781	18486.02
506.988	18333.35
507.195	18236.47
507.402	18197.14
507.609	18185.91
507.816	17875.72
508.023	17845.69
508.23	17808.29
508.437	17575.99
508.644	17702.51
508.851	17827.86
509.058	18300.02
509.265	18283.94
509.472	18520.89
509.679	18680.35
509.885	18567.59
510.092	18533.68
510.299	18493.96
510.506	18281.81
510.713	18335.29
510.92	18348.85
511.126	18471.49
511.333	18668.34
511.54	18749.52
511.746	18759.98
511.953	18917.3
512.16	19099.42
512.367	19015.53
512.573	18794.27
512.78	18710.38
512.987	18769.67
513.193	18437.2
513.4	18294.21
513.606	18441.46
513.813	18463.16
514.02	18163.24
514.226	18239.57
514.433	18328.89
514.639	18099.11
514.846	18189.78
515.052	18175.64
515.259	18335.09
515.465	18458.51
515.672	18510.05
515.878	18539.88
516.085	18814.03
516.291	18675.89
516.497	18600.33
516.704	17935.2
516.91	17513.8
517.117	16836.84
517.323	16368.17
517.529	16304.43
517.736	16309.46
517.942	16463.88
518.148	16941.66
518.354	16968.79
518.561	17073.8
518.767	16946.31
518.973	17047.64
519.179	17521.55
519.386	17596.33
519.592	17601.76
519.798	17724.4
520.004	18461.22
520.21	18503.26
520.417	18564.29
520.623	18737.12
520.829	18715.22
521.035	18708.25
521.241	18641.99
521.447	18811.32
521.653	19138.37
521.859	18859.76
522.065	19057.77
522.271	19236.79
522.477	19093.81
522.683	19357.11
522.889	18860.34
523.095	18732.27
523.301	18828.37
523.507	18676.67
523.713	18802.22
523.919	18810.35
524.125	19274.38
524.331	19533.81
524.537	19772.31
524.742	19827.14
524.948	19765.53
525.154	19799.43
525.36	19741.31
525.566	19497.38
525.772	19690.35
525.977	19504.94
526.183	19370.86
526.389	19502.61
526.595	18790.78
526.8	18526.9
527.006	18078.18
527.212	17630.82
527.417	17527.36
527.623	17712.78
527.829	17988.48
528.034	18396.7
528.24	18532.52
528.446	18881.26
528.651	19185.84
528.857	19354.2
529.062	19512.49
529.268	19901.93
529.473	19949.39
529.679	20125.7
529.884	20074.36
530.09	19948.62
530.295	19465.99
530.501	19821.91
530.706	19935.25
530.912	20033.67
531.117	20066.03
531.323	20093.54
531.528	20337.66
531.733	20485.88
531.939	20284.38
532.144	20077.27
532.35	19997.06
532.555	19958.89
532.76	19465.61
532.966	19292.59
533.171	19167.62
533.376	18924.28
533.581	19098.84
533.787	19376.29
533.992	19711.86
534.197	19285.42
534.402	19850.58
534.607	19801.37
534.813	19804.66
535.018	19820.55
535.223	20221.61
535.428	20050.92
535.633	20287.68
535.838	20566.09
536.043	20707.53
536.249	20819.9
536.454	20477.74
536.659	20572.1
536.864	20560.67
537.069	20289.23
537.274	20151.86
537.479	20067.97
537.684	20051.3
537.889	20105.17
538.094	20502.35
538.299	20240.6
538.504	20612.59
538.708	20349.87
538.913	20722.44
539.118	20665.1
539.323	20585.66
539.528	20219.28
539.733	20113.11
539.938	20188.67
540.142	19922.85
540.347	19860.66
540.552	19861.63
540.757	19484.98
540.962	19728.13
541.166	19518.69
541.371	19506.87
541.576	19702.37
541.781	19780.25
541.985	20268.11
542.19	19837.79
542.395	20420.01
542.599	20451.59
542.804	20113.88
543.008	20401.41
543.213	20418.46
543.418	20122.8
543.622	20412.26
543.827	20059.25
544.031	20449.45
544.236	20480.84
544.44	20825.71
544.645	20736.01
544.849	20643.98
545.054	20768.94
545.258	20796.46
545.463	20801.11
545.667	20527.15
545.872	20841.6
546.076	20651.73
546.281	20714.69
546.485	20563.77
546.689	20703.65
546.894	20636.03
547.098	20845.09
547.302	20706.36
547.507	20674.78
547.711	20734.26
547.915	20529.47
548.119	20389.2
548.324	20466.31
548.528	20535.28
548.732	20486.07
548.936	20778.24
549.141	20732.71
549.345	20734.46
549.549	20714.11
549.753	20947.58
549.957	20868.72
550.161	21026.24
550.366	20961.34
550.57	20836.17
550.774	20773.21
550.978	20936.34
551.182	20792.97
551.386	20689.51
551.59	20771.66
551.794	20734.07
551.998	20923.55
552.202	20918.13
552.406	20881.9
552.61	21098.7
552.814	20992.72
553.018	20833.66
553.222	20654.25
553.426	20726.32
553.63	20921.42
553.833	20841.41
554.037	20687.76
554.241	20617.63
554.445	21004.73
554.649	20911.35
554.853	20709.08
555.056	21067.7
555.26	21056.08
555.464	20926.46
555.668	20927.62
555.871	20930.14
556.075	21043.29
556.279	20932.08
556.483	20735.62
556.686	20688.73
556.89	20625.38
557.094	20571.32
557.297	20203.78
557.501	20316.93
557.704	20158.64
557.908	20238.66
558.112	20351.03
558.315	20467.86
558.519	20350.26
558.722	20067.97
558.926	20161.55
559.129	19490.21
559.333	19844.77
559.536	19788.78
559.74	19564.81
559.943	19408.06
560.147	19673.69
560.35	19618.86
560.553	19918.97
560.757	19905.41
560.96	20017.59
561.164	20095.48
561.367	20253.38
561.57	20314.8
561.774	20001.51
561.977	19906.38
562.18	19918.01
562.384	20022.63
562.587	19909.87
562.79	20088.5
562.993	19893.59
563.197	19860.46
563.4	20120.47
563.603	20108.85
563.806	20045.1
564.009	20172.2
564.212	20085.21
564.416	19859.49
564.619	19810.28
564.822	19681.05
565.025	19889.14
565.228	19848.64
565.431	20057.5
565.634	19705.08
565.837	19560.35
566.04	19471.23
566.243	19217.61
566.446	19083.15
566.649	19426.28
566.852	19226.52
567.055	19506.87
567.258	19376.29
567.461	19562.67
567.664	19657.42
567.867	19626.42
568.07	19447.01
568.273	19502.42
568.475	19748.48
568.678	19081.79
568.881	19081.02
569.084	18891.53
569.287	18718.32
569.489	18902.19
569.692	19040.72
569.895	19062.22
570.098	18844.26
570.3	18824.88
570.503	18695.07
570.706	18696.24
570.909	18515.08
571.111	18169.24
571.314	18265.73
571.516	18331.02
571.719	18422.67
571.922	18333.74
572.124	18513.92
572.327	18616.22
572.529	18680.93
572.732	18752.42
572.935	18782.26
573.137	19132.36
573.34	18773.15
573.542	19007.98
573.745	18923.7
573.947	18976.98
574.15	18766.76
574.352	18864.99
574.554	18994.8
574.757	18778.39
574.959	18524.38
575.162	18748.94
575.364	18446.5
575.566	18598.98
575.769	18309.13
575.971	18443.2
576.173	18020.83
576.376	18280.26
576.578	18465.68
576.78	18401.16
576.982	18299.05
577.185	18405.42
577.387	18341.87
577.589	18591.23
577.791	18398.45
577.993	18441.46
578.196	18482.15
578.398	18205.67
578.6	18088.84
578.802	18092.71
579.004	18017.73
579.206	18156.07
579.408	18405.23
579.61	18194.24
579.812	18594.52
580.014	18346.13
580.216	18394.38
580.418	18712.7
580.62	18683.84
580.822	18678.61
581.024	18697.4
581.226	18768.89
581.428	18988.6
581.63	19214.51
581.832	19008.56
582.034	19208.12
582.236	19072.11
582.438	19289.49
582.64	19434.61
582.841	19447.01
583.043	19698.68
583.245	19340.25
583.447	19506.49
583.649	19550.08
583.85	19465.61
584.052	19559.77
584.254	19507.84
584.456	19511.33
584.657	19522.96
584.859	19777.73
585.061	19416.01
585.262	19459.41
585.464	19240.86
585.666	19310.61
585.867	19015.92
586.069	19091.29
586.27	19037.81
586.472	19011.46
586.674	19087.8
586.875	19078.69
587.077	19114.54
587.278	19096.32
587.48	19141.85
587.681	19264.11
587.883	19235.43
588.084	18935.51
588.285	18864.22
588.487	18404.26
588.688	18400.19
588.89	17701.54
589.091	17268.71
589.292	16946.89
589.494	16600.28
589.695	16457.68
589.896	16110.68
590.098	16289.12
590.299	16497.01
590.5	16658.02
590.702	17032.72
590.903	17216.2
591.104	17491.9
591.305	17749.78
591.507	17635.28
591.708	17701.54
591.909	17685.65
592.11	17653.49
592.311	17808.1
592.512	17478.92
592.714	17594.59
592.915	17850.72
593.116	17789.69
593.317	18114.41
593.518	17971.43
593.719	18140.76
593.92	18128.94
594.121	18087.09
594.322	18008.43
594.523	17805
594.724	17682.74
594.925	17774.97
595.126	17500.43
595.327	17570.18
595.528	17724.79
595.729	17740.09
595.929	17789.31
596.13	17873.2
596.331	18137.28
596.532	18059.97
596.733	18367.25
596.934	18174.47
597.135	18344
597.335	18121.19
597.536	18260.69
597.737	18127.2
597.938	18020.25
598.138	18089.03
598.339	18276.39
598.54	18179.12
598.74	17928.03
598.941	18025.48
599.142	18237.25
599.342	18236.47
599.543	18035.17
599.744	18281.42
599.944	18305.45
600.145	18393.8
