Data from oakcork_FLMT105791__295__17-34-41-052.txt Node

Date: Mon Mar 20 17:34:41 GMT 2023
User: antho
Spectrometer: FLMT10579
Trigger mode: 0
Integration Time (sec): 1.000000E-1
Scans to average: 10
Electric dark correction enabled: true
Nonlinearity correction enabled: false
Boxcar width: 0
XAxis mode: Wavelengths
Number of Pixels in Spectrum: 3648
>>>>>Begin Spectral Data<<<<<
345.248	-156.79
345.464	-156.79
345.681	-156.79
345.898	-166.28
346.114	-151.95
346.331	-34.73
346.548	14.1
346.764	-3.54
346.981	-31.63
347.197	-11.67
347.414	21.07
347.631	-20.78
347.847	59.24
348.064	0.92
348.28	1.7
348.497	-26.2
348.713	31.53
348.93	31.73
349.146	49.16
349.363	12.93
349.579	23.59
349.796	3.63
350.012	-16.13
350.229	16.61
350.445	29.59
350.661	-10.9
350.878	8.28
351.094	-4.12
351.311	10.8
351.527	27.27
351.743	0.53
351.96	26.3
352.176	32.5
352.392	35.79
352.609	26.11
352.825	17.58
353.041	22.62
353.257	-1.21
353.474	5.57
353.69	29.79
353.906	3.83
354.122	-26.98
354.339	54.78
354.555	1.5
354.771	2.86
354.987	63.69
355.203	72.22
355.42	-14.77
355.636	-7.8
355.852	-14.19
356.068	27.66
356.284	-17.68
356.5	52.07
356.716	21.07
356.932	11.19
357.148	9.45
357.364	11.96
357.58	66.6
357.796	39.67
358.012	25.53
358.228	12.16
358.444	-24.07
358.66	32.69
358.876	33.86
359.092	-22.91
359.308	16.03
359.524	17.2
359.74	-1.02
359.956	-3.15
360.172	26.3
360.388	32.5
360.604	-3.73
360.819	82.88
361.035	23.98
361.251	29.59
361.467	-39.77
361.683	42.19
361.898	8.28
362.114	37.15
362.33	-0.24
362.546	34.63
362.762	21.84
362.977	14.68
363.193	-23.69
363.409	48.39
363.624	-11.87
363.84	2.47
364.056	-1.79
364.271	36.96
364.487	42.58
364.703	9.25
364.918	-20.97
365.134	-5.86
365.35	8.86
365.565	77.26
365.781	1.31
365.996	16.42
366.212	61.56
366.427	29.21
366.643	-14.97
366.858	17
367.074	-26.01
367.289	52.07
367.505	107.29
367.72	-34.92
367.936	-23.69
368.151	36.38
368.367	10.03
368.582	32.89
368.798	21.26
369.013	49.36
369.228	16.23
369.444	15.45
369.659	45.68
369.874	25.72
370.09	69.51
370.305	-12.84
370.52	-17.87
370.736	44.51
370.951	0.34
371.166	45.09
371.381	70.67
371.597	49.36
371.812	5.76
372.027	-11.87
372.242	26.49
372.458	86.56
372.673	11.96
372.888	10.61
373.103	35.02
373.318	80.36
373.533	59.43
373.749	37.93
373.964	-36.28
374.179	60.21
374.394	-20.97
374.609	45.29
374.824	-4.7
375.039	40.83
375.254	14.29
375.469	72.03
375.684	19.91
375.899	40.25
376.114	0.73
376.329	30.18
376.544	33.28
376.759	52.07
376.974	7.51
377.189	-0.82
377.404	-0.05
377.619	48.97
377.834	-30.47
378.049	-39.57
378.264	-5.28
378.478	35.21
378.693	-10.32
378.908	31.92
379.123	14.87
379.338	23.98
379.553	27.46
379.767	6.54
379.982	14.48
380.197	22.23
380.412	12.16
380.626	36.96
380.841	60.59
381.056	36.76
381.271	78.42
381.485	15.06
381.7	-15.94
381.915	11.77
382.129	16.61
382.344	19.52
382.559	13.13
382.773	50.52
382.988	-13.03
383.202	25.14
383.417	6.93
383.632	104.38
383.846	13.13
384.061	14.29
384.275	21.65
384.49	72.41
384.704	29.4
384.919	22.43
385.133	26.69
385.348	62.92
385.562	-17.68
385.777	58.85
385.991	17.97
386.206	-3.15
386.42	-0.63
386.634	52.84
386.849	31.53
387.063	17.39
387.277	-2.37
387.492	4.21
387.706	-3.73
387.92	-15.35
388.135	36.38
388.349	29.59
388.563	27.66
388.778	5.96
388.992	44.51
389.206	28.43
389.42	97.41
389.635	1.7
389.849	45.87
390.063	60.01
390.277	53.04
390.491	67.18
390.706	47.42
390.92	55.36
391.134	41.41
391.348	72.22
391.562	-26.4
391.776	23.2
391.99	3.05
392.205	59.63
392.419	1.5
392.633	1.89
392.847	65.63
393.061	2.86
393.275	71.06
393.489	53.04
393.703	41.03
393.917	80.36
394.131	16.03
394.345	53.81
394.559	56.72
394.773	28.24
394.986	20.88
395.2	26.49
395.414	43.74
395.628	0.92
395.842	38.7
396.056	8.28
396.27	-35.89
396.484	32.31
396.697	35.99
396.911	69.12
397.125	59.43
397.339	54.78
397.553	39.09
397.766	82.88
397.98	58.08
398.194	51.88
398.408	25.91
398.621	38.51
398.835	23.98
399.049	50.91
399.262	78.42
399.476	69.31
399.69	48.19
399.903	94.31
400.117	40.83
400.331	64.66
400.544	6.93
400.758	141.39
400.971	44.71
401.185	64.28
401.398	6.15
401.612	50.91
401.826	50.91
402.039	57.69
402.253	5.38
402.466	60.4
402.68	43.35
402.893	54.78
403.106	45.48
403.32	39.86
403.533	48.19
403.747	35.21
403.96	42.77
404.174	48.19
404.387	10.22
404.6	32.31
404.814	81.33
405.027	72.41
405.24	34.83
405.454	41.03
405.667	73.96
405.88	-8.77
406.094	16.42
406.307	79.58
406.52	60.01
406.733	1.31
406.947	-6.64
407.16	101.86
407.373	68.73
407.586	32.5
407.799	30.95
408.012	80.36
408.226	36.57
408.439	80.55
408.652	-3.92
408.865	62.92
409.078	78.61
409.291	61.37
409.504	-3.54
409.717	82.1
409.93	42.96
410.143	39.67
410.357	-40.54
410.57	12.74
410.783	28.24
410.996	45.68
411.209	43.35
411.421	88.11
411.634	48.78
411.847	31.14
412.06	78.03
412.273	32.31
412.486	62.53
412.699	141.97
412.912	42.96
413.125	47.42
413.338	59.24
413.55	80.36
413.763	51.29
413.976	58.85
414.189	46.06
414.402	34.63
414.615	79
414.827	44.13
415.04	81.71
415.253	64.47
415.466	76.29
415.678	101.09
415.891	60.21
416.104	35.6
416.316	49.36
416.529	36.76
416.742	74.93
416.954	89.08
417.167	52.84
417.38	33.08
417.592	91.4
417.805	41.22
418.017	9.64
418.23	70.09
418.442	41.99
418.655	67.57
418.868	45.29
419.08	80.74
419.293	89.27
419.505	53.23
419.718	58.85
419.93	103.03
420.142	63.31
420.355	120.27
420.567	121.04
420.78	92.76
420.992	73.58
421.205	99.15
421.417	27.08
421.629	41.8
421.842	33.28
422.054	23.78
422.266	103.99
422.479	108.26
422.691	26.3
422.903	112.13
423.115	18.36
423.328	39.48
423.54	66.41
423.752	76.09
423.964	23.78
424.177	60.4
424.389	56.14
424.601	133.64
424.813	47.42
425.025	84.43
425.238	82.88
425.45	54.39
425.662	61.18
425.874	340.95
426.086	57.69
426.298	57.88
426.51	72.22
426.722	65.05
426.934	41.41
427.146	84.81
427.358	12.35
427.57	97.79
427.782	43.93
427.994	62.92
428.206	46.64
428.418	31.92
428.63	63.89
428.842	89.46
429.054	81.33
429.266	75.9
429.478	44.9
429.69	64.86
429.902	26.49
430.114	86.17
430.325	91.21
430.537	44.71
430.749	51.49
430.961	47.23
431.173	61.95
431.384	57.11
431.596	3.05
431.808	39.09
432.02	74.54
432.231	87.14
432.443	76.68
432.655	82.88
432.867	39.67
433.078	81.91
433.29	139.45
433.502	96.44
433.713	75.51
433.925	80.36
434.136	90.43
434.348	34.83
434.56	6.15
434.771	155.72
434.983	16.03
435.194	33.08
435.406	55.75
435.617	80.16
435.829	122.79
436.04	78.23
436.252	93.53
436.463	107.09
436.675	74.16
436.886	54.39
437.098	92.76
437.309	103.8
437.521	72.03
437.732	66.21
437.943	87.33
438.155	73.58
438.366	25.14
438.578	116.97
438.789	68.15
439	68.34
439.211	81.33
439.423	96.83
439.634	99.15
439.845	108.06
440.057	78.03
440.268	113.1
440.479	52.65
440.69	83.07
440.902	57.3
441.113	72.41
441.324	54.2
441.535	93.92
441.746	142.74
441.957	42.96
442.168	58.46
442.38	111.94
442.591	104.19
442.802	65.63
443.013	53.62
443.224	96.44
443.435	64.86
443.646	87.53
443.857	86.94
444.068	65.24
444.279	70.09
444.49	134.99
444.701	104.19
444.912	157.08
445.123	95.08
445.334	93.53
445.545	83.07
445.756	74.93
445.967	42.58
446.178	83.65
446.388	128.6
446.599	127.24
446.81	117.36
447.021	63.11
447.232	124.92
447.443	114.65
447.653	87.14
447.864	128.41
448.075	84.23
448.286	108.06
448.496	105.35
448.707	116.78
448.918	70.28
449.129	179.56
449.339	71.64
449.55	109.22
449.761	83.07
449.971	135.19
450.182	75.71
450.393	125.31
450.603	71.64
450.814	130.92
451.024	97.21
451.235	139.84
451.446	126.86
451.656	129.57
451.867	82.68
452.077	105.16
452.288	172.58
452.498	146.23
452.709	107.29
452.919	117.94
453.13	94.11
453.34	150.49
453.55	71.64
453.761	125.5
453.971	120.85
454.182	136.74
454.392	126.47
454.602	154.37
454.813	99.15
455.023	141.58
455.233	71.44
455.444	131.7
455.654	45.29
455.864	98.96
456.075	96.83
456.285	85.98
456.495	77.45
456.705	105.93
456.916	128.79
457.126	158.24
457.336	113.87
457.546	65.63
457.756	85.59
457.967	137.12
458.177	91.01
458.387	117.94
458.597	104.96
458.807	103.61
459.017	113.87
459.227	90.63
459.437	111.36
459.647	124.53
459.857	141.19
460.068	73.77
460.278	154.95
460.488	136.93
460.698	143.91
460.908	111.36
461.117	70.48
461.327	81.33
461.537	99.93
461.747	101.48
461.957	88.69
462.167	212.49
462.377	148.75
462.587	111.74
462.797	152.62
463.007	122.4
463.216	159.79
463.426	167.74
463.636	151.07
463.846	60.98
464.056	103.22
464.265	135.96
464.475	102.64
464.685	116.39
464.895	135.96
465.104	88.11
465.314	150.49
465.524	137.9
465.733	123.95
465.943	173.94
466.153	166.19
466.362	164.06
466.572	131.51
466.782	119.3
466.991	111.36
467.201	171.61
467.41	86.75
467.62	155.53
467.829	103.22
468.039	149.33
468.249	117.94
468.458	110.58
468.668	132.86
468.877	116.78
469.086	173.16
469.296	172.58
469.505	98.57
469.715	187.5
469.924	145.46
470.134	175.29
470.343	175.87
470.552	126.66
470.762	128.02
470.971	114.65
471.18	118.91
471.39	130.73
471.599	76.48
471.808	168.12
472.018	114.84
472.227	162.51
472.436	143.32
472.645	122.01
472.855	101.67
473.064	170.26
473.273	123.56
473.482	127.63
473.691	166.19
473.901	154.95
474.11	141.58
474.319	206.68
474.528	178.78
474.737	168.32
474.946	153.59
475.155	141
475.364	159.02
475.573	157.47
475.783	146.23
475.992	177.23
476.201	198.35
476.41	145.84
476.619	125.31
476.828	166.77
477.037	130.34
477.245	136.35
477.454	172.97
477.663	160.76
477.872	150.11
478.081	187.31
478.29	139.84
478.499	221.02
478.708	155.53
478.917	231.29
479.125	170.45
479.334	160.18
479.543	164.83
479.752	186.72
479.961	194.67
480.169	190.41
480.378	149.52
480.587	269.84
480.796	187.5
481.004	159.02
481.213	214.43
481.422	175.49
481.63	175.29
481.839	155.72
482.048	232.64
482.256	189.44
482.465	170.84
482.674	178.78
482.882	210.17
483.091	264.42
483.299	174.13
483.508	230.7
483.716	177.04
483.925	188.47
484.134	161.54
484.342	172.19
484.551	209.78
484.759	203.19
484.967	226.44
485.176	253.57
485.384	220.05
485.593	225.86
485.801	189.24
486.01	199.32
486.218	191.96
486.426	161.92
486.635	187.5
486.843	195.64
487.051	195.83
487.26	157.47
487.468	234
487.676	217.72
487.885	177.62
488.093	195.06
488.301	194.86
488.509	205.52
488.717	244.07
488.926	204.55
489.134	199.32
489.342	205.71
489.55	187.31
489.758	193.12
489.967	195.25
490.175	271.59
490.383	181.11
490.591	254.92
490.799	171.22
491.007	247.17
491.215	219.27
491.423	215.79
491.631	205.71
491.839	209.59
492.047	278.37
492.255	201.06
492.463	143.91
492.671	218.11
492.879	258.99
493.087	223.34
493.295	221.6
493.503	236.13
493.711	243.49
493.919	257.05
494.127	259.19
494.334	269.07
494.542	180.33
494.75	208.04
494.958	229.15
495.166	262.87
495.374	252.4
495.581	237.49
495.789	224.89
495.997	264.42
496.205	249.69
496.412	234.19
496.62	251.05
496.828	253.57
497.035	224.31
497.243	230.12
497.451	242.14
497.658	227.6
497.866	263.25
498.074	278.75
498.281	219.47
498.489	307.23
498.696	263.06
498.904	236.52
499.112	240.78
499.319	302.78
499.527	224.5
499.734	274.49
499.942	198.35
500.149	219.27
500.357	238.07
500.564	240.39
500.771	254.15
500.979	224.89
501.186	235.16
501.394	271
501.601	235.16
501.808	276.43
502.016	278.17
502.223	242.91
502.43	224.31
502.638	243.3
502.845	234.19
503.052	325.06
503.26	254.92
503.467	295.03
503.674	240.97
503.881	273.91
504.089	315.57
504.296	298.9
504.503	212.3
504.71	258.8
504.917	217.53
505.125	251.05
505.332	241.94
505.539	272.17
505.746	311.11
505.953	291.35
506.16	278.95
506.367	294.06
506.574	289.02
506.781	320.6
506.988	267.71
507.195	274.88
507.402	260.35
507.609	293.48
507.816	245.43
508.023	264.8
508.23	253.95
508.437	236.52
508.644	296.19
508.851	353.35
509.058	311.69
509.265	270.81
509.472	289.6
509.679	360.9
509.885	239.81
510.092	272.17
510.299	291.15
510.506	294.83
510.713	305.68
510.92	290.77
511.126	300.45
511.333	317.7
511.54	282.24
511.746	325.06
511.953	342.11
512.16	326.22
512.367	296.58
512.573	265
512.78	309.75
512.987	300.84
513.193	309.75
513.4	240.59
513.606	264.8
513.813	302.58
514.02	309.56
514.226	385.7
514.433	333.78
514.639	270.62
514.846	308.2
515.052	264.42
515.259	300.65
515.465	305.1
515.672	320.41
515.878	383.38
516.085	291.15
516.291	321.96
516.497	277.2
516.704	323.12
516.91	279.72
517.117	272.17
517.323	269.26
517.529	298.52
517.736	271.2
517.942	313.43
518.148	270.62
518.354	323.51
518.561	322.15
518.767	295.03
518.973	343.66
519.179	319.25
519.386	279.92
519.592	296.97
519.798	283.21
520.004	327.58
520.21	308.4
520.417	341.72
520.623	343.85
520.829	343.47
521.035	311.69
521.241	345.6
521.447	327.58
521.653	428.71
521.859	328.74
522.065	359.16
522.271	433.95
522.477	356.25
522.683	386.09
522.889	372.91
523.095	358
523.301	353.93
523.507	334.55
523.713	367.3
523.919	339.2
524.125	359.93
524.331	360.52
524.537	400.04
524.742	368.07
524.948	387.64
525.154	400.04
525.36	454.1
525.566	382.02
525.772	432.4
525.977	320.22
526.183	395.39
526.389	407.21
526.595	360.71
526.8	368.46
527.006	347.73
527.212	356.83
527.417	323.9
527.623	316.15
527.829	382.99
528.034	369.43
528.24	390.74
528.446	337.27
528.651	434.72
528.857	404.11
529.062	456.61
529.268	399.65
529.473	386.48
529.679	366.33
529.884	440.73
530.09	402.17
530.295	461.84
530.501	436.27
530.706	404.5
530.912	372.91
531.117	395.97
531.323	416.12
531.528	425.03
531.733	431.81
531.939	392.29
532.144	440.15
532.35	416.51
532.555	440.53
532.76	422.32
532.966	453.51
533.171	452.16
533.376	394.81
533.581	413.99
533.787	455.26
533.992	436.27
534.197	477.93
534.402	436.08
534.607	425.03
534.813	494.78
535.018	425.81
535.223	392.68
535.428	459.91
535.633	464.75
535.838	456.23
536.043	428.52
536.249	508.34
536.454	449.83
536.659	458.16
536.864	429.3
537.069	425.03
537.274	462.43
537.479	464.17
537.684	465.91
537.889	418.25
538.094	514.74
538.299	436.85
538.504	462.43
538.708	482.19
538.913	481.22
539.118	441.11
539.323	467.27
539.528	464.17
539.733	441.31
539.938	453.9
540.142	491.68
540.347	453.51
540.552	437.24
540.757	472.69
540.962	473.08
541.166	427.75
541.371	416.31
541.576	462.43
541.781	346.95
541.985	446.54
542.19	448.67
542.395	481.8
542.599	511.06
542.804	509.7
543.008	473.28
543.213	444.21
543.418	424.26
543.622	474.83
543.827	435.11
544.031	502.73
544.236	490.13
544.44	470.37
544.645	553.87
544.849	461.84
545.054	483.35
545.258	534.11
545.463	511.44
545.667	455.26
545.872	495.17
546.076	505.24
546.281	465.72
546.485	456.61
546.689	492.07
546.894	533.73
547.098	479.67
547.302	435.88
547.507	470.18
547.711	464.17
547.915	529.27
548.119	456.61
548.324	475.41
548.528	564.92
548.732	480.44
548.936	505.05
549.141	517.06
549.345	455.06
549.549	486.26
549.753	464.75
549.957	557.75
550.161	526.56
550.366	492.07
550.57	443.44
550.774	512.41
550.978	487.42
551.182	533.34
551.386	485.48
551.59	498.27
551.794	491.49
551.998	493.43
552.202	466.69
552.406	468.24
552.61	479.86
552.814	504.28
553.018	539.15
553.222	506.02
553.426	488.58
553.63	584.29
553.833	468.04
554.037	438.6
554.241	498.85
554.445	478.31
554.649	477.54
554.853	466.49
555.056	498.85
555.26	537.79
555.464	513.96
555.668	491.1
555.871	506.41
556.075	503.5
556.279	466.69
556.483	447.51
556.686	497.49
556.89	473.66
557.094	510.48
557.297	465.91
557.501	478.31
557.704	461.07
557.908	518.03
558.112	463.78
558.315	532.56
558.519	481.8
558.722	490.52
558.926	487.03
559.129	472.31
559.333	416.12
559.536	443.05
559.74	456.81
559.943	447.51
560.147	434.91
560.35	454.29
560.553	455.45
560.757	406.24
560.96	492.26
561.164	430.85
561.367	494.2
561.57	436.27
561.774	462.23
561.977	444.99
562.18	453.71
562.384	551.74
562.587	464.56
562.79	439.37
562.993	475.79
563.197	470.95
563.4	517.26
563.603	475.02
563.806	525.59
564.009	435.5
564.212	469.01
564.416	431.04
564.619	486.84
564.822	425.03
565.025	509.51
565.228	445.76
565.431	441.5
565.634	387.06
565.837	433.75
566.04	429.3
566.243	419.8
566.446	384.93
566.649	453.9
566.852	406.63
567.055	411.86
567.258	432.2
567.461	487.61
567.664	493.23
567.867	363.62
568.07	433.75
568.273	429.88
568.475	499.24
568.678	425.03
568.881	432.59
569.084	460.29
569.287	363.81
569.489	377.76
569.692	422.9
569.895	416.12
570.098	386.48
570.3	351.99
570.503	317.7
570.706	384.35
570.909	374.08
571.111	354.51
571.314	321.77
571.516	373.88
571.719	398.49
571.922	373.3
572.124	367.49
572.327	409.73
572.529	314.79
572.732	342.5
572.935	385.7
573.137	411.47
573.34	359.35
573.542	389.77
573.745	407.4
573.947	391.71
574.15	352.57
574.352	341.14
574.554	432.01
574.757	363.23
574.959	371.75
575.162	335.91
575.364	345.4
575.566	438.79
575.769	328.55
575.971	348.31
576.173	300.65
576.376	365.94
576.578	383.96
576.78	420.96
576.982	320.6
577.185	347.15
577.387	324.48
577.589	308.01
577.791	365.75
577.993	360.32
578.196	321.96
578.398	364.2
578.6	415.15
578.802	317.89
579.004	336.49
579.206	330.48
579.408	358.58
579.61	345.02
579.812	355.09
580.014	302.78
580.216	308.59
580.418	315.76
580.62	308.78
580.822	288.63
581.024	336.1
581.226	345.6
581.428	310.14
581.63	403.14
581.832	311.3
582.034	378.53
582.236	345.02
582.438	365.36
582.64	391.13
582.841	396.94
583.043	428.13
583.245	364.2
583.447	368.85
583.649	340.95
583.85	356.64
584.052	385.31
584.254	316.15
584.456	379.11
584.657	296.97
584.859	370.4
585.061	327.77
585.262	288.25
585.464	335.13
585.666	362.45
585.867	325.06
586.069	394.23
586.27	349.47
586.472	371.17
586.674	322.15
586.875	353.73
587.077	274.3
587.278	355.48
587.48	304.33
587.681	426.97
587.883	347.15
588.084	273.33
588.285	335.52
588.487	328.93
588.688	321.38
588.89	310.92
589.091	288.83
589.292	335.72
589.494	309.56
589.695	316.53
589.896	266.35
590.098	280.89
590.299	298.52
590.5	254.15
590.702	264.22
590.903	296.97
591.104	352.77
591.305	318.28
591.507	347.34
591.708	319.44
591.909	311.5
592.11	360.13
592.311	340.56
592.512	301.23
592.714	272.55
592.915	281.08
593.116	295.8
593.317	291.35
593.518	287.86
593.719	271
593.92	321.18
594.121	356.45
594.322	315.18
594.523	327.19
594.724	270.81
594.925	303.75
595.126	322.15
595.327	326.03
595.528	305.68
595.729	328.93
595.929	296.58
596.13	299.68
596.331	288.63
596.532	305.49
596.733	368.07
596.934	329.32
597.135	336.88
597.335	296.38
597.536	290.38
597.737	323.9
597.938	277.79
598.138	337.65
598.339	289.99
598.54	312.08
598.74	316.73
598.941	334.75
599.142	344.24
599.342	310.33
599.543	287.67
599.744	314.6
599.944	310.53
600.145	306.46
600.345	306.27
600.546	364.2
600.746	327.19
600.947	382.21
601.147	343.27
601.348	339.98
601.548	271.39
601.749	327.97
601.949	274.3
602.15	283.21
602.35	307.04
602.551	346.95
602.751	276.24
602.951	299.1
603.152	244.65
603.352	325.06
603.552	295.42
603.753	325.83
603.953	310.72
604.153	299.1
604.354	270.81
604.554	288.63
604.754	288.63
604.954	244.46
605.155	335.91
605.355	288.83
605.555	356.25
605.755	350.83
605.955	297.74
606.155	351.8
606.356	316.15
606.556	321.57
606.756	276.43
606.956	258.41
607.156	374.08
607.356	272.36
607.556	310.14
607.756	299.29
607.956	334.36
608.156	312.66
608.356	274.88
608.556	340.95
608.756	281.08
608.956	290.38
609.156	271.78
609.356	275.65
609.556	286.89
609.755	297.16
609.955	269.65
610.155	305.3
610.355	305.49
610.555	256.47
610.755	294.06
610.954	256.86
611.154	310.72
611.354	315.57
611.554	274.3
611.753	275.07
611.953	258.8
612.153	332.23
612.352	314.4
612.552	239.42
612.752	226.44
612.951	246.59
613.151	277.4
613.351	262.09
613.55	285.92
613.75	315.95
613.949	275.27
614.149	307.62
614.348	280.89
614.548	278.17
614.747	202.22
614.947	251.63
615.146	186.14
615.346	301.81
615.545	275.65
615.745	280.5
615.944	301.23
616.144	285.34
616.343	323.12
616.542	248.72
616.742	271.97
616.941	284.57
617.14	231.09
617.34	283.02
617.539	284.57
617.738	241.94
617.938	316.92
618.137	262.29
618.336	240
618.535	281.85
618.734	251.82
618.934	283.21
619.133	255.12
619.332	282.05
619.531	251.44
619.73	268.68
619.929	282.63
620.128	306.07
620.328	297.16
620.527	253.18
620.726	267.9
620.925	259.57
621.124	239.42
621.323	285.15
621.522	216.17
621.721	246.01
621.92	208.23
622.119	283.02
622.318	239.42
622.517	243.3
622.715	227.6
622.914	224.31
623.113	239.23
623.312	207.65
623.511	265.97
623.71	229.93
623.909	230.32
624.107	290.77
624.306	219.27
624.505	229.15
624.704	231.67
624.902	253.95
625.101	288.25
625.3	260.15
625.499	225.86
625.697	207.65
625.896	205.52
626.095	245.82
626.293	217.72
626.492	216.56
626.69	268.29
626.889	211.91
627.088	263.25
627.286	203.19
627.485	204.16
627.683	218.11
