Data from oakcork_FLMT105791__2__17-26-37-067.txt Node

Date: Mon Mar 20 17:26:37 GMT 2023
User: antho
Spectrometer: FLMT10579
Trigger mode: 0
Integration Time (sec): 1.000000E-1
Scans to average: 10
Electric dark correction enabled: true
Nonlinearity correction enabled: false
Boxcar width: 0
XAxis mode: Wavelengths
Number of Pixels in Spectrum: 3648
>>>>>Begin Spectral Data<<<<<
345.248	-163.31
345.464	-163.31
345.681	-163.31
345.898	-181.14
346.114	-163.51
346.331	-54.81
346.548	14.74
346.764	3.7
346.981	-10.45
347.197	-18
347.414	16.68
347.631	-34.28
347.847	52.13
348.064	14.16
348.28	50.58
348.497	-40.09
348.713	5.63
348.93	29.47
349.146	24.04
349.363	33.15
349.579	29.47
349.796	-10.06
350.012	-12
350.229	28.69
350.445	17.07
350.661	-11.22
350.878	5.83
351.094	21.33
351.311	23.46
351.527	16.48
351.743	-7.54
351.96	30.82
352.176	62.98
352.392	23.07
352.609	22.1
352.825	-4.05
353.041	8.15
353.257	-13.55
353.474	-5.8
353.69	35.08
353.906	-9.86
354.122	-15.48
354.339	69.38
354.555	19.39
354.771	25.4
354.987	34.89
355.203	62.02
355.42	3.89
355.636	-9.28
355.852	-5.8
356.068	25.4
356.284	-39.7
356.5	51.36
356.716	21.72
356.932	23.27
357.148	41.87
357.364	-4.05
357.58	40.7
357.796	64.92
358.012	85.26
358.228	19.2
358.444	-29.24
358.66	63.37
358.876	35.28
359.092	-9.86
359.308	24.23
359.524	67.25
359.74	-4.25
359.956	-12.77
360.172	13
360.388	32.95
360.604	-6.57
360.819	100.18
361.035	37.02
361.251	33.92
361.467	16.48
361.683	64.92
361.898	16.87
362.114	76.93
362.33	20.94
362.546	54.85
362.762	21.13
362.977	37.41
363.193	7.77
363.409	49.81
363.624	-5.6
363.84	0.79
364.056	-20.52
364.271	10.28
364.487	37.8
364.703	-8.7
364.918	17.07
365.134	23.27
365.35	14.35
365.565	122.85
365.781	18.03
365.996	37.41
366.212	68.99
366.427	35.28
366.643	14.35
366.858	21.72
367.074	-0.57
367.289	70.54
367.505	146.88
367.72	-28.85
367.936	30.82
368.151	53.49
368.367	36.44
368.582	61.24
368.798	0.98
369.013	75.58
369.228	30.82
369.444	34.31
369.659	71.9
369.874	59.88
370.09	90.11
370.305	-37.57
370.52	4.47
370.736	78.48
370.951	13.58
371.166	52.13
371.381	89.33
371.597	55.04
371.812	1.76
372.027	-22.46
372.242	10.09
372.458	90.69
372.673	13.77
372.888	25.2
373.103	45.93
373.318	121.5
373.533	39.35
373.749	43.42
373.964	-22.26
374.179	71.7
374.394	-11.41
374.609	73.64
374.824	31.02
375.039	74.61
375.254	12.8
375.469	75.97
375.684	38.77
375.899	63.18
376.114	25.2
376.329	33.34
376.544	55.43
376.759	62.21
376.974	10.09
377.189	22.3
377.404	14.16
377.619	61.24
377.834	-4.44
378.049	-10.45
378.264	21.52
378.478	46.71
378.693	10.09
378.908	70.73
379.123	24.62
379.338	106
379.553	23.27
379.767	46.9
379.982	74.03
380.197	58.92
380.412	52.13
380.626	67.44
380.841	102.7
381.056	51.94
381.271	94.56
381.485	22.68
381.7	12.8
381.915	55.23
382.129	14.35
382.344	32.18
382.559	37.6
382.773	70.73
382.988	-17.23
383.202	34.5
383.417	4.67
383.632	131.76
383.846	31.79
384.061	28.88
384.275	19.58
384.49	55.23
384.704	71.12
384.919	60.47
385.133	47.87
385.348	61.63
385.562	-21.3
385.777	69.96
385.991	48.84
386.206	45.16
386.42	37.22
386.634	76.93
386.849	69.18
387.063	57.37
387.277	14.55
387.492	36.63
387.706	35.47
387.92	-0.76
388.135	54.85
388.349	55.62
388.563	67.44
388.778	45.93
388.992	64.15
389.206	79.65
389.42	114.33
389.635	44.77
389.849	83.71
390.063	88.95
390.277	93.4
390.491	108.51
390.706	93.01
390.92	95.92
391.134	51.36
391.348	102.9
391.562	24.04
391.776	52.72
391.99	13.97
392.205	100.76
392.419	40.12
392.633	64.53
392.847	116.65
393.061	15.13
393.275	94.56
393.489	48.84
393.703	48.84
393.917	86.62
394.131	35.86
394.345	92.24
394.559	87.01
394.773	45.16
394.986	40.9
395.2	66.67
395.414	93.6
395.628	47.48
395.842	80.03
396.056	33.15
396.27	1.76
396.484	70.73
396.697	61.43
396.911	94.18
397.125	69.18
397.339	88.95
397.553	68.22
397.766	108.71
397.98	89.72
398.194	101.54
398.408	56.59
398.621	114.91
398.835	106
399.049	96.5
399.262	130.21
399.476	111.61
399.69	118.4
399.903	149.01
400.117	70.54
400.331	106.96
400.544	78.48
400.758	208.49
400.971	92.24
401.185	132.15
401.398	80.23
401.612	160.63
401.826	143
402.039	119.75
402.253	73.25
402.466	120.14
402.68	99.99
402.893	110.06
403.106	127.7
403.32	99.99
403.533	128.86
403.747	114.33
403.96	130.02
404.174	143.2
404.387	88.17
404.6	96.7
404.814	111.23
405.027	135.45
405.24	128.28
405.454	92.63
405.667	171.68
405.88	70.73
406.094	121.69
406.307	151.72
406.52	108.9
406.733	93.01
406.947	56.78
407.16	168.19
407.373	164.7
407.586	77.9
407.799	105.61
408.012	143.39
408.226	122.27
408.439	171.09
408.652	49.03
408.865	129.44
409.078	186.98
409.291	143.78
409.504	80.42
409.717	155.4
409.93	160.25
410.143	128.66
410.357	87.4
410.57	80.03
410.783	97.66
410.996	122.66
411.209	149.78
411.421	167.8
411.634	125.18
411.847	87.98
412.06	131.76
412.273	138.16
412.486	139.32
412.699	226.7
412.912	120.33
413.125	167.41
413.338	148.62
413.55	137.38
413.763	147.65
413.976	153.66
414.189	124.21
414.402	126.53
414.615	194.73
414.827	130.02
415.04	185.43
415.253	144.55
415.466	168.19
415.678	200.35
415.891	158.5
416.104	161.21
416.316	138.16
416.529	149.01
416.742	179.81
416.954	183.49
417.167	124.6
417.38	142.23
417.592	178.26
417.805	115.3
418.017	117.23
418.23	183.69
418.442	114.71
418.655	136.8
418.868	171.68
419.08	204.81
419.293	175.94
419.505	175.16
419.718	152.69
419.93	178.46
420.142	149.01
420.355	191.24
420.567	189.11
420.78	194.54
420.992	152.5
421.205	217.59
421.417	131.38
421.629	152.3
421.842	136.41
422.054	117.81
422.266	193.57
422.479	184.46
422.691	119.17
422.903	184.85
423.115	152.11
423.328	149.4
423.54	179.81
423.752	154.82
423.964	157.73
424.177	163.54
424.389	167.61
424.601	259.06
424.813	200.54
425.025	186.21
425.238	219.92
425.45	162.57
425.662	180.2
425.874	453.58
426.086	186.79
426.298	196.67
426.51	193.57
426.722	184.08
426.934	160.63
427.146	183.69
427.358	122.27
427.57	202.87
427.782	181.56
427.994	165.09
428.206	139.13
428.418	132.54
428.63	200.54
428.842	226.7
429.054	199.19
429.266	245.49
429.478	154.43
429.69	186.79
429.902	136.41
430.114	207.33
430.325	188.92
430.537	144.16
430.749	156.37
430.961	125.76
431.173	137.19
431.384	185.24
431.596	87.2
431.808	175.74
432.02	181.56
432.231	219.34
432.443	219.53
432.655	199.77
432.867	188.92
433.078	211.01
433.29	256.34
433.502	245.69
433.713	238.71
433.925	208.1
434.136	260.22
434.348	172.06
434.56	162.96
434.771	297.42
434.983	169.54
435.194	194.54
435.406	200.16
435.617	254.99
435.829	270.49
436.04	228.44
436.252	268.74
436.463	266.42
436.675	264.48
436.886	247.24
437.098	240.65
437.309	309.62
437.521	229.99
437.732	272.04
437.943	255.76
438.155	245.49
438.366	196.67
438.578	277.27
438.789	243.56
439	278.24
439.211	210.23
439.423	246.08
439.634	247.04
439.845	258.28
440.057	268.94
440.268	283.86
440.479	244.14
440.69	241.81
440.902	246.66
441.113	240.07
441.324	257.31
441.535	279.21
441.746	320.67
441.957	233.09
442.168	250.14
442.38	296.45
442.591	286.76
442.802	251.5
443.013	263.71
443.224	290.44
443.435	239.1
443.646	269.91
443.857	267.39
444.068	276.49
444.279	271.07
444.49	361.94
444.701	285.6
444.912	394.49
445.123	302.07
445.334	318.92
445.545	311.95
445.756	295.48
445.967	254.21
446.178	282.11
446.388	316.99
446.599	307.49
446.81	329.77
447.021	272.23
447.232	334.23
447.443	320.28
447.653	279.98
447.864	359.42
448.075	311.17
448.286	325.12
448.496	313.31
448.707	337.33
448.918	305.75
449.129	405.34
449.339	286.96
449.55	338.11
449.761	319.89
449.971	375.11
450.182	310.79
450.393	345.27
450.603	312.72
450.814	368.91
451.024	358.25
451.235	363.29
451.446	391.39
451.656	404.37
451.867	296.84
452.077	350.5
452.288	384.02
452.498	416.57
452.709	337.72
452.919	347.02
453.13	306.91
453.34	365.23
453.55	273.97
453.761	358.25
453.971	361.55
454.182	385.38
454.392	359.8
454.602	423.35
454.813	350.5
455.023	377.63
455.233	307.3
455.444	349.92
455.654	284.24
455.864	345.85
456.075	335.59
456.285	340.62
456.495	347.4
456.705	376.08
456.916	393.9
457.126	419.29
457.336	347.21
457.546	299.36
457.756	329.39
457.967	393.32
458.177	351.67
458.387	388.48
458.597	322.61
458.807	359.8
459.017	352.64
459.227	340.43
459.437	357.29
459.647	404.17
459.857	383.44
460.068	366
460.278	404.17
460.488	391.58
460.698	418.9
460.908	371.82
461.117	363.87
461.327	369.1
461.537	397
461.747	389.64
461.957	351.67
462.167	461.91
462.377	418.9
462.587	399.91
462.797	409.21
463.007	417.93
463.216	435.37
463.426	418.12
463.636	416.38
463.846	344.11
464.056	387.32
464.265	423.94
464.475	369.69
464.685	398.94
464.895	407.66
465.104	385.19
465.314	410.95
465.524	376.85
465.733	381.5
465.943	475.67
466.153	484.38
466.362	468.3
466.572	423.16
466.782	386.54
466.991	430.33
467.201	488.07
467.41	356.51
467.62	460.17
467.829	407.85
468.039	430.13
468.249	429.36
468.458	438.08
468.668	422.58
468.877	420.25
469.086	491.36
469.296	492.13
469.505	435.56
469.715	501.05
469.924	455.71
470.134	478.38
470.343	488.45
470.552	449.9
470.762	445.05
470.971	399.91
471.18	447.77
471.39	456.29
471.599	425.87
471.808	473.73
472.018	444.67
472.227	482.06
472.436	509.96
472.645	486.71
472.855	478.38
473.064	542.51
473.273	483.03
473.482	530.69
473.691	534.56
473.901	515.97
474.11	490.78
474.319	578.93
474.528	484.77
474.737	568.66
474.946	524.1
475.155	531.27
475.364	568.08
475.573	536.11
475.783	531.08
475.992	513.45
476.201	578.55
476.41	512.28
476.619	480.51
476.828	555.3
477.037	523.71
477.245	540.38
477.454	567.11
477.663	561.11
477.872	553.94
478.081	610.32
478.29	526.81
478.499	668.06
478.708	561.5
478.917	657.01
479.125	598.5
479.334	598.31
479.543	575.25
479.752	614.19
479.961	576.03
480.169	662.63
480.378	583.39
480.587	729.28
480.796	662.83
481.004	614.39
481.213	654.49
481.422	646.74
481.63	634.93
481.839	668.25
482.048	681.04
482.256	662.44
482.465	664.18
482.674	678.71
482.882	677.16
483.091	719.79
483.299	671.16
483.508	698.28
483.716	685.3
483.925	676.58
484.134	661.86
484.342	704.67
484.551	720.95
484.759	707.77
484.967	746.14
485.176	724.44
485.384	697.31
485.593	739.74
485.801	733.16
486.01	695.37
486.218	669.61
486.426	623.69
486.635	628.34
486.843	609.93
487.051	627.56
487.26	625.04
487.468	687.82
487.676	699.25
487.885	670.96
488.093	703.51
488.301	727.73
488.509	728.89
488.717	771.91
488.926	728.12
489.134	702.35
489.342	741.87
489.55	739.74
489.758	760.67
489.967	720.76
490.175	856.57
490.383	759.31
490.591	850.18
490.799	748.27
491.007	813.17
491.215	812.2
491.423	812.59
491.631	787.02
491.839	786.82
492.047	804.84
492.255	722.69
492.463	741.49
492.671	777.14
492.879	835.65
493.087	763.19
493.295	801.16
493.503	825.77
493.711	826.35
493.919	875.56
494.127	870.33
494.334	848.82
494.542	803.1
494.75	834.87
494.958	836.04
495.166	878.47
495.374	880.21
495.581	854.44
495.789	842.82
495.997	893.58
496.205	849.6
496.412	843.4
496.62	873.43
496.828	848.63
497.035	854.44
497.243	894.16
497.451	892.22
497.658	900.94
497.866	873.82
498.074	971.66
498.281	839.33
498.489	957.51
498.696	876.14
498.904	871.88
499.112	865.29
499.319	935.62
499.527	890.09
499.734	924.38
499.942	866.84
500.149	875.95
500.357	876.92
500.564	831.39
500.771	897.26
500.979	843.4
501.186	844.37
501.394	875.56
501.601	862.39
501.808	879.05
502.016	866.65
502.223	880.79
502.43	875.56
502.638	877.3
502.845	867.62
503.052	931.17
503.26	875.95
503.467	951.7
503.674	899.78
503.881	929.81
504.089	983.48
504.296	926.71
504.503	820.54
504.71	896.1
504.917	877.88
505.125	908.11
505.332	913.73
505.539	946.47
505.746	1018.16
505.953	962.55
506.16	954.03
506.367	990.26
506.574	1010.99
506.781	1019.71
506.988	926.9
507.195	938.33
507.402	936.98
507.609	987.16
507.816	905.01
508.023	919.93
508.23	906.37
508.437	880.79
508.644	966.81
508.851	993.36
509.058	1009.05
509.265	969.33
509.472	1005.95
509.679	1071.05
509.885	966.23
510.092	991.23
510.299	986.19
510.506	972.24
510.713	1002.66
510.92	987.35
511.126	977.28
511.333	1043.34
511.54	1014.67
511.746	1068.14
511.953	1051.09
512.16	1071.24
512.367	1032.3
512.573	1016.41
512.78	1034.82
512.987	1016.22
513.193	1031.91
513.4	952.67
513.606	1005.56
513.813	1055.74
514.02	1029.4
514.226	1100.11
514.433	1043.93
514.639	983.48
514.846	1057.1
515.052	1002.66
515.259	1062.72
515.465	1023.39
515.672	1022.61
515.878	1122.98
516.085	1052.26
516.291	1079.38
516.497	1024.55
516.704	1034.24
516.91	1015.45
517.117	970.88
517.323	900.55
517.529	952.28
517.736	954.41
517.942	966.81
518.148	958.87
518.354	1006.92
518.561	1025.71
518.767	994.33
518.973	1020.1
519.179	1058.46
519.386	1039.28
519.592	997.62
519.798	1011.18
520.004	1093.14
520.21	1066.59
520.417	1141.77
520.623	1122.39
520.829	1153.39
521.035	1094.69
521.241	1114.64
521.447	1110.58
521.653	1237.09
521.859	1137.31
522.065	1135.76
522.271	1236.32
522.477	1160.95
522.683	1221.01
522.889	1162.69
523.095	1200.09
523.301	1156.49
523.507	1136.92
523.713	1184.39
523.919	1170.25
524.125	1227.21
524.331	1199.7
524.537	1321.37
524.742	1266.74
524.948	1231.47
525.154	1283.59
525.36	1370.58
525.566	1282.43
525.772	1300.06
525.977	1236.32
526.183	1271.58
526.389	1284.75
526.595	1250.85
526.8	1220.24
527.006	1152.04
527.212	1134.99
527.417	1122.59
527.623	1121.81
527.829	1208.81
528.034	1227.02
528.24	1249.88
528.446	1194.86
528.651	1321.37
528.857	1303.74
529.062	1355.86
529.268	1281.07
529.473	1333.38
529.679	1311.88
529.884	1379.88
530.09	1336.29
530.295	1372.72
530.501	1354.5
530.706	1360.51
530.912	1318.85
531.117	1337.84
531.323	1367.29
531.528	1355.67
531.733	1370.97
531.939	1331.83
532.144	1368.26
532.35	1370.39
532.555	1375.04
532.76	1394.41
532.966	1381.82
533.171	1376.2
533.376	1331.83
533.581	1335.13
533.787	1346.17
533.992	1361.48
534.197	1409.53
534.402	1356.63
534.607	1343.27
534.813	1495.74
535.018	1393.25
535.223	1368.07
535.428	1409.33
535.633	1462.42
535.838	1460.29
536.043	1421.73
536.249	1538.95
536.454	1437.81
536.659	1509.11
536.864	1403.33
537.069	1410.3
537.274	1447.5
537.479	1464.16
537.684	1432.97
537.889	1384.73
538.094	1510.66
538.299	1464.55
538.504	1449.44
538.708	1443.82
538.913	1478.31
539.118	1429.87
539.323	1464.16
539.528	1433.16
539.733	1426.77
539.938	1426
540.142	1485.48
540.347	1420.96
540.552	1404.3
540.757	1420.38
540.962	1409.33
541.166	1401
541.371	1370.2
541.576	1375.23
541.781	1322.53
541.985	1416.31
542.19	1434.71
542.395	1458.16
542.599	1539.53
542.804	1466.49
543.008	1552.71
543.213	1444.01
543.418	1427.35
543.622	1552.13
543.827	1436.26
544.031	1541.66
544.236	1537.21
544.44	1497.88
544.645	1529.07
544.849	1477.92
545.054	1509.69
545.258	1559.29
545.463	1597.66
545.667	1497.49
545.872	1558.71
546.076	1581.38
546.281	1511.83
546.485	1503.88
546.689	1521.9
546.894	1541.08
547.098	1534.49
547.302	1496.91
547.507	1504.27
547.711	1543.99
547.915	1613.93
548.119	1475.4
548.324	1511.63
548.528	1570.14
548.732	1519.58
548.936	1551.54
549.141	1575.37
549.345	1523.64
549.549	1529.65
549.753	1531.78
549.957	1621.29
550.161	1628.85
550.366	1562.98
550.57	1531.01
550.774	1527.52
550.978	1534.3
551.182	1557.94
551.386	1514.93
551.59	1511.24
551.794	1537.4
551.998	1570.92
552.202	1512.99
552.406	1481.02
552.61	1555.61
552.814	1563.36
553.018	1563.94
553.222	1537.59
553.426	1539.92
553.63	1650.16
553.833	1523.06
554.037	1494.39
554.241	1571.5
554.445	1570.92
554.649	1529.84
554.853	1538.95
555.056	1599.98
555.26	1576.54
555.464	1564.33
555.668	1540.89
555.871	1578.86
556.075	1604.82
556.279	1517.06
556.483	1511.83
556.686	1521.9
556.89	1518.03
557.094	1536.24
557.297	1453.51
557.501	1567.43
557.704	1447.89
557.908	1538.18
558.112	1495.16
558.315	1582.35
558.519	1501.36
558.722	1509.69
558.926	1473.46
559.129	1451.76
559.333	1384.15
559.536	1428.32
559.74	1424.25
559.943	1420.76
560.147	1387.44
560.35	1426.38
560.553	1430.45
560.757	1421.54
560.96	1503.88
561.164	1431.81
561.367	1484.31
561.57	1452.73
561.774	1478.89
561.977	1451.76
562.18	1442.66
562.384	1519.19
562.587	1414.56
562.79	1415.53
562.993	1416.31
563.197	1455.64
563.4	1525.97
563.603	1496.52
563.806	1544.96
564.009	1394.8
564.212	1448.86
564.416	1408.36
564.619	1448.28
564.822	1370.78
565.025	1432.2
565.228	1428.71
565.431	1440.33
565.634	1354.89
565.837	1379.88
566.04	1346.95
566.243	1354.5
566.446	1299.29
566.649	1403.13
566.852	1314.4
567.055	1361.67
567.258	1392.28
567.461	1424.64
567.664	1414.37
567.867	1333.77
568.07	1392.28
568.273	1356.83
568.475	1433.16
568.678	1338.81
568.881	1335.13
569.084	1321.37
569.287	1256.47
569.489	1314.59
569.692	1318.85
569.895	1321.18
570.098	1271.58
570.3	1235.35
570.503	1227.6
570.706	1256.27
570.909	1242.71
571.111	1223.72
571.314	1190.59
571.516	1199.7
571.719	1228.76
571.922	1206.48
572.124	1229.92
572.327	1247.75
572.529	1173.54
572.732	1203.38
572.935	1262.28
573.137	1307.03
573.34	1226.44
573.542	1269.25
573.745	1250.27
573.947	1221.01
574.15	1238.25
574.352	1196.99
574.554	1291.15
574.757	1183.23
574.959	1207.26
575.162	1158.04
575.364	1176.45
575.566	1299.29
575.769	1185.94
575.971	1216.75
576.173	1098.56
576.376	1203.19
576.578	1216.36
576.78	1233.8
576.982	1132.66
577.185	1134.79
577.387	1146.03
577.589	1114.26
577.791	1183.23
577.993	1189.24
578.196	1172.38
578.398	1169.47
578.6	1207.84
578.802	1147.58
579.004	1088.88
579.206	1145.45
579.408	1171.99
579.61	1149.52
579.812	1167.73
580.014	1134.79
580.216	1126.85
580.418	1127.63
580.62	1127.63
580.822	1081.71
581.024	1143.51
581.226	1172.96
581.428	1148.16
581.63	1210.74
581.832	1137.51
582.034	1195.63
582.236	1140.41
582.438	1177.81
582.64	1190.4
582.841	1247.55
583.043	1246.97
583.245	1164.44
583.447	1196.6
583.649	1164.05
583.85	1169.47
584.052	1210.36
584.254	1142.54
584.456	1214.81
584.657	1114.26
584.859	1141.38
585.061	1145.26
585.262	1101.47
585.464	1100.89
585.666	1179.16
585.867	1109.61
586.069	1218.88
586.27	1156.49
586.472	1137.51
586.674	1117.36
586.875	1113.29
587.077	1092.56
587.278	1146.42
587.48	1146.81
587.681	1240
587.883	1143.32
588.084	1059.04
588.285	1115.23
588.487	1076.67
588.688	1093.72
588.89	1026.88
589.091	1026.1
589.292	1023.39
589.494	992.97
589.695	972.24
589.896	938.72
590.098	907.33
590.299	997.81
590.5	938.72
590.702	975.92
590.903	979.21
591.104	1060.98
591.305	1012.35
591.507	1078.41
591.708	1057.49
591.909	1004.98
592.11	1092.56
592.311	1047.41
592.512	1009.25
592.714	998.98
592.915	1013.31
593.116	992.2
593.317	1031.91
593.518	993.36
593.719	1015.06
593.92	1033.27
594.121	1076.86
594.322	1040.25
594.523	1044.31
594.724	988.13
594.925	1016.8
595.126	1024.16
595.327	1014.09
595.528	1041.79
595.729	1037.73
595.929	1004.01
596.13	1022.61
596.331	1027.65
596.532	1030.56
596.733	1115.61
596.934	1048.96
597.135	1047.99
597.335	1021.45
597.536	1009.83
597.737	1060.2
597.938	983.67
598.138	1064.85
598.339	1016.22
598.54	1049.93
598.74	1017.58
598.941	1013.51
599.142	1077.64
599.342	1051.48
599.543	987.35
599.744	1037.34
599.944	1032.11
600.145	995.49
600.345	1027.26
600.546	1077.06
600.746	1071.83
600.947	1089.46
601.147	1036.56
601.348	1076.48
601.548	1014.09
601.749	1062.91
601.949	1009.05
602.15	1027.85
602.35	1021.65
602.551	1059.43
602.751	995.68
602.951	988.13
603.152	967.2
603.352	1009.83
603.552	1005.37
603.753	1027.46
603.953	1043.73
604.153	1017.96
604.354	1025.33
604.554	993.94
604.754	989.29
604.954	984.64
605.155	1027.26
605.355	1015.45
605.555	1042.96
605.755	1114.45
605.955	1003.82
606.155	1043.54
606.356	1020.29
606.556	1042.18
606.756	1028.23
606.956	955.58
607.156	1055.94
607.356	983.28
607.556	1016.8
607.756	1001.11
607.956	1034.43
608.156	1039.47
608.356	976.31
608.556	1048.77
608.756	1018.55
608.956	996.46
609.156	1030.36
609.356	959.84
609.556	970.3
609.755	972.43
609.955	967.78
610.155	966.43
610.355	1004.01
610.555	936.4
610.755	989.68
610.954	930
611.154	984.06
611.354	991.61
611.554	944.53
611.753	907.53
611.953	907.92
612.153	992.97
612.352	1006.34
612.552	917.41
612.752	907.53
612.951	940.08
613.151	947.44
613.351	894.74
613.55	947.63
613.75	962.36
613.949	947.63
614.149	955.77
614.348	942.98
614.548	911.79
614.747	916.25
614.947	914.12
615.146	857.15
615.346	943.57
615.545	931.94
615.745	940.08
615.944	980.96
616.144	908.11
616.343	951.32
616.542	888.93
616.742	895.9
616.941	915.47
617.14	866.26
617.34	894.35
617.539	887.96
617.738	873.82
617.938	924.38
618.137	898.03
618.336	874.4
618.535	922.25
