Data from oakcork_FLMT105791__250__17-33-21-054.txt Node

Date: Mon Mar 20 17:33:21 GMT 2023
User: antho
Spectrometer: FLMT10579
Trigger mode: 0
Integration Time (sec): 1.000000E-1
Scans to average: 10
Electric dark correction enabled: true
Nonlinearity correction enabled: false
Boxcar width: 0
XAxis mode: Wavelengths
Number of Pixels in Spectrum: 3648
>>>>>Begin Spectral Data<<<<<
345.248	-137.58
345.464	-137.58
345.681	-137.58
345.898	-169.74
346.114	-143.78
346.331	-47.1
346.548	49.58
346.764	-25.59
346.981	7.15
347.197	5.8
347.414	8.12
347.631	-27.33
347.847	51.91
348.064	-0.4
348.28	32.53
348.497	-47.48
348.713	-7.18
348.93	20.33
349.146	10.83
349.363	13.74
349.579	23.62
349.796	15.1
350.012	-25.4
350.229	10.83
350.445	1.15
350.661	-20.94
350.878	3.08
351.094	19.94
351.311	33.31
351.527	27.11
351.743	2.7
351.96	63.15
352.176	48.42
352.392	16.26
352.609	26.33
352.825	-0.02
353.041	0.57
353.257	-3.31
353.474	35.44
353.69	4.44
353.906	18.39
354.122	-25.2
354.339	64.89
354.555	13.93
354.771	13.16
354.987	51.13
355.203	77.87
355.42	-0.6
355.636	6.18
355.852	-13.38
356.068	22.07
356.284	-29.47
356.5	42.03
356.716	29.82
356.932	-18.62
357.148	46.1
357.364	13.55
357.58	76.32
357.796	64.5
358.012	62.95
358.228	22.65
358.444	-55.04
358.66	54.62
358.876	50.16
359.092	-21.33
359.308	43.96
359.524	9.67
359.74	-5.25
359.956	-1.95
360.172	20.71
360.388	68.18
360.604	20.71
360.819	103.64
361.035	6.18
361.251	29.82
361.467	12
361.683	55.4
361.898	28.85
362.114	51.13
362.33	11.22
362.546	53.65
362.762	19.55
362.977	19.55
363.193	6.77
363.409	55.59
363.624	14.32
363.84	5.41
364.056	7.93
364.271	29.63
364.487	31.56
364.703	17.23
364.918	7.54
365.134	7.15
365.35	26.53
365.565	116.62
365.781	22.07
365.996	46.29
366.212	84.65
366.427	47.26
366.643	20.33
366.858	31.76
367.074	17.42
367.289	87.17
367.505	113.71
367.72	-18.81
367.936	27.5
368.151	36.41
368.367	70.31
368.582	15.68
368.798	13.55
369.013	42.41
369.228	42.03
369.444	51.52
369.659	75.93
369.874	39.51
370.09	72.83
370.305	-25.78
370.52	12.58
370.736	65.86
370.951	24.2
371.166	71.28
371.381	101.51
371.597	74.19
371.812	11.61
372.027	8.31
372.242	22.26
372.458	118.36
372.673	35.63
372.888	23.81
373.103	72.45
373.318	117.98
373.533	52.68
373.749	51.52
373.964	-31.02
374.179	81.36
374.394	14.9
374.609	105.96
374.824	-7.38
375.039	71.86
375.254	5.6
375.469	77.48
375.684	57.72
375.899	95.5
376.114	35.63
376.329	56.17
376.544	95.69
376.759	59.08
376.974	8.51
377.189	45.51
377.404	21.1
377.619	93.37
377.834	0.57
378.049	34.66
378.264	2.5
378.478	51.91
378.693	42.03
378.908	72.06
379.123	36.99
379.338	70.31
379.553	45.32
379.767	52.68
379.982	65.86
380.197	79.03
380.412	52.1
380.626	44.16
380.841	116.23
381.056	59.66
381.271	106.74
381.485	54.81
381.7	-3.5
381.915	59.08
382.129	46.48
382.344	72.83
382.559	53.46
382.773	103.44
382.988	0.18
383.202	56.36
383.417	10.83
383.632	114.1
383.846	47.84
384.061	46.1
384.275	41.83
384.49	72.25
384.704	66.83
384.919	44.55
385.133	47.45
385.348	66.63
385.562	30.21
385.777	84.65
385.991	60.24
386.206	57.53
386.42	39.9
386.634	81.75
386.849	71.86
387.063	70.51
387.277	49
387.492	46.87
387.706	47.06
387.92	43.96
388.135	81.75
388.349	64.7
388.563	71.28
388.778	67.41
388.992	96.28
389.206	84.07
389.42	144.71
389.635	69.73
389.849	89.88
390.063	104.03
390.277	64.31
390.491	144.13
390.706	100.15
390.92	81.16
391.134	88.14
391.348	115.26
391.562	31.76
391.776	98.02
391.99	66.83
392.205	96.28
392.419	63.34
392.633	71.67
392.847	114.68
393.061	61.4
393.275	112.55
393.489	53.85
393.703	78.45
393.917	73.22
394.131	51.33
394.345	72.64
394.559	100.34
394.773	75.16
394.986	79.42
395.2	89.11
395.414	128.24
395.628	47.45
395.842	100.15
396.056	67.41
396.27	62.56
396.484	93.56
396.697	94.53
396.911	107.13
397.125	75.74
397.339	87.36
397.553	95.11
397.766	126.69
397.98	97.44
398.194	113.13
398.408	85.23
398.621	112.94
398.835	138.51
399.049	137.93
399.262	190.63
399.476	117.2
399.69	147.81
399.903	192.57
400.117	131.73
400.331	145.1
400.544	123.4
400.758	203.42
400.971	122.82
401.185	162.73
401.398	111.58
401.612	195.67
401.826	160.02
402.039	162.15
402.253	143.36
402.466	176.88
402.68	153.43
402.893	143.94
403.106	154.21
403.32	149.56
403.533	158.28
403.747	142.58
403.96	162.54
404.174	152.27
404.387	112.94
404.6	150.72
404.814	194.7
405.027	150.72
405.24	160.99
405.454	174.36
405.667	200.12
405.88	121.46
406.094	159.24
406.307	220.47
406.52	175.13
406.733	126.89
406.947	100.73
407.16	260.96
407.373	199.74
407.586	141.23
407.799	129.6
408.012	179.01
408.226	190.24
408.439	244.88
408.652	138.13
408.865	188.89
409.078	226.86
409.291	205.55
409.504	131.15
409.717	177.65
409.93	190.82
410.143	186.17
410.357	140.45
410.57	161.57
410.783	166.61
410.996	201.67
411.209	176.49
411.421	200.9
411.634	199.54
411.847	159.83
412.06	189.47
412.273	199.35
412.486	220.86
412.699	269.49
412.912	207.87
413.125	227.64
413.338	213.69
413.55	176.49
413.763	200.51
413.976	215.43
414.189	190.63
414.402	186.76
414.615	249.92
414.827	201.09
415.04	223.57
415.253	217.17
415.466	231.9
415.678	282.08
415.891	219.11
416.104	207.87
416.316	220.27
416.529	207.68
416.742	222.6
416.954	255.92
417.167	199.74
417.38	205.16
417.592	254.57
417.805	186.17
418.017	193.73
418.23	234.03
418.442	203.42
418.655	189.27
418.868	248.95
419.08	241.59
419.293	284.4
419.505	235.19
419.718	244.49
419.93	266
420.142	223.37
420.355	276.65
420.567	260.77
420.78	256.12
420.992	222.6
421.205	264.06
421.417	202.26
421.629	216.59
421.842	183.85
422.054	201.87
422.266	278.79
422.479	275.49
422.691	222.99
422.903	276.27
423.115	237.71
423.328	226.09
423.54	249.72
423.752	243.14
423.964	236.94
424.177	254.76
424.389	238.87
424.601	320.64
424.813	250.5
425.025	281.69
425.238	265.61
425.45	264.06
425.662	230.74
425.874	497.72
426.086	265.81
426.298	272.97
426.51	286.34
426.722	248.37
426.934	243.91
427.146	293.12
427.358	227.25
427.57	293.12
427.782	263.29
427.994	268.13
428.206	257.86
428.418	236.36
428.63	305.72
428.842	313.85
429.054	280.53
429.266	307.65
429.478	244.88
429.69	267.94
429.902	223.57
430.114	267.36
430.325	261.35
430.537	237.13
430.749	220.27
430.961	175.91
431.173	224.92
431.384	235.97
431.596	180.56
431.808	260.96
432.02	303.2
432.231	311.53
432.443	345.24
432.655	303.97
432.867	258.83
433.078	329.94
433.29	349.12
433.502	339.62
433.713	358.8
433.925	332.84
434.136	352.99
434.348	267.94
434.56	252.24
434.771	378.57
434.983	280.92
435.194	317.73
435.406	323.35
435.617	339.62
435.829	379.15
436.04	394.65
436.252	363.45
436.463	382.44
436.675	403.17
436.886	346.02
437.098	365.58
437.309	420.8
437.521	377.79
437.732	326.06
437.943	372.17
438.155	376.82
438.366	311.34
438.578	394.84
438.789	351.25
439	379.15
439.211	316.95
439.423	364.23
439.634	379.53
439.845	365.39
440.057	367.91
440.268	437.27
440.479	373.72
440.69	387.09
440.902	406.27
441.113	376.43
441.324	358.42
441.535	400.27
441.746	418.28
441.957	362.1
442.168	418.09
442.38	449.09
442.591	427.97
442.802	357.45
443.013	428.55
443.224	434.17
443.435	411.5
443.646	412.67
443.857	414.99
444.068	391.16
444.279	415.38
444.49	496.75
444.701	434.17
444.912	551.39
445.123	479.12
445.334	455.48
445.545	468.85
445.756	439.79
445.967	391.74
446.178	429.91
446.388	453.35
446.599	462.46
446.81	446.76
447.021	427.97
447.232	507.99
447.443	505.47
447.653	433.59
447.864	516.9
448.075	453.16
448.286	475.05
448.496	464.4
448.707	514
448.918	455.29
449.129	528.91
449.339	485.9
449.55	501.4
449.761	465.17
449.971	531.24
450.182	481.64
450.393	526.78
450.603	502.37
450.814	543.44
451.024	501.01
451.235	557.39
451.446	578.32
451.656	540.73
451.867	500.05
452.077	539.96
452.288	546.54
452.498	573.48
452.709	516.9
452.919	518.45
453.13	495.78
453.34	543.64
453.55	449.86
453.761	499.27
453.971	557.78
454.182	531.63
454.392	537.63
454.602	605.64
454.813	525.04
455.023	554.49
455.233	465.56
455.444	519.03
455.654	467.5
455.864	525.43
456.075	525.81
456.285	500.05
456.495	516.13
456.705	563.79
456.916	568.44
457.126	586.46
457.336	563.59
457.546	464.01
457.756	519.03
457.967	597.89
458.177	540.93
458.387	549.45
458.597	507.02
458.807	559.91
459.017	545.58
459.227	512.45
459.437	536.28
459.647	569.79
459.857	562.43
460.068	526.78
460.278	596.14
460.488	596.92
460.698	616.68
460.908	571.15
461.117	563.01
461.327	521.94
461.537	613.97
461.747	580.64
461.957	561.27
462.167	706.19
462.377	623.07
462.587	584.52
462.797	620.94
463.007	607.77
463.216	623.27
463.426	645.16
463.636	638.19
463.846	557.98
464.056	580.45
464.265	626.76
464.475	556.81
464.685	616.29
464.895	617.65
465.104	592.08
465.314	611.06
465.524	584.52
465.733	575.61
465.943	666.28
466.153	660.08
466.362	648.07
466.572	669.77
466.782	631.99
466.991	608.54
467.201	659.89
467.41	568.83
467.62	651.94
467.829	637.02
468.039	687.21
468.249	634.12
468.458	681.39
468.668	690.89
468.877	685.66
469.086	747.85
469.296	712.78
469.505	679.84
469.715	714.91
469.924	689.14
470.134	755.4
470.343	728.28
470.552	698.06
470.762	710.65
470.971	667.25
471.18	715.3
471.39	705.03
471.599	649.81
471.808	741.84
472.018	708.71
472.227	760.64
472.436	779.62
472.645	752.3
472.855	738.94
473.064	790.67
473.273	744.55
473.482	778.46
473.691	809.65
473.901	786.79
474.11	754.44
474.319	889.67
474.528	792.41
474.737	875.33
474.946	811.2
475.155	778.46
475.364	831.35
475.573	822.83
475.783	851.12
475.992	818.95
476.201	875.72
476.41	845.3
476.619	807.33
476.828	840.85
477.037	816.24
477.245	816.24
477.454	897.81
477.663	857.32
477.872	871.07
478.081	925.32
478.29	858.67
478.499	966.4
478.708	924.93
478.917	987.51
479.125	891.8
479.334	917.18
479.543	894.13
479.752	968.72
479.961	977.05
480.169	976.86
480.378	948.38
480.587	1065.98
480.796	995.65
481.004	976.86
481.213	1004.76
481.422	1001.27
481.63	1013.28
481.839	1026.46
482.048	1091.56
482.256	1045.06
482.465	1041.76
482.674	1048.54
482.882	1043.7
483.091	1105.12
483.299	1081.09
483.508	1095.24
483.716	1074.31
483.925	1087.29
484.134	1063.27
484.342	1070.44
484.551	1118.1
484.759	1092.14
484.967	1136.7
485.176	1149.1
485.384	1113.84
485.593	1140.19
485.801	1114.03
486.01	1073.54
486.218	1021.81
486.426	943.53
486.635	1000.88
486.843	963.68
487.051	1039.83
487.26	1014.06
487.468	1047.96
487.676	1104.54
487.885	1097.37
488.093	1117.91
488.301	1173.51
488.509	1177.97
488.717	1205.67
488.926	1172.15
489.134	1150.65
489.342	1208.39
489.55	1149.29
489.758	1188.43
489.967	1220.98
490.175	1316.3
490.383	1235.12
490.591	1322.11
490.799	1196.37
491.007	1286.47
491.215	1279.68
491.423	1273.29
491.631	1270.38
491.839	1231.05
492.047	1297.12
492.255	1217.88
492.463	1195.02
492.671	1229.31
492.879	1281.82
493.087	1238.42
493.295	1270
493.503	1332
493.711	1309.52
493.919	1348.08
494.127	1361.25
494.334	1321.92
494.542	1304.1
494.75	1355.05
494.958	1349.82
495.166	1406.59
495.374	1364.16
495.581	1367.65
495.789	1423.83
495.997	1426.16
496.205	1351.37
496.412	1372.68
496.62	1412.59
496.828	1424.99
497.035	1392.64
497.243	1447.66
497.451	1395.35
497.658	1438.36
497.866	1389.15
498.074	1475.76
498.281	1363.38
498.489	1449.41
498.696	1401.75
498.904	1379.85
499.112	1380.43
499.319	1489.51
499.527	1412.79
499.734	1457.54
499.942	1398.65
500.149	1384.5
500.357	1411.43
500.564	1392.25
500.771	1422.09
500.979	1351.18
501.186	1348.08
501.394	1409.3
501.601	1386.25
501.808	1379.66
502.016	1380.43
502.223	1361.25
502.43	1400.39
502.638	1391.67
502.845	1390.9
503.052	1491.64
503.26	1435.65
503.467	1483.12
503.674	1428.68
503.881	1448.63
504.089	1498.81
504.296	1421.31
504.503	1389.35
504.71	1440.3
504.917	1374.81
505.125	1472.27
505.332	1453.48
505.539	1481.18
505.746	1569.72
505.953	1525.16
506.16	1497.07
506.367	1587.74
506.574	1605.57
506.781	1578.44
506.988	1521.87
507.195	1530.97
507.402	1540.86
507.609	1573.02
507.816	1483.89
508.023	1512.37
508.23	1520.32
508.437	1484.67
508.644	1553.26
508.851	1587.94
509.058	1580.57
509.265	1588.71
509.472	1594.14
509.679	1670.47
509.885	1585.22
510.092	1549.38
510.299	1573.41
510.506	1575.15
510.713	1568.56
510.92	1588.13
511.126	1616.42
511.333	1663.5
511.54	1622.42
511.746	1667.95
511.953	1666.99
512.16	1685.58
512.367	1617.19
512.573	1626.88
512.78	1628.24
512.987	1636.37
513.193	1601.69
513.4	1518.77
513.606	1609.83
513.813	1623.78
514.02	1612.35
514.226	1683.65
514.433	1639.47
514.639	1567.21
514.846	1610.6
515.052	1587.94
515.259	1626.49
515.465	1673.18
515.672	1627.65
515.878	1739.83
516.085	1705.15
516.291	1688.68
516.497	1656.52
516.704	1605.76
516.91	1557.32
517.117	1480.79
517.323	1474.01
517.529	1494.36
517.736	1480.99
517.942	1514.12
518.148	1530.78
518.354	1570.5
518.561	1570.31
518.767	1562.17
518.973	1598.98
519.179	1621.07
519.386	1608.28
519.592	1600.72
519.798	1603.05
520.004	1697.4
520.21	1647.8
520.417	1739.25
520.623	1751.27
520.829	1757.46
521.035	1741.77
521.241	1748.55
521.447	1773.55
521.653	1859.38
521.859	1742.55
522.065	1797.76
522.271	1865.58
522.477	1828.76
522.683	1885.53
522.889	1786.33
523.095	1786.33
523.301	1812.68
523.507	1752.04
523.713	1856.08
523.919	1782.85
524.125	1914.79
524.331	1828.76
524.537	1923.51
524.742	1928.35
524.948	1934.94
525.154	1943.66
525.36	2012.63
525.566	1951.99
525.772	1990.16
525.977	1903.16
526.183	1944.24
526.389	1957.8
526.595	1902.78
526.8	1900.64
527.006	1820.24
527.212	1790.01
527.417	1755.91
527.623	1771.8
527.829	1852.98
528.034	1879.91
528.24	1878.56
528.446	1890.57
528.651	2000.23
528.857	1982.21
529.062	2094.39
529.268	2013.79
529.473	1995.58
529.679	2008.76
529.884	2101.56
530.09	2055.25
530.295	2075.02
530.501	2086.06
530.706	2038.2
530.912	2036.85
531.117	2088.58
531.323	2099.62
531.528	2150.97
531.733	2114.15
531.939	2104.27
532.144	2097.49
532.35	2095.75
532.555	2159.49
532.76	2127.52
532.966	2048.67
533.171	2045.37
533.376	1997.32
533.581	2015.34
533.787	2027.35
533.992	2111.63
534.197	2076.95
534.402	2081.41
534.607	2103.69
534.813	2166.08
535.018	2121.52
535.223	2151.74
535.428	2128.3
535.633	2215.48
535.838	2203.86
536.043	2182.55
536.249	2276.9
536.454	2202.89
536.659	2222.26
536.864	2176.73
537.069	2198.43
537.274	2177.9
537.479	2171.7
537.684	2196.5
537.889	2137.02
538.094	2299.76
538.299	2199.98
538.504	2250.94
538.708	2209.09
538.913	2249.2
539.118	2203.08
539.323	2257.91
539.528	2218.97
539.733	2241.64
539.938	2223.62
540.142	2205.41
540.347	2168.6
540.552	2171.5
540.757	2149.22
540.962	2183.71
541.166	2127.91
541.371	2170.53
541.576	2163.95
541.781	2141.08
541.985	2266.44
542.19	2176.15
542.395	2299.96
542.599	2310.03
542.804	2280
543.008	2316.81
543.213	2255.2
543.418	2230.4
543.622	2300.34
543.827	2257.53
544.031	2312.94
544.236	2327.86
544.44	2329.79
544.645	2348.2
544.849	2289.11
545.054	2334.44
545.258	2393.15
545.463	2396.64
545.667	2285.62
545.872	2284.65
546.076	2326.89
546.281	2328.83
546.485	2324.37
546.689	2373.19
546.894	2366.8
547.098	2370.48
547.302	2293.18
547.507	2342.58
547.711	2340.26
547.915	2382.3
548.119	2344.52
548.324	2270.31
548.528	2424.15
548.732	2306.35
548.936	2432.48
549.141	2385.4
549.345	2352.08
549.549	2385.79
549.753	2373.77
549.957	2426.67
550.161	2452.05
550.366	2428.8
550.57	2345.1
550.774	2386.37
550.978	2408.84
551.182	2431.71
551.386	2380.75
551.59	2378.81
551.794	2382.11
551.998	2397.99
552.202	2356.34
552.406	2353.24
552.61	2429.19
552.814	2387.14
553.018	2447.4
553.222	2356.92
553.426	2373.97
553.63	2474.91
553.833	2411.75
554.037	2354.21
554.241	2387.34
554.445	2433.64
554.649	2377.26
554.853	2378.81
555.056	2471.62
555.26	2460.38
555.464	2408.84
555.668	2447.98
555.871	2433.64
556.075	2499.52
556.279	2388.5
556.483	2375.13
556.686	2390.82
556.89	2395.67
557.094	2363.51
557.297	2298.41
557.501	2401.67
557.704	2280.97
557.908	2379.97
558.112	2312.16
558.315	2389.86
558.519	2375.71
558.722	2328.44
558.926	2325.92
559.129	2228.66
559.333	2240.09
559.536	2271.48
559.74	2221.3
559.943	2238.35
560.147	2223.04
560.35	2248.23
560.553	2247.84
560.757	2202.31
560.96	2334.25
561.164	2271.67
561.367	2333.28
561.57	2300.15
561.774	2297.63
561.977	2229.43
562.18	2268.76
562.384	2346.84
562.587	2209.09
562.79	2270.31
562.993	2235.83
563.197	2281.16
563.4	2324.18
563.603	2318.17
563.806	2357.5
564.009	2251.52
564.212	2262.18
564.416	2175.18
564.619	2249.39
564.822	2193.01
565.025	2277.1
565.228	2160.46
565.431	2212.96
565.634	2160.07
565.837	2184.68
566.04	2146.32
566.243	2126.17
566.446	2077.73
566.649	2188.94
566.852	2116.87
567.055	2160.07
567.258	2154.84
567.461	2202.7
567.664	2202.89
567.867	2116.09
568.07	2130.62
568.273	2100.59
568.475	2178.28
568.678	2108.53
568.881	2127.52
569.084	2097.69
569.287	1984.54
569.489	2004.88
569.692	2098.85
569.895	2085.67
570.098	2023.48
570.3	2035.69
570.503	1978.14
570.706	1969.04
570.909	2005.27
571.111	1918.08
571.314	1920.79
571.516	1962.45
571.719	1990.54
571.922	1941.52
572.124	1946.95
572.327	2004.49
572.529	1942.49
572.732	1957.22
572.935	1975.24
573.137	2058.35
573.34	1989.57
573.542	2010.69
573.745	2010.69
573.947	2018.64
574.15	1977.76
574.352	1945.59
574.554	2043.63
574.757	1950.63
574.959	1902.78
575.162	1944.24
575.364	1921.38
575.566	1999.46
575.769	1900.45
575.971	1935.71
576.173	1806.87
576.376	1893.09
576.578	1935.52
576.78	1952.96
576.982	1855.5
577.185	1879.14
577.387	1845.81
577.589	1878.17
577.791	1927.19
577.993	1907.43
578.196	1876.62
578.398	1888.24
578.6	1879.33
578.802	1814.23
579.004	1795.83
579.206	1809.58
579.408	1874.49
579.61	1831.09
579.812	1895.41
580.014	1829.93
580.216	1835.93
580.418	1879.72
580.62	1861.89
580.822	1782.46
581.024	1870.61
581.226	1902.97
581.428	1846.39
581.63	1939.97
581.832	1860.54
582.034	1926.41
582.236	1909.56
582.438	1897.93
582.64	1960.32
582.841	1972.91
583.043	2014.37
583.245	1930.48
583.447	1974.07
583.649	1926.99
583.85	1943.85
584.052	1937.84
584.254	1866.74
584.456	1968.84
584.657	1847.75
584.859	1914.01
585.061	1909.36
585.262	1872.36
585.464	1861.7
585.666	1892.12
585.867	1842.52
586.069	1923.89
586.27	1898.51
586.472	1866.74
586.674	1820.63
586.875	1854.73
587.077	1863.25
587.278	1883.01
587.48	1891.15
587.681	1956.44
587.883	1867.32
588.084	1812.88
588.285	1824.5
588.487	1808.61
588.688	1780.71
588.89	1710.58
589.091	1659.04
589.292	1661.95
589.494	1662.53
589.695	1598.98
589.896	1572.44
590.098	1573.02
590.299	1628.62
590.5	1595.49
590.702	1686.17
590.903	1700.5
591.104	1713.29
591.305	1703.8
591.507	1766.18
591.708	1718.52
591.909	1731.7
592.11	1783.04
592.311	1753.2
592.512	1707.28
592.714	1663.3
592.915	1698.18
593.116	1707.28
593.317	1722.4
593.518	1672.02
593.719	1730.34
593.92	1755.72
594.121	1762.7
594.322	1758.82
594.523	1720.85
594.724	1672.99
594.925	1728.4
595.126	1712.32
595.327	1738.09
595.528	1730.53
595.729	1731.89
595.929	1726.08
596.13	1732.67
596.331	1775.48
596.532	1727.24
596.733	1805.51
596.934	1765.8
597.135	1799.12
597.335	1756.11
597.536	1706.9
597.737	1760.95
597.938	1750.1
598.138	1758.24
598.339	1723.17
598.54	1774.32
598.74	1710.97
598.941	1765.41
599.142	1782.26
599.342	1736.93
599.543	1711.16
599.744	1761.53
599.944	1748.94
600.145	1724.92
600.345	1758.82
600.546	1775.29
600.746	1752.43
600.947	1816.56
601.147	1730.53
601.348	1785.17
601.548	1732.67
601.749	1750.1
601.949	1696.05
602.15	1699.34
602.35	1739.25
602.551	1787.3
602.751	1714.84
602.951	1736.15
603.152	1665.44
603.352	1768.12
603.552	1761.34
603.753	1773.55
603.953	1773.55
604.153	1745.84
604.354	1748.75
604.554	1747.78
604.754	1797.18
604.954	1740.22
605.155	1792.53
605.355	1716.2
605.555	1783.81
605.755	1789.63
605.955	1724.53
606.155	1797.76
606.356	1762.7
606.556	1777.03
606.756	1763.47
606.956	1701.67
607.156	1763.47
607.356	1739.45
607.556	1716
607.756	1740.03
607.956	1776.26
608.156	1755.33
608.356	1692.95
608.556	1727.82
608.756	1736.73
608.956	1692.75
609.156	1735.77
609.356	1668.53
609.556	1688.1
609.755	1711.16
609.955	1666.79
610.155	1709.03
610.355	1693.92
610.555	1694.5
610.755	1685
610.954	1650.9
611.154	1679.97
611.354	1711.74
611.554	1657.3
611.753	1692.95
611.953	1629.79
612.153	1700.12
612.352	1671.63
612.552	1621.84
612.752	1604.02
612.951	1651.87
613.151	1651.1
613.351	1599.37
613.55	1633.85
613.75	1682.1
613.949	1623.2
614.149	1648.19
614.348	1595.1
614.548	1595.69
614.747	1579.99
614.947	1638.5
615.146	1550.35
615.346	1640.64
615.545	1619.9
