Data from oakcork_FLMT105791__226__17-32-57-045.txt Node

Date: Mon Mar 20 17:32:57 GMT 2023
User: antho
Spectrometer: FLMT10579
Trigger mode: 0
Integration Time (sec): 1.000000E-1
Scans to average: 10
Electric dark correction enabled: true
Nonlinearity correction enabled: false
Boxcar width: 0
XAxis mode: Wavelengths
Number of Pixels in Spectrum: 3648
>>>>>Begin Spectral Data<<<<<
345.248	-162.04
345.464	-162.04
345.681	-162.04
345.898	-172.5
346.114	-139.56
346.331	-17.7
346.548	11.17
346.764	-24.67
346.981	2.45
347.197	-5.1
347.414	10.98
347.631	-24.67
347.847	55.93
348.064	2.26
348.28	30.93
348.497	-31.65
348.713	-9.95
348.93	10.59
349.146	17.37
349.363	-25.64
349.579	41.2
349.796	0.9
350.012	-14.79
350.229	16.02
350.445	3.23
350.661	-21.76
350.878	10.4
351.094	15.44
351.311	10.98
351.527	17.37
351.743	-13.43
351.96	54.77
352.176	53.6
352.392	26.87
352.609	41.01
352.825	13.89
353.041	9.62
353.257	22.6
353.474	32.48
353.69	3.04
353.906	34.42
354.122	-10.91
354.339	76.85
354.555	28.22
354.771	2.84
354.987	65.62
355.203	55.54
355.42	-3.75
355.636	4.97
355.852	-23.7
356.068	8.07
356.284	-31.65
356.5	85.18
356.716	16.4
356.932	21.25
357.148	34.62
357.364	2.65
357.58	28.22
357.796	59.61
358.012	61.55
358.228	17.95
358.444	-27.77
358.66	26.67
358.876	38.1
359.092	-11.3
359.308	9.43
359.524	36.36
359.74	-2.97
359.956	2.26
360.172	-3.36
360.388	49.53
360.604	21.64
360.819	100.3
361.035	32.1
361.251	22.6
361.467	11.17
361.683	65.81
361.898	30.16
362.114	61.93
362.33	10.98
362.546	26.29
362.762	11.37
362.977	19.31
363.193	-8.59
363.409	22.22
363.624	-23.9
363.84	-12.85
364.056	9.24
364.271	72.78
364.487	22.41
364.703	-15.18
364.918	-33.78
365.134	13.11
365.35	21.05
365.565	101.46
365.781	19.12
365.996	16.21
366.212	69.49
366.427	38.88
366.643	4.59
366.858	0.9
367.074	-12.08
367.289	66.78
367.505	109.21
367.72	-11.69
367.936	17.57
368.151	50.5
368.367	46.43
368.582	10.98
368.798	18.54
369.013	35.97
369.228	24.54
369.444	19.89
369.659	53.22
369.874	50.89
370.09	75.11
370.305	-35.13
370.52	-1.61
370.736	82.08
370.951	35.58
371.166	38.88
371.381	85.77
371.597	41.98
371.812	-1.23
372.027	-18.28
372.242	27.06
372.458	91.19
372.673	20.28
372.888	22.41
373.103	52.44
373.318	111.73
373.533	29.77
373.749	38.49
373.964	-29.71
374.179	75.88
374.394	8.46
374.609	62.13
374.824	4.2
375.039	69.49
375.254	-10.53
375.469	44.69
375.684	29.77
375.899	63.48
376.114	4.97
376.329	22.02
376.544	64.65
376.759	19.7
376.974	32.1
377.189	8.46
377.404	32.87
377.619	95.07
377.834	-6.85
378.049	-13.82
378.264	-16.92
378.478	41.2
378.693	24.15
378.908	65.62
379.123	11.17
379.338	78.79
379.553	53.6
379.767	34.03
379.982	54.57
380.197	54.18
380.412	33.65
380.626	60.58
380.841	141.76
381.056	50.89
381.271	103.2
381.485	44.69
381.7	25.32
381.915	47.79
382.129	20.67
382.344	45.66
382.559	16.99
382.773	82.86
382.988	-18.08
383.202	62.9
383.417	-23.9
383.632	105.14
383.846	41.01
384.061	52.44
384.275	12.53
384.49	71.43
384.704	72.4
384.919	44.5
385.133	50.89
385.348	72.4
385.562	12.14
385.777	91
385.991	41.2
386.206	19.31
386.42	44.3
386.634	66.39
386.849	40.43
387.063	32.87
387.277	1.87
387.492	32.87
387.706	11.56
387.92	8.85
388.135	93.71
388.349	65.62
388.563	45.66
388.778	51.67
388.992	50.5
389.206	73.17
389.42	120.83
389.635	66.58
389.849	93.9
390.063	91.58
390.277	65.42
390.491	121.22
390.706	72.4
390.92	87.9
391.134	72.78
391.348	86.54
391.562	16.21
391.776	38.68
391.99	35.2
392.205	61.93
392.419	34.23
392.633	67.17
392.847	77.63
393.061	38.3
393.275	115.99
393.489	64.26
393.703	66.78
393.917	52.44
394.131	23.19
394.345	93.71
394.559	82.47
394.773	49.53
394.986	79.95
395.2	56.9
395.414	106.88
395.628	32.68
395.842	61.35
396.056	51.08
396.27	4.78
396.484	67.17
396.697	69.3
396.911	97.39
397.125	55.73
397.339	67.36
397.553	75.5
397.766	106.88
397.98	83.44
398.194	118.51
398.408	96.03
398.621	100.1
398.835	93.13
399.049	87.51
399.262	123.16
399.476	117.15
399.69	138.27
399.903	159.78
400.117	78.79
400.331	131.88
400.544	89.83
400.758	215.19
400.971	119.48
401.185	125.29
401.398	80.73
401.612	165.59
401.826	106.88
402.039	119.86
402.253	90.61
402.466	115.6
402.68	107.66
402.893	117.93
403.106	112.89
403.32	112.12
403.533	144.08
403.747	135.36
403.96	135.56
404.174	136.14
404.387	88.48
404.6	147.57
404.814	140.79
405.027	106.88
405.24	128.2
405.454	93.9
405.667	159.39
405.88	68.13
406.094	135.36
406.307	135.36
406.52	128.2
406.733	111.34
406.947	73.17
407.16	178.96
407.373	164.23
407.586	92.55
407.799	102.04
408.012	148.73
408.226	148.35
408.439	187.29
408.652	89.83
408.865	144.47
409.078	180.7
409.291	167.91
409.504	95.45
409.717	138.27
409.93	145.44
410.143	135.75
410.357	92.93
410.57	72.98
410.783	123.35
410.996	134.98
411.209	122.58
411.421	160.16
411.634	138.66
411.847	128.78
412.06	162.68
412.273	134.59
412.486	132.07
412.699	227.59
412.912	161.71
413.125	182.64
413.338	138.85
413.55	176.05
413.763	143.5
413.976	173.92
414.189	139.05
414.402	104.95
414.615	199.69
414.827	131.49
415.04	173.34
415.253	164.04
415.466	194.26
415.678	213.44
415.891	155.9
416.104	171.4
416.316	158.42
416.529	164.04
416.742	171.98
416.954	202.6
417.167	158.03
417.38	147.57
417.592	179.54
417.805	145.63
418.017	110.95
418.23	193.88
418.442	133.04
418.655	156.87
418.868	161.13
419.08	173.15
419.293	204.14
419.505	193.3
419.718	181.67
419.93	183.8
420.142	143.11
420.355	192.13
420.567	210.15
420.78	183.41
420.992	191.55
421.205	199.3
421.417	122
421.629	158.23
421.842	149.9
422.054	125.29
422.266	216.54
422.479	206.66
422.691	179.73
422.903	176.05
423.115	155.71
423.328	168.88
423.54	166.56
423.752	171.21
423.964	174.5
424.177	198.91
424.389	169.85
424.601	273.51
424.813	180.9
425.025	220.61
425.238	210.15
425.45	150.86
425.662	161.91
425.874	431.02
426.086	172.37
426.298	212.86
426.51	202.98
426.722	194.46
426.934	170.82
427.146	205.69
427.358	161.52
427.57	221.97
427.782	166.95
427.994	173.34
428.206	183.61
428.418	142.73
428.63	205.31
428.842	232.04
429.054	199.88
429.266	225.84
429.478	170.82
429.69	198.53
429.902	134.78
430.114	202.6
430.325	201.43
430.537	147.76
430.749	171.6
430.961	113.08
431.173	169.27
431.384	190
431.596	122
431.808	197.75
432.02	191.16
432.231	239.99
432.443	233.4
432.655	222.74
432.867	182.25
433.078	237.86
433.29	253.74
433.502	274.86
433.713	286.29
433.925	217.13
434.136	255.1
434.348	181.67
434.56	162.1
434.771	276.41
434.983	176.63
435.194	210.73
435.406	231.46
435.617	247.74
435.829	288.62
436.04	254.13
436.252	249.29
436.463	259.94
436.675	279.13
436.886	294.82
437.098	248.9
437.309	331.63
437.521	247.35
437.732	249.09
437.943	265.18
438.155	255.49
438.366	214.41
438.578	321.17
438.789	246.19
439	277.96
439.211	247.35
439.423	272.54
439.634	283
439.845	313.03
440.057	275.64
440.268	287.46
440.479	247.35
440.69	267.31
440.902	245.41
441.113	267.5
441.324	278.16
441.535	288.23
441.746	336.67
441.957	239.41
442.168	265.76
442.38	311.48
442.591	325.43
442.802	276.41
443.013	294.82
443.224	318.46
443.435	290.75
443.646	279.9
443.857	285.13
444.068	274.09
444.279	253.55
444.49	366.89
444.701	270.99
444.912	398.67
445.123	325.43
445.334	313.42
445.545	324.66
445.756	285.71
445.967	272.93
446.178	284.74
446.388	324.27
446.599	322.91
446.81	331.05
447.021	279.9
447.232	326.79
447.443	383.94
447.653	288.04
447.864	350.42
448.075	319.81
448.286	372.71
448.496	331.82
448.707	365.54
448.918	302.37
449.129	369.02
449.339	315.94
449.55	365.73
449.761	351.2
449.971	378.13
450.182	327.95
450.393	380.07
450.603	319.23
450.814	381.42
451.024	375.03
451.235	386.46
451.446	431.6
451.656	402.93
451.867	325.62
452.077	402.93
452.288	414.75
452.498	406.61
452.709	356.43
452.919	354.88
453.13	338.8
453.34	383.36
453.55	319.23
453.761	388.01
453.971	364.76
454.182	388.2
454.392	367.09
454.602	427.34
454.813	406.8
455.023	385.49
455.233	330.27
455.444	389.95
455.654	295.4
455.864	357.21
456.075	369.22
456.285	371.74
456.495	369.02
456.705	392.66
456.916	424.24
457.126	437.22
457.336	388.4
457.546	351.78
457.756	373.29
457.967	442.84
458.177	372.12
458.387	408.94
458.597	374.45
458.807	360.5
459.017	376.39
459.227	337.06
459.437	376.39
459.647	426.57
459.857	438.19
460.068	372.32
460.278	435.09
460.488	404.87
460.698	447.49
460.908	408.16
461.117	351.78
461.327	361.86
461.537	406.42
461.747	395.37
461.957	406.61
462.167	512.01
462.377	444.59
462.587	380.84
462.797	450.98
463.007	419.4
463.216	448.65
463.426	469.77
463.636	461.25
463.846	398.67
464.056	390.72
464.265	448.65
464.475	384.14
464.685	430.05
464.895	479.85
465.104	448.85
465.314	460.86
465.524	406.03
465.733	401.96
465.943	495.73
466.153	497.48
466.362	486.24
466.572	452.14
466.782	421.14
466.991	436.84
467.201	477.33
467.41	394.02
467.62	460.09
467.829	469.77
468.039	475
468.249	453.5
468.458	457.37
468.668	480.62
468.877	490.12
469.086	502.13
469.296	524.6
469.505	445.17
469.715	533.71
469.924	491.28
470.134	543.2
470.343	522.08
470.552	480.23
470.762	488.37
470.971	439.35
471.18	472.29
471.39	484.88
471.599	465.7
471.808	496.9
472.018	518.21
472.227	533.32
472.436	555.21
472.645	509.68
472.855	485.66
473.064	593
473.273	540.1
473.482	536.23
473.691	588.93
473.901	564.51
474.11	535.65
474.319	613.73
474.528	557.35
474.737	602.3
474.946	599.2
475.155	568.78
475.364	617.21
475.573	549.79
475.783	599.39
475.992	576.33
476.201	586.02
476.41	571.49
476.619	569.36
476.828	604.04
477.037	567.23
477.245	572.85
477.454	614.31
477.663	588.93
477.872	588.93
478.081	675.34
478.29	612.18
478.499	719.71
478.708	631.94
478.917	699.56
479.125	617.99
479.334	656.54
479.543	623.41
479.752	673.79
479.961	670.69
480.169	685.8
480.378	658.87
480.587	784.22
480.796	702.46
481.004	685.99
481.213	718.93
481.422	720.68
481.63	708.86
481.839	735.98
482.048	787.71
482.256	715.06
482.465	736.17
482.674	737.72
482.882	721.26
483.091	753.61
483.299	745.28
483.508	748.19
483.716	758.65
483.925	764.85
484.134	738.11
484.342	745.67
484.551	793.14
484.759	761.56
484.967	794.3
485.176	798.37
485.384	800.31
485.593	807.67
485.801	783.45
486.01	775.51
486.218	697.23
486.426	648.79
486.635	699.94
486.843	691.81
487.051	710.6
487.26	713.89
487.468	757.68
487.676	793.72
487.885	746.64
488.093	771.05
488.301	792.94
488.509	813.29
488.717	834.79
488.926	815.61
489.134	795.27
489.342	803.6
489.55	775.7
489.758	818.32
489.967	816.58
490.175	914.03
490.383	834.6
490.591	921.98
490.799	826.27
491.007	896.99
491.215	898.34
491.423	887.49
491.631	852.81
491.839	864.24
492.047	885.17
492.255	851.26
492.463	839.64
492.671	813.67
492.879	905.32
493.087	858.43
493.295	937.28
493.503	924.88
493.711	948.91
493.919	949.68
494.127	941.74
494.334	967.51
494.542	922.95
494.75	968.09
494.958	924.69
495.166	1001.8
495.374	953.95
495.581	972.74
495.789	971.97
495.997	1027.76
496.205	935.54
496.412	954.14
496.62	942.13
496.828	928.95
497.035	974.1
497.243	974.87
497.451	980.3
497.658	983.4
497.866	976.62
498.074	1046.95
498.281	956.27
498.489	1039.78
498.696	986.5
498.904	930.12
499.112	971.19
499.319	1022.34
499.527	1000.45
499.734	1031.45
499.942	980.3
500.149	968.87
500.357	1008
500.564	962.86
500.771	972.35
500.979	926.63
501.186	948.72
501.394	983.59
501.601	923.72
501.808	984.95
502.016	971.77
502.223	927.79
502.43	976.03
502.638	964.6
502.845	928.95
503.052	1004.9
503.26	990.56
503.467	1068.65
503.674	982.82
503.881	1019.05
504.089	1073.3
504.296	1011.3
504.503	961.7
504.71	988.43
504.917	954.33
505.125	995.6
505.332	1005.29
505.539	1027.76
505.746	1101.19
505.953	1092.48
506.16	1080.27
506.367	1124.06
506.574	1079.49
506.781	1128.32
506.988	1061.86
507.195	1066.71
507.402	1070.39
507.609	1059.73
507.816	1012.26
508.023	1049.27
508.23	1032.41
508.437	1028.35
508.644	1094.8
508.851	1090.34
509.058	1094.8
509.265	1105.65
509.472	1130.84
509.679	1196.91
509.885	1073.68
510.092	1081.82
510.299	1076.78
510.506	1101.78
510.713	1114.76
510.92	1098.68
511.126	1112.82
511.333	1152.93
511.54	1142.27
511.746	1205.62
511.953	1194.19
512.16	1179.47
512.367	1132.19
512.573	1134.13
512.78	1107.39
512.987	1144.98
513.193	1138.01
513.4	1050.82
513.606	1126.77
513.813	1138.2
514.02	1152.34
514.226	1217.06
514.433	1153.51
514.639	1110.49
514.846	1101
515.052	1083.37
515.259	1142.08
515.465	1160.09
515.672	1137.23
515.878	1228.29
516.085	1121.73
516.291	1176.37
516.497	1141.88
516.704	1139.36
516.91	1078.33
517.117	1021.95
517.323	1008.39
517.529	1059.54
517.736	1038.23
517.942	1022.73
518.148	1056.44
518.354	1094.22
518.561	1111.46
518.767	1108.36
518.973	1162.03
519.179	1141.3
519.386	1077.94
519.592	1140.91
519.798	1126.38
520.004	1194.97
520.21	1164.94
520.417	1206.21
520.623	1265.69
520.829	1246.7
521.035	1232.36
521.241	1237.98
521.447	1239.34
521.653	1337.57
521.859	1250.57
522.065	1232.56
522.271	1346.67
522.477	1276.92
522.683	1353.26
522.889	1310.05
523.095	1288.16
523.301	1281.19
523.507	1243.99
523.713	1278.47
523.919	1234.88
524.125	1347.64
524.331	1328.65
524.537	1364.88
524.742	1351.71
524.948	1365.66
525.154	1378.25
525.36	1438.12
525.566	1346.09
525.772	1389.1
525.977	1313.74
526.183	1372.05
526.389	1387.17
526.595	1330.2
526.8	1314.32
527.006	1266.46
527.212	1244.57
527.417	1231.39
527.623	1235.46
527.829	1328.85
528.034	1315.09
528.24	1353.26
528.446	1311.6
528.651	1399.95
528.857	1410.03
529.062	1468.15
529.268	1408.87
529.473	1441.03
529.679	1446.45
529.884	1510.97
530.09	1487.14
530.295	1498.57
530.501	1455.56
530.706	1453.23
530.912	1426.11
531.117	1470.86
531.323	1487.33
531.528	1496.44
531.733	1548.56
531.939	1485.01
532.144	1518.72
532.35	1461.56
532.555	1521.43
532.76	1478.81
532.966	1493.34
533.171	1477.65
533.376	1464.66
533.581	1471.45
533.787	1480.36
533.992	1497.41
534.197	1535.38
534.402	1444.51
534.607	1470.67
534.813	1606.87
535.018	1514.84
535.223	1515.04
535.428	1552.82
535.633	1582.85
535.838	1582.27
536.043	1603.39
536.249	1665.77
536.454	1571.81
536.659	1586.73
536.864	1548.36
537.069	1553.98
537.274	1560.57
537.479	1559.41
537.684	1585.37
537.889	1537.13
538.094	1682.05
538.299	1574.91
538.504	1616.95
538.708	1612.11
538.913	1649.5
539.118	1636.13
539.323	1584.4
539.528	1566.19
539.733	1616.95
539.938	1592.93
540.142	1604.94
540.347	1601.45
540.552	1573.16
540.757	1572.97
540.962	1558.24
541.166	1542.74
541.371	1531.89
541.576	1542.74
541.781	1498.76
541.985	1615.01
542.19	1593.51
542.395	1647.17
542.599	1672.36
542.804	1639.23
543.008	1645.04
543.213	1570.84
543.418	1588.66
543.622	1641.75
543.827	1599.9
544.031	1681.47
544.236	1699.87
544.44	1667.13
544.645	1737.65
544.849	1661.32
545.054	1670.23
545.258	1752.19
545.463	1718.86
545.667	1655.7
545.872	1688.83
546.076	1689.22
546.281	1668.87
546.485	1649.11
546.689	1666.36
546.894	1682.63
547.098	1677.98
547.302	1634.19
547.507	1656.09
547.711	1682.24
547.915	1737.07
548.119	1662.29
548.324	1676.43
548.528	1707.62
548.732	1682.63
548.936	1720.8
549.141	1729.52
549.345	1658.8
549.549	1706.65
549.753	1734.75
549.957	1765.36
550.161	1761.87
550.366	1708.4
550.57	1683.21
550.774	1702.39
550.978	1709.56
551.182	1760.13
551.386	1666.94
551.59	1692.9
551.794	1680.31
551.998	1704.91
552.202	1679.14
552.406	1678.95
552.61	1733
552.814	1712.47
553.018	1763.62
553.222	1704.52
553.426	1695.61
553.63	1776.98
553.833	1685.54
554.037	1683.6
554.241	1722.74
554.445	1709.37
554.649	1711.11
554.853	1676.43
555.056	1775.24
555.26	1750.25
555.464	1763.62
555.668	1770.79
555.871	1750.25
556.075	1769.82
556.279	1717.5
556.483	1696.58
556.686	1697.55
556.89	1735.52
557.094	1713.44
557.297	1650.08
557.501	1715.37
557.704	1667.32
557.908	1733.97
558.112	1682.05
558.315	1715.57
558.519	1682.24
558.722	1646.59
558.926	1649.11
559.129	1589.63
559.333	1623.54
559.536	1615.59
559.74	1580.72
559.943	1569.87
560.147	1580.91
560.35	1627.61
560.553	1602.03
560.757	1531.31
560.96	1685.92
561.164	1608.04
561.367	1642.14
561.57	1640.59
561.774	1629.35
561.977	1622.18
562.18	1620.63
562.384	1685.54
562.587	1602.81
562.79	1594.86
562.993	1601.06
563.197	1659.57
563.4	1708.4
563.603	1647.76
563.806	1739.01
564.009	1582.46
564.212	1609.01
564.416	1536.74
564.619	1630.12
564.822	1532.67
565.025	1633.42
565.228	1617.53
565.431	1594.86
565.634	1507.68
565.837	1559.02
566.04	1535.38
566.243	1541.58
566.446	1446.84
566.649	1549.14
566.852	1487.33
567.055	1478.81
567.258	1550.3
567.461	1572.97
567.664	1587.89
567.867	1485.78
568.07	1535.58
568.273	1545.46
568.475	1567.93
568.678	1476.87
568.881	1482.3
569.084	1485.78
569.287	1444.32
569.489	1419.33
569.692	1472.41
569.895	1511.16
570.098	1418.17
570.3	1403.25
570.503	1389.49
570.706	1429.01
570.909	1399.95
571.111	1362.75
571.314	1374.96
571.516	1348.8
571.719	1416.03
571.922	1350.16
572.124	1380.58
572.327	1401.89
572.529	1358.88
572.732	1325.94
572.935	1369.53
573.137	1443.74
573.34	1351.71
573.542	1401.7
573.745	1419.13
573.947	1425.14
574.15	1389.88
574.352	1360.82
574.554	1428.05
574.757	1329.43
574.959	1325.75
575.162	1334.66
575.364	1320.9
575.566	1399.37
575.769	1301.14
575.971	1338.15
576.173	1237.21
576.376	1352.48
576.578	1342.41
576.78	1378.25
576.982	1234.88
577.185	1306.76
577.387	1267.04
577.589	1268.4
577.791	1314.7
577.993	1337.37
578.196	1331.75
578.398	1288.74
578.6	1317.8
578.802	1270.14
579.004	1272.47
579.206	1266.85
579.408	1308.12
579.61	1246.7
579.812	1319.55
580.014	1266.85
580.216	1289.9
580.418	1255.42
580.62	1256.58
580.822	1226.36
581.024	1285.84
581.226	1345.9
581.428	1319.35
581.63	1359.07
581.832	1233.14
582.034	1346.09
582.236	1289.9
582.438	1360.04
582.64	1361.2
582.841	1373.02
583.043	1414.68
583.245	1325.36
583.447	1336.6
583.649	1303.47
583.85	1311.8
584.052	1353.45
584.254	1268.79
584.456	1359.27
584.657	1274.02
584.859	1324.78
585.061	1309.67
585.262	1274.6
585.464	1260.45
585.666	1308.89
585.867	1253.67
586.069	1375.73
586.27	1311.02
586.472	1293.97
586.674	1258.52
586.875	1275.95
587.077	1309.47
587.278	1293
587.48	1247.47
587.681	1378.25
587.883	1282.74
588.084	1245.92
588.285	1227.71
588.487	1220.54
588.688	1244.96
588.89	1168.62
589.091	1152.54
589.292	1174.82
589.494	1125.41
589.695	1104.68
589.896	1061.86
590.098	1055.66
590.299	1099.45
590.5	1091.51
590.702	1123.67
590.903	1132.39
591.104	1199.23
591.305	1190.71
591.507	1204.07
591.708	1207.17
591.909	1177.53
592.11	1227.91
592.311	1177.92
592.512	1173.07
592.714	1119.02
592.915	1115.92
593.116	1173.66
593.317	1198.46
593.518	1160.48
593.719	1145.18
593.92	1146.92
594.121	1229.46
594.322	1147.31
594.523	1167.26
594.724	1081.43
594.925	1148.08
595.126	1167.46
595.327	1184.7
595.528	1140.53
595.729	1150.6
595.929	1154.09
596.13	1176.76
596.331	1161.45
596.532	1172.11
596.733	1246.51
596.934	1203.49
597.135	1228.49
597.335	1228.1
597.536	1177.14
597.737	1155.64
597.938	1172.3
598.138	1210.08
598.339	1190.12
598.54	1206.01
598.74	1156.22
598.941	1181.02
599.142	1228.87
599.342	1183.15
599.543	1117.86
599.744	1175.59
599.944	1165.13
600.145	1162.81
600.345	1225.39
600.546	1229.46
600.746	1206.4
600.947	1254.25
601.147	1173.07
601.348	1224.81
601.548	1164.74
601.749	1224.42
601.949	1135.88
602.15	1167.26
602.35	1159.51
602.551	1211.82
602.751	1144.01
602.951	1172.3
603.152	1140.91
603.352	1184.89
603.552	1181.99
603.753	1201.94
603.953	1199.42
604.153	1152.73
604.354	1152.73
604.554	1187.41
604.754	1206.98
604.954	1127.35
605.155	1205.04
605.355	1186.06
605.555	1206.98
605.755	1255.42
605.955	1189.74
606.155	1213.18
606.356	1201.17
606.556	1179.47
606.756	1172.88
606.956	1135.88
607.156	1227.71
607.356	1137.43
607.556	1172.69
607.756	1196.52
607.956	1219.19
608.156	1170.56
608.356	1138.01
608.556	1227.91
608.756	1164.16
608.956	1173.46
609.156	1163
609.356	1136.46
609.556	1149.24
609.755	1167.26
609.955	1138.78
610.155	1142.08
610.355	1139.17
610.555	1095.19
610.755	1140.14
610.954	1070.2
611.154	1136.65
611.354	1155.44
611.554	1121.73
611.753	1119.02
611.953	1087.83
612.153	1123.67
612.352	1127.35
612.552	1058.57
612.752	1068.45
612.951	1132.58
613.151	1123.67
613.351	1074.07
613.55	1077.56
613.75	1119.41
613.949	1118.24
614.149	1113.01
614.348	1087.05
614.548	1076.01
614.747	1034.55
614.947	1059.73
615.146	1019.24
615.346	1091.7
615.545	1101.39
615.745	1119.79
615.944	1113.79
616.144	1091.12
616.343	1087.24
616.542	1092.86
616.742	1068.65
616.941	1062.45
617.14	974.48
617.34	1047.72
