Data from oakcork_FLMT105791__273__17-34-19-052.txt Node

Date: Mon Mar 20 17:34:19 GMT 2023
User: antho
Spectrometer: FLMT10579
Trigger mode: 0
Integration Time (sec): 1.000000E-1
Scans to average: 10
Electric dark correction enabled: true
Nonlinearity correction enabled: false
Boxcar width: 0
XAxis mode: Wavelengths
Number of Pixels in Spectrum: 3648
>>>>>Begin Spectral Data<<<<<
345.248	-153.87
345.464	-153.87
345.681	-153.87
345.898	-151.93
346.114	-129.46
346.331	-33.55
346.548	25.93
346.764	-3.52
346.981	-1
347.197	-16.5
347.414	6.94
347.631	-20.18
347.847	77.66
348.064	-27.35
348.28	30.39
348.497	-35.1
348.713	-3.71
348.93	41.24
349.146	0.74
349.363	6.75
349.579	10.04
349.796	3.84
350.012	-16.31
350.229	34.07
350.445	5.01
350.661	-12.63
350.878	5.59
351.094	10.82
351.311	10.24
351.527	23.41
351.743	-12.24
351.96	9.27
352.176	24.57
352.392	34.07
352.609	40.07
352.825	8.88
353.041	-3.91
353.257	-7.2
353.474	1.32
353.69	4.42
353.906	32.52
354.122	-30.06
354.339	42.59
354.555	37.36
354.771	-5.46
354.987	44.34
355.203	35.42
355.42	-18.24
355.636	-30.64
355.852	-14.18
356.068	-2.16
356.284	-25.8
356.5	7.72
356.716	30.97
356.932	24.96
357.148	36
357.364	21.67
357.58	23.6
357.796	66.81
358.012	43.95
358.228	30.58
358.444	-52.34
358.66	34.84
358.876	16.44
359.092	-17.47
359.308	23.6
359.524	15.08
359.74	14.69
359.956	-6.04
360.172	-3.33
360.388	30.58
360.604	-8.75
360.819	67.39
361.035	-0.81
361.251	19.73
361.467	-11.66
361.683	55.19
361.898	15.66
362.114	35.42
362.33	27.09
362.546	27.48
362.762	8.11
362.977	19.54
363.193	3.46
363.409	26.32
363.624	6.94
363.84	3.65
364.056	4.04
364.271	34.07
364.487	5.59
364.703	-16.69
364.918	-7.01
365.134	16.05
365.35	-26.58
365.565	80.95
365.781	31.16
365.996	11.98
366.212	46.66
366.427	26.7
366.643	-13.98
366.858	-1.58
367.074	13.53
367.289	54.99
367.505	104.98
367.72	-27.93
367.936	13.34
368.151	59.45
368.367	32.13
368.582	4.23
368.798	20.12
369.013	61.39
369.228	16.44
369.444	19.34
369.659	62.94
369.874	38.14
370.09	65.84
370.305	-37.04
370.52	4.81
370.736	40.65
370.951	-16.69
371.166	49.18
371.381	68.36
371.597	54.6
371.812	-22.7
372.027	3.26
372.242	-2.94
372.458	74.17
372.673	8.49
372.888	3.07
373.103	19.92
373.318	79.02
373.533	22.05
373.749	41.43
373.964	-6.23
374.179	59.84
374.394	-1.39
374.609	69.52
374.824	-8.36
375.039	54.02
375.254	16.44
375.469	72.24
375.684	-3.91
375.899	63.13
376.114	35.23
376.329	31.55
376.544	29.42
376.759	42.01
376.974	-2.36
377.189	0.55
377.404	5.39
377.619	41.82
377.834	-35.49
378.049	-37.43
378.264	-11.08
378.478	15.08
378.693	16.05
378.908	30.97
379.123	17.4
379.338	60.03
379.553	30.39
379.767	25.74
379.982	53.25
380.197	39.69
380.412	42.59
380.626	22.05
380.841	65.45
381.056	21.28
381.271	68.75
381.485	-0.03
381.7	1.13
381.915	44.53
382.129	3.46
382.344	31.55
382.559	14.11
382.773	61.97
382.988	-27.93
383.202	40.27
383.417	-0.23
383.632	100.72
383.846	26.51
384.061	37.94
384.275	10.43
384.49	11.59
384.704	44.92
384.919	32.71
385.133	38.33
385.348	44.14
385.562	-10.11
385.777	54.8
385.991	18.18
386.206	33.49
386.42	17.6
386.634	67.78
386.849	50.15
387.063	37.55
387.277	-0.03
387.492	-9.91
387.706	16.24
387.92	-5.84
388.135	45.69
388.349	31.16
388.563	53.44
388.778	51.5
388.992	57.9
389.206	62.74
389.42	85.8
389.635	17.79
389.849	31.16
390.063	76.89
390.277	34.84
390.491	83.67
390.706	47.82
390.92	67.78
391.134	39.69
391.348	34.26
391.562	-2.16
391.776	27.48
391.99	25.35
392.205	63.71
392.419	22.25
392.633	9.85
392.847	85.99
393.061	27.48
393.275	67.2
393.489	30.39
393.703	40.46
393.917	47.44
394.131	13.92
394.345	69.72
394.559	49.18
394.773	23.02
394.986	55.96
395.2	27.87
395.414	56.35
395.628	14.5
395.842	35.62
396.056	-6.04
396.27	-28.71
396.484	55.38
396.697	43.17
396.911	74.95
397.125	46.85
397.339	52.47
397.553	43.37
397.766	68.94
397.98	67.59
398.194	68.55
398.408	11.59
398.621	67.2
398.835	70.88
399.049	29.03
399.262	94.13
399.476	51.5
399.69	68.94
399.903	102.85
400.117	55.96
400.331	86.57
400.544	35.42
400.758	140.43
400.971	53.44
401.185	74.56
401.398	31.16
401.612	94.13
401.826	68.36
402.039	70.69
402.253	34.45
402.466	61
402.68	54.8
402.893	50.15
403.106	53.25
403.32	12.56
403.533	54.41
403.747	66.42
403.96	46.85
404.174	67.2
404.387	18.37
404.6	34.84
404.814	82.89
405.027	53.83
405.24	47.44
405.454	53.64
405.667	84.44
405.88	11.79
406.094	79.6
406.307	76.5
406.52	46.27
406.733	32.32
406.947	-4.49
407.16	105.95
407.373	108.66
407.586	36
407.799	35.04
408.012	90.84
408.226	60.22
408.439	102.07
408.652	24.77
408.865	75.34
409.078	92
409.291	74.17
409.504	11.59
409.717	74.75
409.93	73.2
410.143	66.23
410.357	5.97
410.57	13.72
410.783	59.06
410.996	68.94
411.209	52.47
411.421	71.85
411.634	26.9
411.847	1.32
412.06	67.97
412.273	70.88
412.486	83.47
412.699	149.35
412.912	38.33
413.125	78.05
413.338	79.79
413.55	95.1
413.763	61
413.976	93.35
414.189	41.43
414.402	59.64
414.615	100.72
414.827	58.67
415.04	73.98
415.253	87.15
415.466	77.47
415.678	114.28
415.891	61.39
416.104	71.46
416.316	65.84
416.529	50.54
416.742	102.07
416.954	95.68
417.167	42.79
417.38	56.35
417.592	83.47
417.805	47.05
418.017	17.79
418.23	96.07
418.442	52.86
418.655	35.04
418.868	93.35
419.08	94.9
419.293	80.76
419.505	92.97
419.718	81.15
419.93	113.31
420.142	78.24
420.355	111.37
420.567	130.17
420.78	87.93
420.992	80.37
421.205	109.43
421.417	43.17
421.629	53.64
421.842	44.72
422.054	23.41
422.266	80.18
422.479	116.41
422.691	32.52
422.903	73.98
423.115	70.3
423.328	81.73
423.54	69.91
423.752	58.87
423.964	75.72
424.177	86.19
424.389	67.78
424.601	184.61
424.813	87.74
425.025	101.69
425.238	90.25
425.45	65.65
425.662	73.79
425.874	329.73
426.086	68.94
426.298	83.86
426.51	74.95
426.722	88.9
426.934	53.05
427.146	118.73
427.358	33.68
427.57	129.58
427.782	64.87
427.994	75.72
428.206	54.6
428.418	32.9
428.63	99.17
428.842	92.39
429.054	72.24
429.266	110.21
429.478	46.27
429.69	80.95
429.902	13.92
430.114	114.08
430.325	88.9
430.537	63.71
430.749	91.42
430.961	56.35
431.173	54.22
431.384	100.33
431.596	38.72
431.808	44.72
432.02	106.92
432.231	95.68
432.443	107.88
432.655	54.22
432.867	60.42
433.078	103.82
433.29	154.19
433.502	104.59
433.713	96.07
433.925	102.65
434.136	121.83
434.348	59.25
434.56	53.83
434.771	193.52
434.983	43.75
435.194	41.04
435.406	73.98
435.617	136.17
435.829	138.69
436.04	124.16
436.252	98.39
436.463	128.62
436.675	135.4
436.886	130.75
437.098	93.94
437.309	141.98
437.521	97.81
437.732	132.49
437.943	105.95
438.155	114.08
438.366	45.89
438.578	143.15
438.789	102.65
439	137.72
439.211	115.63
439.423	117.57
439.634	112.53
439.845	133.85
440.057	94.9
440.268	128.23
440.479	104.78
440.69	128.23
440.902	113.89
441.113	93.55
441.324	109.05
441.535	96.07
441.746	172.79
441.957	94.71
442.168	75.72
442.38	131.33
442.591	144.31
442.802	66.42
443.013	70.88
443.224	108.27
443.435	104.98
443.646	89.67
443.857	106.33
444.068	90.64
444.279	105.56
444.49	175.7
444.701	123.19
444.912	213.48
445.123	136.95
445.334	119.12
445.545	111.76
445.756	127.65
445.967	85.22
446.178	119.9
446.388	154.97
446.599	139.27
446.81	147.99
447.021	136.17
447.232	155.55
447.443	178.8
447.653	94.32
447.864	148.57
448.075	111.95
448.286	165.82
448.496	131.52
448.707	129.2
448.918	144.7
449.129	202.82
449.339	110.98
449.55	137.53
449.761	117.18
449.971	170.08
450.182	114.28
450.393	170.27
450.603	116.99
450.814	154.77
451.024	160.39
451.235	168.92
451.446	161.17
451.656	192.55
451.867	124.93
452.077	149.93
452.288	185.77
452.498	212.12
452.709	140.63
452.919	155.74
453.13	112.92
453.34	192.55
453.55	98
453.761	178.41
453.971	125.32
454.182	148.77
454.392	145.86
454.602	235.18
454.813	150.12
455.023	156.71
455.233	99.36
455.444	155.74
455.654	89.09
455.864	113.31
456.075	122.42
456.285	117.96
456.495	147.22
456.705	138.88
456.916	178.6
457.126	200.88
457.336	149.35
457.546	113.5
457.756	121.06
457.967	195.46
458.177	129.2
458.387	155.55
458.597	131.72
458.807	124.16
459.017	139.66
459.227	153.8
459.437	160.78
459.647	185
459.857	164.27
460.068	125.9
460.278	171.24
460.488	152.45
460.698	190.42
460.908	144.5
461.117	111.18
461.327	137.53
461.537	125.13
461.747	151.48
461.957	136.56
462.167	250.1
462.377	185.38
462.587	158.65
462.797	182.09
463.007	159.81
463.216	172.4
463.426	226.07
463.636	187.71
463.846	119.12
464.056	147.99
464.265	206.7
464.475	132.68
464.685	157.48
464.895	181.32
465.104	170.47
465.314	173.57
465.524	157.87
465.733	138.3
465.943	211.15
466.153	222.97
466.362	201.27
466.572	169.3
466.782	161.55
466.991	170.08
467.201	222.97
467.41	125.9
467.62	204.76
467.829	166.59
468.039	168.14
468.249	162.91
468.458	190.23
468.668	207.28
468.877	193.13
469.086	224.13
469.296	195.26
469.505	158.07
469.715	251.84
469.924	181.7
470.134	225.49
470.343	234.6
470.552	175.7
470.762	162.52
470.971	161.17
471.18	179.57
471.39	199.14
471.599	141.02
471.808	215.41
472.018	154.38
472.227	232.46
472.436	220.84
472.645	195.85
472.855	153.61
473.064	234.21
473.273	210.18
473.482	212.51
473.691	225.49
473.901	210.57
474.11	190.23
474.319	251.45
474.528	211.35
474.737	235.37
474.946	232.46
475.155	211.54
475.364	237.89
475.573	186.74
475.783	219.48
475.992	228.2
476.201	256.3
476.41	185.97
476.619	204.95
476.828	202.05
477.037	207.86
477.245	205.15
477.454	243.31
477.663	202.24
477.872	190.03
478.081	264.82
478.29	207.66
478.499	283.81
478.708	222.78
478.917	276.45
479.125	245.06
479.334	235.56
479.543	209.41
479.752	214.25
479.961	255.33
480.169	284.97
480.378	211.15
480.587	312.09
480.796	258.81
481.004	244.09
481.213	252.42
481.422	252.03
481.63	247.58
481.839	270.05
482.048	280.9
482.256	235.95
482.465	260.95
482.674	276.64
482.882	258.23
483.091	320.23
483.299	288.26
483.508	314.61
483.716	246.61
483.925	272.18
484.134	265.21
484.342	263.08
484.551	284.58
484.759	286.13
484.967	266.76
485.176	294.85
485.384	308.8
485.593	305.12
485.801	302.41
486.01	291.36
486.218	263.66
486.426	214.64
486.635	263.46
486.843	272.57
487.051	282.45
487.26	269.08
487.468	278.58
487.676	278.77
487.885	269.47
488.093	307.64
488.301	276.06
488.509	310.35
488.717	289.43
488.926	282.84
489.134	250.87
489.342	277.22
489.55	265.4
489.758	294.46
489.967	285.55
490.175	362.08
490.383	284.39
490.591	354.33
490.799	236.15
491.007	325.85
491.215	339.22
491.423	330.69
491.631	324.11
491.839	286.71
492.047	344.45
492.255	300.28
492.463	269.08
492.671	324.88
492.879	343.87
493.087	303.76
493.295	324.49
493.503	325.08
493.711	334.76
493.919	342.9
494.127	334.18
494.334	368.47
494.542	308.41
494.75	334.76
494.958	290.01
495.166	364.99
495.374	334.18
495.581	339.61
495.789	345.42
495.997	395.79
496.205	327.01
496.412	315
496.62	337.09
496.828	347.55
497.035	316.16
497.243	348.71
497.451	362.66
497.658	346.78
497.866	341.16
498.074	402.19
498.281	334.57
498.489	428.92
498.696	326.24
498.904	355.11
499.112	326.04
499.319	419.24
499.527	337.09
499.734	392.69
499.942	288.26
500.149	317.13
500.357	368.47
500.564	323.33
500.771	359.18
500.979	327.01
501.186	333.6
501.394	365.57
501.601	334.57
501.808	388.43
502.016	371.38
502.223	374.87
502.43	361.89
502.638	334.18
502.845	330.89
503.052	416.52
503.26	344.64
503.467	386.88
503.674	357.63
503.881	342.71
504.089	444.04
504.296	381.46
504.503	343.48
504.71	346.78
504.917	317.33
505.125	368.09
505.332	365.76
505.539	389.59
505.746	433.96
505.953	418.46
506.16	364.21
506.367	416.52
506.574	422.14
506.781	429.12
506.988	346.78
507.195	386.11
507.402	388.62
507.609	391.53
507.816	381.84
508.023	383.59
508.23	380.68
508.437	351.62
508.644	422.34
508.851	419.24
509.058	422.14
509.265	410.13
509.472	420.79
509.679	482.01
509.885	368.28
510.092	381.65
510.299	376.81
510.506	399.67
510.713	413.42
510.92	432.99
511.126	408.77
511.333	443.26
511.54	418.66
511.746	465.15
511.953	443.26
512.16	443.65
512.367	428.34
512.573	426.79
512.78	403.93
512.987	432.61
513.193	420.98
513.4	401.41
513.606	405.09
513.813	429.31
514.02	398.12
514.226	504.49
514.433	497.32
514.639	385.72
514.846	411.87
515.052	411.68
515.259	455.47
515.465	428.73
515.672	415.75
515.878	514.37
516.085	438.42
516.291	456.05
516.497	422.92
516.704	415.75
516.91	398.89
517.117	387.46
517.323	372.35
517.529	434.93
517.736	422.14
517.942	420.4
518.148	401.61
518.354	433.96
518.561	447.91
518.767	445.97
518.973	486.66
519.179	454.3
519.386	431.06
519.592	429.12
519.798	415.17
520.004	485.89
520.21	419.24
520.417	473.29
520.623	490.34
520.829	501.58
521.035	494.6
521.241	468.06
521.447	481.62
521.653	585.08
521.859	482.59
522.065	486.85
522.271	568.81
522.477	504.29
522.683	542.27
522.889	523.86
523.095	497.7
523.301	502.55
523.507	464.38
523.713	546.33
523.919	482.79
524.125	547.88
524.331	489.95
524.537	590.12
524.742	536.65
524.948	556.99
525.154	550.98
525.36	643.98
525.566	551.18
525.772	581.6
525.977	509.14
526.183	576.95
526.389	564.93
526.595	539.75
526.8	559.32
527.006	512.04
527.212	487.63
527.417	472.52
527.623	476.78
527.829	542.46
528.034	550.21
528.24	570.36
528.446	509.72
528.651	590.51
528.857	583.53
529.062	621.7
529.268	569.39
529.473	570.17
529.679	569.78
529.884	619.77
530.09	624.03
530.295	646.89
530.501	622.09
530.706	627.32
530.912	586.83
531.117	580.24
531.323	566.48
531.528	600.58
531.733	630.81
531.939	593.03
532.144	613.18
532.35	613.76
532.555	618.8
532.76	609.11
532.966	616.86
533.171	655.41
533.376	578.3
533.581	586.83
533.787	604.07
533.992	627.71
534.197	625.58
534.402	622.87
534.607	674.01
534.813	727.49
535.018	628.68
535.223	604.85
535.428	655.8
535.633	679.83
535.838	643.4
536.043	628.48
536.249	696.3
536.454	614.15
536.659	650.57
536.864	627.51
537.069	646.31
537.274	674.98
537.479	660.84
537.684	661.03
537.889	607.56
538.094	709.47
538.299	665.3
538.504	693.2
538.708	667.81
538.913	674.6
539.118	651.73
539.323	665.88
539.528	626.35
539.733	643.6
539.938	693.78
540.142	712.38
540.347	629.65
540.552	607.17
540.757	658.32
540.962	637.4
541.166	610.47
541.371	632.75
541.576	653.09
541.781	584.12
541.985	643.4
542.19	656.19
542.395	693.39
542.599	721.09
542.804	703.08
543.008	688.74
543.213	635.46
543.418	632.16
543.622	689.13
543.827	679.44
544.031	707.92
544.236	713.15
544.44	680.21
544.645	744.15
544.849	659.68
545.054	676.92
545.258	753.26
545.463	709.28
545.667	678.47
545.872	689.13
546.076	733.88
546.281	715.86
546.485	634.68
546.689	737.95
546.894	734.08
547.098	663.75
547.302	658.13
547.507	693.39
547.711	726.71
547.915	737.56
548.119	680.21
548.324	674.6
548.528	752.09
548.732	736.4
548.936	729.04
549.141	735.82
549.345	700.75
549.549	703.27
549.753	674.98
549.957	766.24
550.161	759.26
550.366	714.89
550.57	690.48
550.774	697.07
550.978	707.92
551.182	712.57
551.386	698.43
551.59	694.55
551.794	699.2
551.998	709.28
552.202	681.18
552.406	674.79
552.61	708.11
552.814	714.89
553.018	756.36
553.222	684.86
553.426	702.5
553.63	766.24
553.833	696.88
554.037	660.65
554.241	744.15
554.445	696.1
554.649	699.01
554.853	677.11
555.056	723.03
555.26	732.33
555.464	699.2
555.668	712.76
555.871	734.27
556.075	736.21
556.279	678.86
556.483	664.71
556.686	705.98
556.89	693.78
557.094	718.96
557.297	659.29
557.501	730.78
557.704	658.51
557.908	746.86
558.112	656.77
558.315	761.59
558.519	710.83
558.722	693.78
558.926	689.13
559.129	629.06
559.333	623.64
559.536	637.01
559.74	657.74
559.943	644.95
560.147	648.63
560.35	674.4
560.553	658.71
560.757	625.38
560.96	738.14
561.164	612.79
561.367	727.29
561.57	630.61
561.774	667.23
561.977	678.47
562.18	638.36
562.384	716.64
562.587	643.79
562.79	663.94
562.993	640.69
563.197	724.19
563.4	706.18
563.603	705.4
563.806	738.73
564.009	620.73
564.212	656.96
564.416	641.08
564.619	674.4
564.822	631.78
565.025	684.28
565.228	651.93
565.431	653.67
565.634	588.96
565.837	612.4
566.04	616.47
566.243	635.07
566.446	549.24
566.649	672.85
566.852	612.6
567.055	601.75
567.258	655.8
567.461	685.25
567.664	662.58
567.867	551.57
568.07	639.14
568.273	616.86
568.475	633.91
568.678	587.6
568.881	609.3
569.084	635.07
569.287	537.23
569.489	560.28
569.692	598.07
569.895	606.01
570.098	577.92
570.3	547.69
570.503	511.27
570.706	550.4
570.909	544.98
571.111	516.89
571.314	544.59
571.516	551.76
571.719	560.87
571.922	533.16
572.124	543.04
572.327	589.15
572.529	518.24
572.732	507.39
572.935	528.12
573.137	612.4
573.34	513.79
573.542	575.2
573.745	543.82
573.947	553.7
574.15	534.71
574.352	516.89
574.554	578.5
574.757	510.88
574.959	510.69
575.162	501.19
575.364	486.08
575.566	601.36
575.769	503.9
575.971	549.05
576.173	442.87
576.376	536.65
576.578	539.36
576.78	590.7
576.982	457.6
577.185	525.99
577.387	471.94
577.589	470.58
577.791	519.6
577.993	545.95
578.196	477.55
578.398	544.2
578.6	554.47
578.802	462.64
579.004	494.6
579.206	487.44
579.408	531.8
579.61	484.34
579.812	515.14
580.014	501.58
580.216	486.08
580.418	473.49
580.62	458.95
580.822	438.22
581.024	486.08
581.226	525.02
581.428	455.47
581.63	571.91
581.832	485.89
582.034	520.76
582.236	489.37
582.438	507
582.64	540.33
582.841	556.41
583.043	606.59
583.245	531.22
583.447	512.82
583.649	515.14
583.85	500.22
584.052	535.1
584.254	459.15
584.456	520.57
584.657	468.06
584.859	506.81
585.061	498.09
585.262	457.99
585.464	473.1
585.666	502.16
585.867	467.67
586.069	572.68
586.27	494.22
586.472	514.17
586.674	475.23
586.875	475.42
587.077	476.59
587.278	499.25
587.48	441.52
587.681	565.32
587.883	484.34
588.084	440.74
588.285	463.6
588.487	451.01
588.688	492.09
588.89	435.51
589.091	425.24
589.292	476.78
589.494	408.97
589.695	440.36
589.896	391.53
590.098	348.71
590.299	444.62
590.5	378.36
590.702	442.1
590.903	453.14
591.104	494.02
591.305	435.12
591.507	486.47
591.708	431.44
591.909	435.12
592.11	510.88
592.311	474.26
592.512	456.24
592.714	430.47
592.915	421.76
593.116	439
593.317	442.87
593.518	446.36
593.719	428.54
593.92	440.94
594.121	481.82
594.322	432.61
594.523	445.2
594.724	384.56
594.925	426.02
595.126	442.68
595.327	477.55
595.528	461.09
595.729	430.67
595.929	427.96
596.13	432.02
596.331	419.82
596.532	438.42
596.733	487.82
596.934	455.27
597.135	455.66
597.335	455.66
597.536	413.04
597.737	438.03
597.938	415.36
598.138	450.43
598.339	436.48
598.54	426.21
598.74	458.37
598.941	443.84
599.142	464.38
599.342	447.33
599.543	429.31
599.744	431.06
599.944	432.02
600.145	408.19
600.345	437.64
600.546	503.9
600.746	493.83
600.947	507
601.147	460.12
601.348	456.05
601.548	414.97
601.749	446.17
601.949	411.68
602.15	430.09
602.35	426.79
602.551	469.61
602.751	406.64
602.951	399.67
603.152	382.42
603.352	462.05
603.552	408
603.753	442.49
603.953	445.97
604.153	437.26
604.354	429.7
604.554	421.17
604.754	426.79
604.954	394.05
605.155	449.66
605.355	415.94
605.555	454.69
605.755	486.27
605.955	433.19
606.155	465.93
606.356	441.71
606.556	478.72
606.756	450.04
606.956	409.16
607.156	461.86
607.356	429.89
607.556	459.34
607.756	415.56
607.956	467.29
608.156	440.74
608.356	394.44
608.556	477.36
608.756	421.76
608.956	412.84
609.156	443.46
609.356	401.99
609.556	388.24
609.755	450.04
609.955	395.6
610.155	420.79
610.355	400.25
610.555	378.36
610.755	429.12
610.954	375.45
611.154	424.08
611.354	438.42
611.554	402.19
611.753	398.12
611.953	377.77
612.153	434.74
612.352	407.61
612.552	377.58
612.752	340.58
612.951	406.64
613.151	408.58
613.351	392.89
613.55	398.31
613.75	406.64
613.949	398.7
614.149	399.28
614.348	378.16
614.548	389.59
614.747	334.38
614.947	378.16
615.146	333.99
615.346	410.52
615.545	405.09
615.745	413.23
615.944	429.51
616.144	369.44
616.343	442.49
616.542	360.53
616.742	399.09
616.941	389.01
617.14	339.61
617.34	366.54
617.539	362.86
617.738	362.47
617.938	412.26
618.137	360.53
618.336	358.21
618.535	400.25
618.734	368.09
618.934	403.35
619.133	373.12
619.332	388.43
619.531	363.44
619.73	358.01
619.929	385.14
620.128	374.67
620.328	439.19
620.527	369.06
620.726	357.24
620.925	393.86
621.124	355.69
621.323	377.97
621.522	344.64
621.721	359.76
621.92	323.91
622.119	393.86
622.318	373.71
622.517	371.77
622.715	369.83
622.914	328.76
623.113	357.24
623.312	302.21
623.511	379.91
623.71	323.14
623.909	353.94
624.107	390.76
624.306	289.81
624.505	339.22
624.704	339.41
624.902	323.14
625.101	395.02
625.3	355.11
625.499	318.1
625.697	353.75
625.896	322.94
626.095	385.14
626.293	318.1
626.492	316.74
626.69	353.94
