Data from oakcork_FLMT105791__263__17-34-09-053.txt Node

Date: Mon Mar 20 17:34:09 GMT 2023
User: antho
Spectrometer: FLMT10579
Trigger mode: 0
Integration Time (sec): 1.000000E-1
Scans to average: 10
Electric dark correction enabled: true
Nonlinearity correction enabled: false
Boxcar width: 0
XAxis mode: Wavelengths
Number of Pixels in Spectrum: 3648
>>>>>Begin Spectral Data<<<<<
345.248	-155.63
345.464	-155.63
345.681	-155.63
345.898	-179.65
346.114	-150.98
346.331	-15.74
346.548	26.11
346.764	-34.15
346.981	-11.87
347.197	-24.07
347.414	43.35
347.631	-23.88
347.847	38.7
348.064	6.15
348.28	22.43
348.497	-27.56
348.713	0.53
348.93	32.89
349.146	26.49
349.363	-2.57
349.579	10.41
349.796	-1.99
350.012	-0.44
350.229	35.41
350.445	16.42
350.661	-4.5
350.878	-10.51
351.094	20.88
351.311	-5.47
351.527	12.93
351.743	-15.94
351.96	19.52
352.176	25.91
352.392	13.9
352.609	53.81
352.825	-16.32
353.041	7.51
353.257	17
353.474	-7.99
353.69	19.71
353.906	16.81
354.122	-19.81
354.339	50.33
354.555	13.32
354.771	-2.18
354.987	39.67
355.203	80.36
355.42	-6.44
355.636	20.3
355.852	-16.13
356.068	-6.44
356.284	-5.67
356.5	49.16
356.716	20.3
356.932	11.77
357.148	46.06
357.364	-1.4
357.58	34.83
357.796	67.18
358.012	49.16
358.228	16.42
358.444	-42.09
358.66	52.07
358.876	29.98
359.092	-18.65
359.308	10.8
359.524	35.79
359.74	3.63
359.956	-17.87
360.172	4.6
360.388	50.33
360.604	4.21
360.819	87.14
361.035	15.45
361.251	28.04
361.467	-14.39
361.683	45.68
361.898	11.19
362.114	39.48
362.33	20.68
362.546	44.71
362.762	22.62
362.977	24.94
363.193	-8.96
363.409	68.34
363.624	-5.47
363.84	6.73
364.056	-16.13
364.271	25.91
364.487	26.49
364.703	-7.02
364.918	-7.99
365.134	13.71
365.35	3.83
365.565	83.26
365.781	23.98
365.996	29.59
366.212	61.95
366.427	8.48
366.643	-11.87
366.858	14.68
367.074	-31.24
367.289	47.03
367.505	83.84
367.72	-30.66
367.936	10.22
368.151	36.76
368.367	41.99
368.582	-0.24
368.798	9.25
369.013	82.49
369.228	11.96
369.444	-4.5
369.659	87.33
369.874	13.13
370.09	35.21
370.305	-55.27
370.52	11.38
370.736	71.06
370.951	11.58
371.166	61.18
371.381	62.73
371.597	62.34
371.812	-19.62
372.027	10.03
372.242	8.28
372.458	91.59
372.673	14.68
372.888	14.87
373.103	28.82
373.318	87.91
373.533	44.13
373.749	32.31
373.964	-16.13
374.179	65.24
374.394	17.2
374.609	56.53
374.824	2.86
375.039	74.35
375.254	25.33
375.469	72.99
375.684	32.31
375.899	50.52
376.114	3.25
376.329	28.63
376.544	49.36
376.759	29.01
376.974	6.35
377.189	18.16
377.404	3.44
377.619	48.78
377.834	-26.4
378.049	-27.95
378.264	-28.14
378.478	46.06
378.693	-6.44
378.908	49.36
379.123	25.14
379.338	47.03
379.553	30.18
379.767	44.71
379.982	45.87
380.197	35.6
380.412	43.16
380.626	27.08
380.841	87.91
381.056	54.78
381.271	74.74
381.485	-7.6
381.7	9.45
381.915	37.34
382.129	1.5
382.344	27.66
382.559	12.74
382.773	36.38
382.988	-0.63
383.202	46.06
383.417	14.87
383.632	115.81
383.846	-0.44
384.061	24.36
384.275	6.73
384.49	21.07
384.704	23.59
384.919	51.88
385.133	17.39
385.348	63.69
385.562	-3.54
385.777	34.83
385.991	16.23
386.206	20.3
386.42	20.49
386.634	84.23
386.849	57.11
387.063	43.35
387.277	-13.42
387.492	-1.21
387.706	2.66
387.92	4.21
388.135	50.91
388.349	66.02
388.563	39.86
388.778	27.27
388.992	18.75
389.206	52.07
389.42	89.46
389.635	42.77
389.849	49.36
390.063	54.01
390.277	1.89
390.491	93.73
390.706	59.04
390.92	55.56
391.134	31.34
391.348	84.62
391.562	-6.64
391.776	39.09
391.99	4.99
392.205	51.68
392.419	16.23
392.633	37.73
392.847	66.02
393.061	35.41
393.275	81.71
393.489	54.98
393.703	45.68
393.917	55.94
394.131	8.28
394.345	35.99
394.559	56.91
394.773	22.23
394.986	32.31
395.2	3.25
395.414	70.09
395.628	12.93
395.842	26.69
396.056	22.43
396.27	5.57
396.484	46.45
396.697	44.32
396.911	92.76
397.125	48.78
397.339	76.09
397.553	21.26
397.766	115.62
397.98	73.38
398.194	66.41
398.408	29.21
398.621	35.79
398.835	64.47
399.049	62.34
399.262	76.48
399.476	69.31
399.69	54.39
399.903	134.22
400.117	52.07
400.331	65.44
400.544	18.36
400.758	132.86
400.971	79
401.185	101.09
401.398	38.12
401.612	110.77
401.826	78.23
402.039	94.11
402.253	59.82
402.466	86.56
402.68	43.35
402.893	43.16
403.106	65.05
403.32	51.49
403.533	70.48
403.747	40.83
403.96	60.79
404.174	57.49
404.387	38.12
404.6	62.73
404.814	86.56
405.027	65.24
405.24	60.4
405.454	58.27
405.667	94.5
405.88	27.66
406.094	65.24
406.307	108.45
406.52	68.93
406.733	30.37
406.947	26.88
407.16	117.94
407.373	103.03
407.586	34.44
407.799	58.27
408.012	106.9
408.226	81.91
408.439	98.57
408.652	38.7
408.865	65.63
409.078	87.14
409.291	92.18
409.504	52.26
409.717	82.1
409.93	66.99
410.143	53.81
410.357	6.35
410.57	42.77
410.783	66.6
410.996	94.11
411.209	82.68
411.421	82.1
411.634	75.71
411.847	40.83
412.06	83.46
412.273	60.21
412.486	75.9
412.699	120.46
412.912	65.63
413.125	76.68
413.338	61.18
413.55	124.34
413.763	66.02
413.976	88.69
414.189	75.32
414.402	46.06
414.615	91.79
414.827	35.6
415.04	97.02
415.253	95.86
415.466	99.15
415.678	138.87
415.891	72.41
416.104	68.93
416.316	48.97
416.529	32.11
416.742	106.71
416.954	101.86
417.167	73.38
417.38	39.67
417.592	104.96
417.805	62.73
418.017	48.78
418.23	107.87
418.442	48.19
418.655	48.78
418.868	94.69
419.08	97.41
419.293	107.68
419.505	93.92
419.718	95.86
419.93	106.71
420.142	71.25
420.355	137.9
420.567	154.37
420.78	109.61
420.992	93.34
421.205	154.95
421.417	26.11
421.629	47.81
421.842	66.79
422.054	58.85
422.266	111.55
422.479	114.46
422.691	66.02
422.903	118.33
423.115	55.94
423.328	73.19
423.54	99.93
423.752	103.03
423.964	63.11
424.177	72.41
424.389	63.5
424.601	184.98
424.813	105.93
425.025	124.53
425.238	115.04
425.45	101.86
425.662	84.81
425.874	338.82
426.086	92.76
426.298	113.29
426.51	86.94
426.722	85.78
426.934	77.64
427.146	122.4
427.358	50.91
427.57	129.96
427.782	99.15
427.994	86.56
428.206	93.92
428.418	70.28
428.63	113.87
428.842	126.66
429.054	96.44
429.266	114.07
429.478	48.19
429.69	90.82
429.902	67.57
430.114	103.61
430.325	110.97
430.537	112.13
430.749	65.63
430.961	26.88
431.173	82.88
431.384	96.05
431.596	18.94
431.808	66.41
432.02	96.05
432.231	129.76
432.443	99.93
432.655	108.06
432.867	48.39
433.078	105.93
433.29	146.62
433.502	117.56
433.713	131.12
433.925	90.04
434.136	127.24
434.348	71.83
434.56	48
434.771	182.46
434.983	50.33
435.194	90.24
435.406	71.64
435.617	144.49
435.829	138.09
436.04	128.79
436.252	135.38
436.463	148.17
436.675	130.54
436.886	109.23
437.098	122.98
437.309	165.41
437.521	134.8
437.732	128.41
437.943	109.03
438.155	101.67
438.366	79
438.578	145.65
438.789	127.05
439	143.32
439.211	101.28
439.423	132.28
439.634	121.43
439.845	133.64
440.057	118.52
440.268	144.1
440.479	95.08
440.69	115.23
440.902	116.78
441.113	113.49
441.324	129.57
441.535	119.88
441.746	180.91
441.957	116.2
442.168	90.63
442.38	151.85
442.591	174.52
442.802	122.59
443.013	134.61
443.224	117.17
443.435	117.56
443.646	118.52
443.857	104.38
444.068	81.91
444.279	92.76
444.49	171.42
444.701	138.48
444.912	178.01
445.123	153.98
445.334	149.72
445.545	127.24
445.756	131.51
445.967	111.16
446.178	163.09
446.388	184.79
446.599	160.57
446.81	142.36
447.021	117.36
447.232	159.02
447.443	156.69
447.653	119.11
447.864	181.69
448.075	122.4
448.286	151.66
448.496	158.82
448.707	147.2
448.918	121.43
449.129	219.66
449.339	111.16
449.55	150.69
449.761	148.75
449.971	185.17
450.182	116.97
450.393	157.66
450.603	148.94
450.814	147.78
451.024	161.73
451.235	179.56
451.446	188.47
451.656	184.4
451.867	131.7
452.077	159.6
452.288	202.42
452.498	205.13
452.709	147.39
452.919	163.86
453.13	121.62
453.34	196.41
453.55	99.54
453.761	206.49
453.971	167.74
454.182	217.53
454.392	160.37
454.602	232.06
454.813	172
455.023	197.19
455.233	123.76
455.444	176.84
455.654	110.97
455.864	161.92
456.075	121.24
456.285	137.32
456.495	156.31
456.705	182.27
456.916	208.62
457.126	187.31
457.336	167.93
457.546	97.41
457.756	127.63
457.967	195.06
458.177	142.16
458.387	142.94
458.597	127.82
458.807	143.13
459.017	136.35
459.227	173.94
459.437	149.72
459.647	215.01
459.857	184.21
460.068	152.04
460.278	221.4
460.488	198.54
460.698	215.2
460.908	146.42
461.117	138.09
461.327	145.07
461.537	161.54
461.747	181.69
461.957	165.02
462.167	257.25
462.377	221.6
462.587	179.36
462.797	191.18
463.007	157.86
463.216	196.61
463.426	207.07
463.636	229.35
463.846	137.51
464.056	153.4
464.265	236.32
464.475	138.87
464.685	169.67
464.895	209
465.104	156.5
465.314	216.56
465.524	153.59
465.733	145.65
465.943	248.34
466.153	237.1
466.362	212.88
466.572	179.17
466.782	177.81
466.991	168.9
467.201	228.57
467.41	149.72
467.62	194.67
467.829	178.39
468.039	171.61
468.249	151.27
468.458	209
468.668	199.32
468.877	197.19
469.086	226.83
469.296	232.84
469.505	158.24
469.715	237.29
469.924	202.22
470.134	202.22
470.343	237.87
470.552	190.21
470.762	205.13
470.971	148.17
471.18	200.48
471.39	165.02
471.599	189.24
471.808	189.24
472.018	165.61
472.227	230.32
472.436	252.02
472.645	190.79
472.855	174.32
473.064	240.59
473.273	227.99
473.482	204.74
473.691	252.6
473.901	251.24
474.11	219.08
474.319	298.71
474.528	211.14
474.737	246.59
474.946	247.75
475.155	225.86
475.364	248.92
475.573	214.43
475.783	222.95
475.992	244.65
476.201	261.12
476.41	213.85
476.619	206.29
476.828	202.61
477.037	199.51
477.245	219.66
477.454	263.25
477.663	181.88
477.872	201.45
478.081	294.25
478.29	220.82
478.499	291.35
478.708	247.17
478.917	292.12
479.125	231.87
479.334	243.69
479.543	220.24
479.752	262.29
479.961	261.12
480.169	238.65
480.378	229.15
480.587	327
480.796	259.77
481.004	270.23
481.213	264.22
481.422	272.75
481.63	229.74
481.839	256.28
482.048	270.23
482.256	277.59
482.465	245.62
482.674	273.14
482.882	284.95
483.091	317.31
483.299	276.04
483.508	278.17
483.716	252.02
483.925	289.8
484.134	254.34
484.342	275.27
484.551	310.72
484.759	308.59
484.967	265.97
485.176	309.17
485.384	308.59
485.593	318.47
485.801	289.8
486.01	276.04
486.218	273.72
486.426	241.17
486.635	255.89
486.843	281.08
487.051	300.45
487.26	267.52
487.468	299.1
487.676	296.77
487.885	263.25
488.093	290.77
488.301	291.54
488.509	300.07
488.717	302.78
488.926	278.17
489.134	279.34
489.342	267.32
489.55	284.76
489.758	284.76
489.967	263.06
490.175	372.53
490.383	260.35
490.591	322.35
490.799	239.62
491.007	354.7
491.215	318.08
491.423	302.2
491.631	292.51
491.839	306.07
492.047	334.94
492.255	262.87
492.463	252.21
492.671	295.8
492.879	350.83
493.087	316.92
493.295	315.37
493.503	333
493.711	323.7
493.919	358.97
494.127	347.53
494.334	347.15
494.542	273.52
494.75	321.38
494.958	323.12
495.166	345.21
495.374	327.38
495.581	318.67
495.789	333.2
495.997	348.12
496.205	323.7
496.412	314.98
496.62	334.94
496.828	364.39
497.035	315.76
497.243	350.63
497.451	343.27
497.658	326.22
497.866	319.83
498.074	388.61
498.281	331.45
498.489	378.73
498.696	340.75
498.904	317.5
499.112	338.82
499.319	409.73
499.527	328.55
499.734	380.47
499.942	295.8
500.149	312.08
500.357	339.78
500.564	308.98
500.771	355.28
500.979	320.02
501.186	309.95
501.394	346.37
501.601	346.76
501.808	377.95
502.016	339.98
502.223	305.3
502.43	335.33
502.638	364.58
502.845	333
503.052	413.02
503.26	315.18
503.467	383.57
503.674	325.83
503.881	362.65
504.089	420.19
504.296	374.85
504.503	318.47
504.71	379.5
504.917	311.11
505.125	372.33
505.332	341.92
505.539	373.11
505.746	432.2
505.953	383.96
506.16	386.67
506.367	412.83
506.574	410.11
506.781	390.93
506.988	336.3
507.195	357.03
507.402	329.9
507.609	440.34
507.816	362.84
508.023	383.38
508.23	383.96
508.437	340.75
508.644	403.53
508.851	448.09
509.058	433.17
509.265	367.68
509.472	410.5
509.679	450.61
509.885	330.1
510.092	368.07
510.299	371.75
510.506	391.13
510.713	395.97
510.92	376.98
511.126	396.94
511.333	430.07
511.54	407.4
511.746	452.16
511.953	429.88
512.16	438.79
512.367	366.52
512.573	381.25
512.78	423.29
512.987	405.27
513.193	392.1
513.4	344.63
513.606	379.89
513.813	438.01
514.02	397.91
514.226	473.86
514.433	449.45
514.639	375.24
514.846	417.09
515.052	398.49
515.259	404.88
515.465	413.21
515.672	421.55
515.878	495.56
516.085	389.19
516.291	418.25
516.497	382.99
516.704	398.3
516.91	387.06
517.117	349.67
517.323	355.67
517.529	410.7
517.736	384.35
517.942	423.48
518.148	386.48
518.354	438.79
518.561	415.93
518.767	407.79
518.973	434.14
519.179	447.31
519.386	385.7
519.592	376.01
519.798	397.71
520.004	447.9
520.21	402.36
520.417	435.5
520.623	453.32
520.829	441.11
521.035	458.94
521.241	445.38
521.447	469.01
521.653	552.91
521.859	443.63
522.065	464.17
522.271	526.75
522.477	488.19
522.683	487.61
522.889	486.84
523.095	486.45
523.301	464.56
523.507	459.52
523.713	483.54
523.919	438.21
524.125	511.06
524.331	463.39
524.537	528.3
524.742	523.84
524.948	514.35
525.154	495.56
525.36	581.97
525.566	532.18
525.772	570.92
525.977	468.43
526.183	514.74
526.389	523.26
526.595	486.84
526.8	500.79
527.006	450.22
527.212	497.3
527.417	452.55
527.623	451.19
527.829	506.99
528.034	522.1
528.24	509.31
528.446	469.59
528.651	524.62
528.857	553.68
529.062	562.4
529.268	515.71
529.473	526.75
529.679	489.94
529.884	594.37
530.09	541.67
530.295	593.4
530.501	571.51
530.706	543.99
530.912	537.02
531.117	544.96
531.323	517.26
531.528	559.3
531.733	567.24
531.939	544.96
532.144	571.31
532.35	542.83
532.555	612.39
532.76	582.74
532.966	588.36
533.171	557.75
533.376	540.31
533.581	539.54
533.787	566.08
533.992	552.71
534.197	656.75
534.402	553.68
534.607	594.95
534.813	664.12
535.018	542.83
535.223	540.89
535.428	569.76
535.633	608.12
535.838	595.92
536.043	585.65
536.249	656.17
536.454	596.5
536.659	597.47
536.864	540.89
537.069	593.59
537.274	589.91
537.479	606.96
537.684	605.22
537.889	586.42
538.094	664.12
538.299	610.84
538.504	624.21
538.708	597.66
538.913	617.23
539.118	586.62
539.323	591.66
539.528	596.69
539.733	602.31
539.938	627.5
540.142	634.86
540.347	592.04
540.552	592.43
540.757	593.59
540.962	584.1
541.166	587.97
541.371	558.91
541.576	624.79
541.781	534.11
541.985	599.6
542.19	609.48
542.395	636.99
542.599	638.35
542.804	603.09
543.008	680.2
543.213	582.94
543.418	537.21
543.622	613.36
543.827	587.2
544.031	638.93
544.236	625.56
544.44	598.44
544.645	669.74
544.849	586.04
545.054	655.79
545.258	720.11
545.463	656.56
545.667	620.91
545.872	638.74
546.076	670.32
546.281	638.54
546.485	604.06
546.689	618.97
546.894	674
547.098	645.52
547.302	592.62
547.507	604.25
547.711	644.74
547.915	657.92
548.119	614.71
548.324	637.77
548.528	676.32
548.732	671.29
548.936	625.76
549.141	687.17
549.345	620.33
549.549	626.14
549.753	630.02
549.957	735.03
550.161	696.28
550.366	624.98
550.57	632.92
550.774	636.8
550.978	646.1
551.182	656.56
551.386	625.17
551.59	632.34
551.794	634.28
551.998	617.62
552.202	618.78
552.406	594.17
552.61	616.07
552.814	640.09
553.018	694.54
553.222	667.99
553.426	628.08
553.63	697.44
553.833	622.07
554.037	587.01
554.241	667.8
554.445	632.73
554.649	621.49
554.853	633.51
555.056	667.41
555.26	667.02
555.464	657.72
555.668	666.05
555.871	671.87
556.075	646.87
556.279	641.06
556.483	618.2
556.686	643.19
556.89	643.39
557.094	624.98
557.297	588.94
557.501	698.22
557.704	614.13
557.908	683.49
558.112	623.24
558.315	665.86
558.519	622.66
558.722	620.91
558.926	656.17
559.129	600.96
559.333	573.64
559.536	587.59
559.74	598.82
559.943	580.61
560.147	577.12
560.35	580.22
560.553	569.57
560.757	535.66
560.96	667.41
561.164	566.66
561.367	664.12
561.57	603.47
561.774	598.24
561.977	606.19
562.18	585.46
562.384	659.85
562.587	571.7
562.79	581.77
562.993	589.72
563.197	659.85
563.4	627.69
563.603	661.79
563.806	702.87
564.009	549.03
564.212	605.8
564.416	537.02
564.619	606.38
564.822	567.63
565.025	638.74
565.228	573.06
565.431	590.88
565.634	488.78
565.837	570.15
566.04	537.41
566.243	583.32
566.446	503.11
566.649	601.92
566.852	515.71
567.055	550.19
567.258	612
567.461	620.33
567.664	608.51
567.867	528.3
568.07	593.21
568.273	570.73
568.475	614.13
568.678	537.6
568.881	556.78
569.084	596.31
569.287	494.59
569.489	508.15
569.692	583.91
569.895	553.68
570.098	514.93
570.3	515.9
570.503	488.58
570.706	487.81
570.909	521.52
571.111	486.06
571.314	500.79
571.516	481.8
571.719	497.88
571.922	514.93
572.124	515.9
572.327	508.73
572.529	467.66
572.732	493.81
572.935	501.95
573.137	532.95
573.34	473.08
573.542	534.69
573.745	527.33
573.947	517.84
574.15	489.74
574.352	486.84
574.554	517.45
574.757	463.98
574.959	488.19
575.162	442.86
575.364	497.3
575.566	554.65
575.769	447.7
575.971	482.96
576.173	425.23
576.376	489.94
576.578	498.66
576.78	548.26
576.982	406.05
577.185	478.51
577.387	459.71
577.589	439.95
577.791	500.79
577.993	488.78
578.196	459.33
578.398	511.25
578.6	501.76
578.802	428.33
579.004	466.11
579.206	434.53
579.408	485.29
579.61	470.95
579.812	485.09
580.014	468.24
580.216	436.46
580.418	428.91
580.62	432.4
580.822	414.18
581.024	458.94
581.226	478.31
581.428	462.04
581.63	500.21
581.832	424.84
582.034	513.19
582.236	484.13
582.438	498.27
582.64	510.67
582.841	515.32
583.043	526.36
583.245	462.23
583.447	487.61
583.649	479.86
583.85	478.12
584.052	499.24
584.254	458.94
584.456	487.03
584.657	414.96
584.859	471.53
585.061	458.94
585.262	426
585.464	422.13
585.666	461.65
585.867	447.7
586.069	531.79
586.27	463.78
586.472	481.22
586.674	445.38
586.875	458.55
587.077	437.24
587.278	460.88
587.48	434.14
587.681	542.44
587.883	471.73
588.084	402.56
588.285	429.68
588.487	430.85
588.688	440.92
588.89	415.73
589.091	408.56
589.292	429.49
589.494	423.29
589.695	408.95
589.896	375.24
590.098	363.81
590.299	434.33
590.5	378.15
590.702	381.05
590.903	408.18
591.104	469.59
591.305	426.78
591.507	455.06
591.708	442.86
591.909	432.78
592.11	490.71
592.311	432.78
592.512	446.15
592.714	386.28
592.915	391.51
593.116	415.73
593.317	413.8
593.518	429.1
593.719	396.16
593.92	441.11
594.121	449.45
594.322	391.32
594.523	450.8
594.724	379.89
594.925	398.88
595.126	424.45
595.327	423.68
595.528	413.8
595.729	432.78
595.929	427.36
596.13	434.72
596.331	392.68
596.532	421.55
596.733	445.57
596.934	434.53
597.135	451.19
597.335	423.29
597.536	371.37
597.737	414.18
597.938	395.2
598.138	448.09
598.339	417.09
598.54	448.86
598.74	424.45
598.941	438.21
599.142	479.09
599.342	411.66
599.543	397.52
599.744	421.16
599.944	421.35
600.145	395.78
600.345	419.03
600.546	479.67
600.746	463.98
600.947	494.39
601.147	473.47
601.348	448.28
601.548	410.11
601.749	433.36
601.949	393.26
602.15	399.65
602.35	418.25
602.551	443.25
602.751	382.21
602.951	382.6
603.152	370.4
603.352	429.88
603.552	413.8
603.753	430.85
603.953	426.97
604.153	396.94
604.354	430.46
604.554	415.54
604.754	407.4
604.954	401.2
605.155	390.16
605.355	399.65
605.555	456.81
605.755	458.55
605.955	407.4
606.155	424.06
606.356	421.55
606.556	455.65
606.756	439.76
606.956	377.76
607.156	433.56
607.356	369.62
607.556	429.3
607.756	400.62
607.956	444.6
608.156	423.87
608.356	377.95
608.556	413.6
608.756	407.21
608.956	372.14
609.156	447.9
609.356	405.46
609.556	362.84
609.755	423.87
609.955	378.73
610.155	423.29
610.355	397.91
610.555	396.16
610.755	443.44
610.954	354.7
611.154	393.45
611.354	440.15
611.554	382.8
611.753	394.42
611.953	344.05
612.153	416.12
612.352	404.69
612.552	366.91
612.752	325.25
612.951	384.73
613.151	407.98
613.351	350.63
613.55	387.25
613.75	384.93
613.949	396.36
614.149	413.02
614.348	378.15
614.548	373.11
614.747	349.86
614.947	374.27
615.146	330.1
615.346	391.13
615.545	369.23
615.745	366.72
615.944	394.61
616.144	372.91
616.343	406.82
616.542	358.77
616.742	360.52
616.941	369.62
617.14	348.12
617.34	382.6
617.539	363.03
617.738	337.65
617.938	433.36
618.137	347.73
618.336	336.68
618.535	381.83
618.734	377.56
618.934	389.38
619.133	376.6
619.332	377.37
619.531	356.45
619.73	367.88
619.929	428.91
620.128	400.04
620.328	410.7
620.527	343.85
620.726	349.67
620.925	374.46
621.124	375.05
621.323	369.23
621.522	353.54
621.721	321.57
621.92	342.88
622.119	398.3
622.318	342.11
622.517	333
622.715	351.99
622.914	294.06
623.113	366.91
623.312	269.26
623.511	345.02
623.71	346.18
623.909	337.07
624.107	413.6
624.306	323.51
624.505	324.48
624.704	327.97
624.902	335.72
625.101	387.06
625.3	358.58
625.499	325.25
625.697	326.8
625.896	325.45
626.095	366.91
626.293	306.46
626.492	300.45
