Data from oakcork_FLMT105791__1__17-26-36-067.txt Node

Date: Mon Mar 20 17:26:36 GMT 2023
User: antho
Spectrometer: FLMT10579
Trigger mode: 0
Integration Time (sec): 1.000000E-1
Scans to average: 10
Electric dark correction enabled: true
Nonlinearity correction enabled: false
Boxcar width: 0
XAxis mode: Wavelengths
Number of Pixels in Spectrum: 3648
>>>>>Begin Spectral Data<<<<<
345.248	-127.91
345.464	-127.91
345.681	-127.91
345.898	-179.25
346.114	-167.82
346.331	-28.13
346.548	30
346.764	8.88
346.981	-6.04
347.197	-31.42
347.414	9.85
347.631	-28.9
347.847	69.52
348.064	12.17
348.28	9.66
348.497	-35.29
348.713	-10.3
348.93	20.89
349.146	22.05
349.363	-0.03
349.579	19.54
349.796	-18.24
350.012	0.74
350.229	19.34
350.445	-1.58
350.661	9.46
350.878	-9.72
351.094	0.94
351.311	28.64
351.527	27.48
351.743	-7.39
351.96	28.06
352.176	45.89
352.392	29.42
352.609	47.82
352.825	-3.52
353.041	18.76
353.257	20.31
353.474	15.85
353.69	22.44
353.906	23.22
354.122	-28.9
354.339	67.2
354.555	7.72
354.771	17.79
354.987	71.46
355.203	44.53
355.42	-2.55
355.636	21.28
355.852	19.15
356.068	38.52
356.284	-37.23
356.5	81.92
356.716	36.97
356.932	15.66
357.148	62.74
357.364	10.04
357.58	49.76
357.796	83.86
358.012	42.2
358.228	45.69
358.444	-52.15
358.66	40.07
358.876	17.21
359.092	5.2
359.308	16.63
359.524	49.76
359.74	8.11
359.956	17.02
360.172	15.66
360.388	23.41
360.604	-7.98
360.819	86.77
361.035	30.19
361.251	57.32
361.467	32.9
361.683	30
361.898	39.69
362.114	39.69
362.33	17.4
362.546	36.97
362.762	-6.62
362.977	28.06
363.193	14.69
363.409	52.47
363.624	6.36
363.84	11.21
364.056	2.49
364.271	36.39
364.487	52.86
364.703	8.11
364.918	-13.21
365.134	14.89
365.35	20.7
365.565	105.56
365.781	48.99
365.996	48.99
366.212	88.32
366.427	31.16
366.643	22.64
366.858	42.01
367.074	-15.73
367.289	53.83
367.505	134.62
367.72	-10.69
367.936	25.35
368.151	48.21
368.367	42.98
368.582	45.3
368.798	5.01
369.013	115.25
369.228	13.72
369.444	39.3
369.659	80.57
369.874	46.47
370.09	66.04
370.305	-19.6
370.52	10.82
370.736	66.62
370.951	36.59
371.166	92.58
371.381	103.82
371.597	55.96
371.812	7.33
372.027	9.85
372.242	19.73
372.458	93.35
372.673	4.04
372.888	50.73
373.103	21.47
373.318	121.45
373.533	65.26
373.749	75.34
373.964	-4.49
374.179	68.36
374.394	4.04
374.609	80.76
374.824	-2.74
375.039	82.31
375.254	17.79
375.469	108.27
375.684	32.9
375.899	78.63
376.114	28.64
376.329	38.72
376.544	79.79
376.759	84.25
376.974	-2.16
377.189	35.62
377.404	9.66
377.619	83.28
377.834	-16.11
378.049	-1.19
378.264	-9.91
378.478	52.28
378.693	3.07
378.908	71.65
379.123	40.65
379.338	63.9
379.553	61
379.767	42.2
379.982	50.54
380.197	78.82
380.412	44.72
380.626	67
380.841	109.82
381.056	66.62
381.271	97.23
381.485	0.94
381.7	12.56
381.915	58.87
382.129	27.29
382.344	63.32
382.559	56.35
382.773	72.82
382.988	-6.04
383.202	57.12
383.417	-1.19
383.632	114.47
383.846	39.1
384.061	48.4
384.275	60.61
384.49	42.2
384.704	87.74
384.919	56.93
385.133	59.06
385.348	93.16
385.562	21.28
385.777	81.54
385.991	28.64
386.206	12.37
386.42	47.82
386.634	95.29
386.849	51.12
387.063	57.32
387.277	19.92
387.492	-1.78
387.706	2.29
387.92	-1.58
388.135	66.23
388.349	68.94
388.563	57.9
388.778	34.84
388.992	52.28
389.206	77.08
389.42	86.96
389.635	49.37
389.849	58.29
390.063	91.03
390.277	71.65
390.491	117.38
390.706	90.06
390.92	72.43
391.134	54.99
391.348	104.98
391.562	14.69
391.776	46.66
391.99	56.74
392.205	84.25
392.419	29.42
392.633	70.69
392.847	111.76
393.061	34.07
393.275	119.51
393.489	66.23
393.703	54.6
393.917	85.02
394.131	32.71
394.345	59.45
394.559	82.7
394.773	41.62
394.986	52.47
395.2	58.67
395.414	97.81
395.628	20.12
395.842	84.44
396.056	64.1
396.27	13.53
396.484	59.84
396.697	83.86
396.911	99.75
397.125	92.39
397.339	82.12
397.553	87.15
397.766	131.33
397.98	117.38
398.194	101.69
398.408	58.48
398.621	102.27
398.835	104.78
399.049	84.64
399.262	131.72
399.476	108.47
399.69	125.13
399.903	197.2
400.117	99.55
400.331	123
400.544	65.26
400.758	203.79
400.971	110.02
401.185	142.37
401.398	66.23
401.612	166.01
401.826	115.05
402.039	153.22
402.253	85.8
402.466	143.53
402.68	106.53
402.893	118.35
403.106	103.82
403.32	94.13
403.533	152.64
403.747	124.16
403.96	95.29
404.174	128.42
404.387	68.36
404.6	116.99
404.814	140.63
405.027	110.6
405.24	104.01
405.454	83.67
405.667	152.45
405.88	81.34
406.094	102.65
406.307	139.27
406.52	124.55
406.733	94.71
406.947	70.88
407.16	171.05
407.373	186.93
407.586	98.78
407.799	94.32
408.012	135.59
408.226	125.32
408.439	186.16
408.652	83.67
408.865	151.67
409.078	171.24
409.291	144.12
409.504	79.99
409.717	177.44
409.93	122.61
410.143	125.52
410.357	89.09
410.57	94.71
410.783	116.6
410.996	134.43
411.209	126.87
411.421	166.78
411.634	150.12
411.847	111.57
412.06	139.08
412.273	129.78
412.486	115.44
412.699	192.36
412.912	148.18
413.125	193.71
413.338	123.58
413.55	142.18
413.763	145.47
413.976	148.77
414.189	113.12
414.402	135.59
414.615	197.4
414.827	113.7
415.04	168.14
415.253	142.95
415.466	143.73
415.678	199.91
415.891	148.77
416.104	143.92
416.316	131.91
416.529	135.4
416.742	187.32
416.954	173.76
417.167	159.62
417.38	126.87
417.592	199.33
417.805	127.84
418.017	107.11
418.23	176.86
418.442	123.38
418.655	130.94
418.868	145.67
419.08	203.21
419.293	188.48
419.505	166.01
419.718	144.12
419.93	161.36
420.142	131.13
420.355	203.4
420.567	194.49
420.78	177.25
420.992	166.78
421.205	224.13
421.417	140.63
421.629	161.94
421.842	142.76
422.054	127.07
422.266	196.04
422.479	229.75
422.691	134.82
422.903	187.9
423.115	115.63
423.328	175.31
423.54	153.22
423.752	154.19
423.964	151.28
424.177	149.35
424.389	147.41
424.601	253
424.813	182.87
425.025	220.06
425.238	208.63
425.45	173.57
425.662	142.76
425.874	453.53
426.086	165.62
426.298	209.8
426.51	190.23
426.722	165.43
426.934	147.6
427.146	184.61
427.358	149.15
427.57	185.97
427.782	164.07
427.994	164.07
428.206	145.86
428.418	140.82
428.63	188.68
428.842	218.13
429.054	177.25
429.266	206.7
429.478	153.22
429.69	176.86
429.902	139.66
430.114	192.55
430.325	174.15
430.537	173.95
430.749	153.22
430.961	101.1
431.173	157.87
431.384	188.48
431.596	80.37
431.808	150.51
432.02	169.69
432.231	231.3
432.443	244.09
432.655	181.12
432.867	194.3
433.078	200.69
433.29	248.55
433.502	238.47
433.713	250.29
433.925	205.15
434.136	237.31
434.348	177.05
434.56	160
434.771	303.18
434.983	160.39
435.194	175.31
435.406	190.81
435.617	239.63
435.829	291.17
436.04	225.1
436.252	254.75
436.463	283.23
436.675	272.57
436.886	239.63
437.098	260.56
437.309	308.22
437.521	245.83
437.732	258.43
437.943	258.43
438.155	232.46
438.366	209.6
438.578	273.93
438.789	217.74
439	240.99
439.211	205.15
439.423	231.69
439.634	248.74
439.845	265.21
440.057	263.85
440.268	293.11
440.479	248.74
440.69	240.02
440.902	235.18
441.113	275.28
441.324	227.23
441.535	264.63
441.746	277.99
441.957	241.76
442.168	245.64
442.38	276.45
442.591	277.99
442.802	252.42
443.013	271.99
443.224	276.64
443.435	250.68
443.646	249.9
443.857	275.67
444.068	252.61
444.279	271.21
444.49	336.7
444.701	271.21
444.912	383.01
445.123	326.82
445.334	283.81
445.545	295.04
445.756	262.5
445.967	239.83
446.178	296.4
446.388	299.11
446.599	319.07
446.81	313.45
447.021	264.24
447.232	310.93
447.443	319.07
447.653	271.41
447.864	323.72
448.075	284.19
448.286	319.65
448.496	310.54
448.707	302.21
448.918	287.49
449.129	359.76
449.339	275.09
449.55	312.87
449.761	296.21
449.971	339.99
450.182	318.1
450.393	362.66
450.603	314.42
450.814	315.19
451.024	312.48
451.235	348.91
451.446	382.04
451.656	395.6
451.867	301.05
452.077	327.59
452.288	391.92
452.498	372.35
452.709	310.74
452.919	357.04
453.13	306.86
453.34	326.43
453.55	291.36
453.761	342.51
453.971	327.01
454.182	357.04
454.392	338.64
454.602	405.48
454.813	366.34
455.023	371.38
455.233	277.8
455.444	322.17
455.654	254.36
455.864	311.13
456.075	309.38
456.285	325.66
456.495	351.62
456.705	338.06
456.916	383.78
457.126	409.16
457.336	341.16
457.546	278.19
457.756	329.34
457.967	384.56
458.177	333.02
458.387	340.58
458.597	331.47
458.807	315.58
459.017	351.81
459.227	303.96
459.437	320.04
459.647	364.79
459.857	376.81
460.068	344.45
460.278	393.66
460.488	356.46
460.698	406.45
460.908	353.75
461.117	324.11
461.327	337.86
461.537	374.29
461.747	389.21
461.957	354.53
462.167	461.28
462.377	382.42
462.587	388.24
462.797	412.84
463.007	380.87
463.216	398.31
463.426	416.91
463.636	410.32
463.846	334.38
464.056	371.38
464.265	428.34
464.475	358.79
464.685	400.64
464.895	389.59
465.104	372.93
465.314	411.49
465.524	395.99
465.733	361.31
465.943	449.85
466.153	462.25
466.362	416.91
466.572	416.14
466.782	360.14
466.991	389.98
467.201	464.19
467.41	345.61
467.62	403.74
467.829	400.25
468.039	430.28
468.249	409.16
468.458	396.76
468.668	415.94
468.877	451.59
469.086	478.14
469.296	433.38
469.505	410.71
469.715	493.44
469.924	448.3
470.134	473.29
470.343	464.96
470.552	425.05
470.762	418.46
470.971	401.61
471.18	410.71
471.39	426.41
471.599	400.83
471.808	470.39
472.018	446.17
472.227	467.09
472.436	488.99
472.645	442.29
472.855	456.05
473.064	510.3
473.273	482.79
473.482	480.65
473.691	514.17
473.901	486.66
474.11	469.8
474.319	570.55
474.528	495.77
474.737	554.28
474.946	493.44
475.155	513.4
475.364	555.05
475.573	505.07
475.783	530.06
475.992	539.17
476.201	546.33
476.41	526.96
476.619	476.97
476.828	501.39
477.037	495.57
477.245	494.41
477.454	551.57
477.663	513.4
477.872	527.15
478.081	597.68
478.29	492.47
478.499	641.27
478.708	549.82
478.917	631.78
479.125	529.87
479.334	574.23
479.543	559.12
479.752	559.32
479.961	593.61
480.169	606.78
480.378	540.13
480.587	702.5
480.796	596.13
481.004	584.7
481.213	606.59
481.422	624.22
481.63	614.92
481.839	655.61
482.048	666.26
482.256	624.61
482.465	612.4
482.674	652.51
482.882	648.25
483.091	685.64
483.299	640.69
483.508	657.35
483.716	652.7
483.925	670.72
484.134	626.74
484.342	654.45
484.551	680.41
484.759	699.78
484.967	698.43
485.176	699.4
485.384	701.91
485.593	695.13
485.801	693.78
486.01	656.58
486.218	632.75
486.426	569.78
486.635	589.54
486.843	562.22
487.051	618.99
487.26	621.7
487.468	644.76
487.676	681.18
487.885	640.69
488.093	661.61
488.301	680.02
488.509	702.69
488.717	717.99
488.926	725.16
489.134	690.87
489.342	694.55
489.55	655.03
489.758	711.8
489.967	694.16
490.175	832.5
490.383	732.14
490.591	789.68
490.799	720.71
491.007	754.81
491.215	769.92
491.423	729.23
491.631	727.29
491.839	771.08
492.047	781.16
492.255	726.71
492.463	659.87
492.671	718.58
492.879	802.08
493.087	720.71
493.295	755.78
493.503	782.13
493.711	772.83
493.919	810.02
494.127	788.52
494.334	797.82
494.542	731.56
494.75	801.69
494.958	770.11
495.166	828.24
495.374	816.61
495.581	800.73
495.789	818.36
495.997	833.47
496.205	790.46
496.412	786.58
496.62	804.41
496.828	846.06
497.035	750.93
497.243	856.52
497.451	815.06
497.658	817.97
497.866	821.84
498.074	871.25
498.281	786.39
498.489	862.53
498.696	808.09
498.904	814.29
499.112	804.99
499.319	899.34
499.527	798.4
499.734	878.61
499.942	812.35
500.149	801.69
500.357	840.25
500.564	800.73
500.771	875.12
500.979	790.07
501.186	802.08
501.394	813.12
501.601	807.89
501.808	848.39
502.016	832.31
502.223	813.71
502.43	829.79
502.638	829.21
502.845	798.4
503.052	887.33
503.26	832.31
503.467	884.23
503.674	832.89
503.881	847.61
504.089	941.97
504.296	862.53
504.503	828.62
504.71	866.21
504.917	802.08
505.125	871.44
505.332	859.24
505.539	858.07
505.746	956.11
505.953	916.78
506.16	889.27
506.367	946.42
506.574	937.51
506.781	958.63
506.988	866.41
507.195	874.93
507.402	915.04
507.609	947.2
507.816	876.48
508.023	859.62
508.23	885.2
508.437	858.07
508.644	926.08
508.851	962.7
509.058	921.82
509.265	930.54
509.472	936.93
509.679	994.47
509.885	916.39
510.092	908.84
510.299	921.62
510.506	916.2
510.713	901.47
510.92	909.8
511.126	939.06
511.333	991.57
511.54	999.9
511.746	994.08
511.953	997.57
512.16	1011.52
512.367	953.2
512.573	952.82
512.78	957.47
512.987	960.76
513.193	956.5
513.4	867.96
513.606	968.12
513.813	942.16
514.02	985.95
514.226	1020.05
514.433	998.35
514.639	930.15
514.846	952.82
515.052	949.14
515.259	951.65
515.465	954.56
515.672	954.37
515.878	1028.57
516.085	967.74
516.291	1026.05
516.497	966.19
516.704	972.19
516.91	927.82
517.117	905.74
517.323	834.05
517.529	891.01
517.736	892.17
517.942	896.63
518.148	908.64
518.354	941.19
518.561	932.86
518.767	933.44
518.973	960.95
519.179	993.12
519.386	956.89
519.592	926.85
519.798	965.02
520.004	1037.1
520.21	1012.68
520.417	1038.26
520.623	1047.37
520.829	1051.63
521.035	1061.32
521.241	1063.45
521.447	1092.51
521.653	1167.88
521.859	1058.8
522.065	1084.95
522.271	1151.99
522.477	1109.56
522.683	1144.05
522.889	1123.12
523.095	1105.3
523.301	1095.41
523.507	1084.56
523.713	1058.41
523.919	1073.13
524.125	1168.26
524.331	1120.41
524.537	1222.9
524.742	1155.67
524.948	1189.19
525.154	1175.04
525.36	1255.26
525.566	1204.88
525.772	1247.89
525.977	1142.11
526.183	1201.2
526.389	1214.38
526.595	1138.23
526.8	1134.16
527.006	1104.33
527.212	1088.25
527.417	1085.15
527.623	1046.59
527.829	1145.6
528.034	1137.07
528.24	1138.04
528.446	1108.01
528.651	1235.69
528.857	1231.04
529.062	1265.72
529.268	1218.06
529.473	1258.36
529.679	1237.82
529.884	1275.6
530.09	1279.28
530.295	1301.56
530.501	1247.7
530.706	1241.69
530.912	1228.13
531.117	1269.79
531.323	1231.43
531.528	1298.46
531.733	1286.06
531.939	1237.43
532.144	1286.84
532.35	1286.06
532.555	1336.82
532.76	1282.19
532.966	1286.84
533.171	1282.77
533.376	1227.16
533.581	1228.71
533.787	1256.42
533.992	1281.99
534.197	1308.15
534.402	1270.76
534.607	1281.41
534.813	1370.73
535.018	1302.72
535.223	1267.85
535.428	1323.46
535.633	1373.64
535.838	1334.3
536.043	1323.07
536.249	1426.33
536.454	1321.52
536.659	1379.84
536.864	1301.17
537.069	1313.38
537.274	1340.31
537.479	1315.9
537.684	1342.44
537.889	1300.79
538.094	1422.46
538.299	1338.37
538.504	1357.55
538.708	1382.94
538.913	1359.69
539.118	1363.75
539.323	1385.45
539.528	1364.14
539.733	1325.97
539.938	1348.45
540.142	1373.64
540.347	1315.71
540.552	1349.22
540.757	1358.52
540.962	1305.82
541.166	1294.01
541.371	1311.64
541.576	1335.27
541.781	1240.72
541.985	1351.16
542.19	1341.86
542.395	1424.4
542.599	1419.36
542.804	1374.22
543.008	1403.28
543.213	1356.59
543.418	1331.01
543.622	1403.47
543.827	1307.57
544.031	1425.37
544.236	1442.42
544.44	1381.19
544.645	1486.59
544.849	1383.13
545.054	1429.82
545.258	1481.75
545.463	1449
545.667	1414.9
545.872	1432.92
546.076	1444.16
546.281	1419.55
546.485	1363.95
546.689	1430.6
546.894	1461.98
547.098	1456.95
547.302	1382.35
547.507	1420.72
547.711	1429.82
547.915	1427.69
548.119	1392.04
548.324	1419.55
548.528	1508.29
548.732	1443.97
548.936	1469.73
549.141	1467.8
549.345	1407.35
549.549	1426.92
549.753	1455.2
549.957	1505
550.161	1501.31
550.366	1430.98
550.57	1429.24
550.774	1417.81
550.978	1451.13
551.182	1463.53
551.386	1448.62
551.59	1401.15
551.794	1421.88
551.998	1448.23
552.202	1484.85
552.406	1360.85
552.61	1447.65
552.814	1477.29
553.018	1512.36
553.222	1430.98
553.426	1416.07
553.63	1490.08
553.833	1428.85
554.037	1416.45
554.241	1473.03
554.445	1434.08
554.649	1422.46
554.853	1377.32
555.056	1483.1
555.26	1465.67
555.464	1459.27
555.668	1453.27
555.871	1467.6
556.075	1484.46
556.279	1421.49
556.483	1407.35
556.686	1422.46
556.89	1427.69
557.094	1444.35
557.297	1369.57
557.501	1434.08
557.704	1351.55
557.908	1430.6
558.112	1376.54
558.315	1452.1
558.519	1372.86
558.722	1367.44
558.926	1390.49
559.129	1318.42
559.333	1322.87
559.536	1347.48
559.74	1322.29
559.943	1320.74
560.147	1346.51
560.35	1355.04
560.553	1322.87
560.757	1270.95
560.96	1406.38
561.164	1321.71
561.367	1386.42
561.57	1316.48
561.774	1354.45
561.977	1326.55
562.18	1299.04
562.384	1418
562.587	1338.57
562.79	1321.91
562.993	1319
563.197	1339.73
563.4	1387.2
563.603	1364.53
563.806	1398.05
564.009	1298.85
564.212	1340.7
564.416	1282.38
564.619	1340.89
564.822	1276.57
565.025	1337.02
565.228	1331.01
565.431	1330.43
565.634	1222.9
565.837	1294.59
566.04	1233.75
566.243	1246.73
566.446	1199.46
566.649	1286.84
566.852	1229.1
567.055	1270.17
567.258	1267.07
567.461	1330.04
567.664	1313.57
567.867	1190.16
568.07	1280.44
568.273	1283.16
568.475	1298.46
568.678	1214.96
568.881	1228.52
569.084	1206.43
569.287	1158.38
569.489	1164
569.692	1235.49
569.895	1262.81
570.098	1151.02
570.3	1190.74
570.503	1119.63
570.706	1174.66
570.909	1113.05
571.111	1129.9
571.314	1129.32
571.516	1162.64
571.719	1150.44
571.922	1131.65
572.124	1115.56
572.327	1185.51
572.529	1119.05
572.732	1116.92
572.935	1170.39
573.137	1221.74
573.34	1147.34
573.542	1150.25
573.745	1161.29
573.947	1178.53
574.15	1141.53
574.352	1115.76
574.554	1197.52
574.757	1102.97
574.959	1105.68
575.162	1123.31
575.364	1068.48
575.566	1216.12
575.769	1116.34
575.971	1109.36
576.173	991.18
576.376	1082.24
576.578	1112.66
576.78	1129.32
576.982	1027.02
577.185	1066.55
577.387	1041.55
577.589	1047.37
577.791	1082.43
577.993	1098.13
578.196	1048.14
578.398	1112.27
578.6	1130.48
578.802	1022.37
579.004	1027.22
579.206	1032.06
579.408	1068.68
579.61	1042.52
579.812	1091.93
580.014	1079.14
580.216	1015.98
580.418	1018.88
580.62	1040.58
580.822	1005.52
581.024	1071.58
581.226	1096
581.428	1069.26
581.63	1119.83
581.832	1053.76
582.034	1077.78
582.236	1077.59
582.438	1109.75
582.64	1121.76
582.841	1115.56
583.043	1173.11
583.245	1123.9
583.447	1097.93
583.649	1067.9
583.85	1081.27
584.052	1084.76
584.254	1024.31
584.456	1132.61
584.657	1038.26
584.859	1097.55
585.061	1056.47
585.262	1044.27
585.464	1022.95
585.666	1125.64
585.867	1057.25
586.069	1112.27
586.27	1058.22
586.472	1065.19
586.674	1046.2
586.875	1020.82
587.077	1024.7
587.278	1041.94
587.48	1015.78
587.681	1090.57
587.883	1050.27
588.084	998.73
588.285	1031.09
588.487	1022.18
588.688	1044.07
588.89	963.86
589.091	928.79
589.292	938.87
589.494	944.87
589.695	908.06
589.896	867.37
590.098	858.07
590.299	926.27
590.5	896.82
590.702	922.2
590.903	947.97
591.104	958.82
591.305	955.34
591.507	994.47
591.708	983.43
591.909	928.79
592.11	993.5
592.311	971.22
592.512	945.07
592.714	895.27
592.915	937.9
593.116	914.45
593.317	944.87
593.518	921.04
593.719	935.19
593.92	969.48
594.121	990.6
594.322	982.07
594.523	956.3
594.724	915.23
594.925	937.7
595.126	956.89
595.327	970.64
595.528	959.79
595.729	954.56
595.929	935.77
596.13	963.47
596.331	957.27
596.532	961.92
596.733	992.53
596.934	986.92
597.135	973.16
597.335	964.44
597.536	896.63
597.737	972.97
597.938	948.75
598.138	967.35
598.339	931.7
598.54	950.3
598.74	976.07
598.941	964.05
599.142	1018.5
599.342	981.68
599.543	894.11
599.744	941.58
599.944	949.33
600.145	936.93
600.345	957.08
600.546	1005.71
600.746	1013.27
600.947	1030.12
601.147	940.03
601.348	988.66
601.548	929.18
601.749	938.29
601.949	898.95
602.15	948.36
602.35	945.65
602.551	978.58
602.751	903.41
602.951	916
603.152	873.19
603.352	931.7
603.552	922.59
603.753	967.35
603.953	946.81
604.153	944.87
604.354	915.04
604.554	913.1
604.754	931.12
604.954	929.37
605.155	941.19
605.355	921.24
605.555	967.35
605.755	977.42
605.955	916.2
606.155	976.65
606.356	953.01
606.556	952.24
606.756	943.9
606.956	891.01
607.156	959.79
607.356	913.1
607.556	976.07
607.756	937.7
607.956	972.97
608.156	931.89
608.356	890.82
608.556	941.77
608.756	902.05
608.956	900.89
609.156	902.25
609.356	877.64
609.556	877.84
609.755	931.31
609.955	883.84
610.155	925.5
610.355	915.62
610.555	871.83
610.755	896.24
610.954	849.36
611.154	938.67
611.354	934.22
611.554	893.34
611.753	873.96
611.953	826.69
612.153	924.14
612.352	891.79
612.552	840.06
612.752	811.38
612.951	903.02
613.151	904.77
613.351	863.69
613.55	852.84
613.75	874.93
613.949	849.16
614.149	885.39
614.348	885.78
614.548	837.73
614.747	823.59
614.947	848.58
615.146	808.09
615.346	882.68
615.545	864.27
615.745	841.61
615.944	893.72
616.144	844.32
616.343	869.7
616.542	839.09
616.742	841.99
616.941	822.04
617.14	788.13
617.34	845.87
617.539	820.29
617.738	799.76
617.938	873.57
618.137	837.73
618.336	801.11
618.535	858.27
618.734	835.41
618.934	848.77
619.133	852.65
619.332	858.66
619.531	799.95
619.73	821.26
619.929	845.67
620.128	863.5
620.328	866.6
