Data from oakcork_FLMT105791__292__17-34-38-052.txt Node

Date: Mon Mar 20 17:34:38 GMT 2023
User: antho
Spectrometer: FLMT10579
Trigger mode: 0
Integration Time (sec): 1.000000E-1
Scans to average: 10
Electric dark correction enabled: true
Nonlinearity correction enabled: false
Boxcar width: 0
XAxis mode: Wavelengths
Number of Pixels in Spectrum: 3648
>>>>>Begin Spectral Data<<<<<
345.248	-153.8
345.464	-153.8
345.681	-153.8
345.898	-149.73
346.114	-154.19
346.331	-17.4
346.548	25.41
346.764	-11.01
346.981	0.61
347.197	-21.09
347.414	6.23
347.631	-18.18
347.847	62.61
348.064	4.1
348.28	32.19
348.497	-36.78
348.713	-26.7
348.93	20.96
349.146	12.24
349.363	4.88
349.579	13.01
349.796	4.29
350.012	7.98
350.229	23.67
350.445	3.13
350.661	-38.14
350.878	-19.54
351.094	11.46
351.311	17.28
351.527	-0.74
351.743	-3.46
351.96	29.29
352.176	31.03
352.392	5.84
352.609	19.6
352.825	-14.31
353.041	-17.21
353.257	-2.68
353.474	-8.88
353.69	14.56
353.906	1.97
354.122	-23.22
354.339	68.23
354.555	-4.62
354.771	21.54
354.987	56.61
355.203	44.4
355.42	-1.32
355.636	8.94
355.852	-14.31
356.068	10.69
356.284	-38.72
356.5	62.81
356.716	20.38
356.932	11.85
357.148	15.73
357.364	4.88
357.58	41.69
357.796	55.06
358.012	22.12
358.228	9.91
358.444	-28.84
358.66	49.44
358.876	21.54
359.092	-8.49
359.308	5.26
359.524	31.42
359.74	-0.16
359.956	-9.27
360.172	10.69
360.388	27.35
360.604	-18.95
360.819	81.6
361.035	23.48
361.251	35.88
361.467	-37.75
361.683	45.37
361.898	29.87
362.114	23.48
362.33	26.58
362.546	31.42
362.762	9.72
362.977	9.14
363.193	-37.55
363.409	24.44
363.624	-11.01
363.84	-16.24
364.056	-33.49
364.271	20.96
364.487	16.69
364.703	7.39
364.918	-16.63
365.134	1.39
365.35	4.49
365.565	107.95
365.781	28.51
365.996	16.31
366.212	49.83
366.427	14.37
366.643	-5.39
366.858	-20.31
367.074	-15.47
367.289	63.39
367.505	108.53
367.72	-47.44
367.936	20.76
368.151	23.86
368.367	34.33
368.582	31.61
368.798	-2.29
369.013	48.86
369.228	13.01
369.444	28.32
369.659	45.95
369.874	31.03
370.09	76.76
370.305	-43.75
370.52	-4.81
370.736	39.17
370.951	4.88
371.166	56.61
371.381	75.01
371.597	49.44
371.812	-4.42
372.027	-14.69
372.242	17.86
372.458	68.62
372.673	1
372.888	31.42
373.103	32.39
373.318	85.86
373.533	29.09
373.749	19.79
373.964	-43.56
374.179	48.66
374.394	4.68
374.609	59.32
374.824	-11.79
375.039	30.26
375.254	-14.69
375.469	57.58
375.684	20.57
375.899	70.56
376.114	1.19
376.329	6.43
376.544	30.64
376.759	42.66
376.974	-33.29
377.189	18.63
377.404	-8.49
377.619	41.3
377.834	-18.18
378.049	-11.01
378.264	-11.79
378.478	14.76
378.693	-12.95
378.908	38.01
379.123	-2.87
379.338	29.09
379.553	23.86
379.767	54.09
379.982	21.93
380.197	54.86
380.412	4.49
380.626	37.43
380.841	65.91
381.056	22.89
381.271	56.03
381.485	16.11
381.7	15.53
381.915	40.91
382.129	-5.59
382.344	7.39
382.559	11.46
382.773	56.61
382.988	-24.57
383.202	14.18
383.417	-5.97
383.632	80.63
383.846	21.73
384.061	8.56
384.275	16.69
384.49	53.31
384.704	44.21
384.919	33.16
385.133	35.49
385.348	39.36
385.562	-6.94
385.777	45.37
385.991	9.91
386.206	4.68
386.42	15.34
386.634	70.75
386.849	21.54
387.063	47.89
387.277	-14.5
387.492	-10.82
387.706	-1.13
387.92	-4.42
388.135	42.66
388.349	39.56
388.563	24.44
388.778	28.71
388.992	45.56
389.206	24.83
389.42	102.91
389.635	20.96
389.849	63
390.063	46.92
390.277	33.36
390.491	73.66
390.706	65.33
390.92	75.01
391.134	17.08
391.348	46.34
391.562	-24.38
391.776	19.6
391.99	-2.49
392.205	57.38
392.419	8.56
392.633	23.09
392.847	66.1
393.061	3.33
393.275	87.22
393.489	24.64
393.703	27.16
393.917	77.72
394.131	12.43
394.345	55.83
394.559	57.77
394.773	7.01
394.986	18.05
395.2	26.38
395.414	65.13
395.628	-23.99
395.842	12.63
396.056	16.5
396.27	-48.4
396.484	32.19
396.697	41.3
396.911	69.98
397.125	48.08
397.339	52.15
397.553	43.04
397.766	91.09
397.98	69.78
398.194	70.36
398.408	0.42
398.621	32.19
398.835	21.34
399.049	34.71
399.262	56.99
399.476	47.11
399.69	35.68
399.903	88.19
400.117	8.75
400.331	55.83
400.544	12.43
400.758	131.39
400.971	55.64
401.185	96.13
401.398	-0.16
401.612	87.99
401.826	51.76
402.039	67.26
402.253	19.41
402.466	49.83
402.68	13.21
402.893	51.18
403.106	62.61
403.32	26.96
403.533	67.46
403.747	32.97
403.96	35.1
404.174	38.39
404.387	14.76
404.6	56.61
404.814	75.79
405.027	23.86
405.24	44.59
405.454	41.88
405.667	67.07
405.88	-7.91
406.094	63.58
406.307	91.09
406.52	48.86
406.733	12.24
406.947	-10.24
407.16	91.67
407.373	79.47
407.586	32
407.799	-1.71
408.012	69.78
408.226	49.05
408.439	74.04
408.652	9.53
408.865	45.18
409.078	99.04
409.291	31.81
409.504	16.31
409.717	59.71
409.93	44.79
410.143	19.79
410.357	7.39
410.57	18.63
410.783	60.29
410.996	41.69
411.209	35.68
411.421	52.34
411.634	33.74
411.847	30.64
412.06	43.04
412.273	37.04
412.486	35.88
412.699	107.95
412.912	56.03
413.125	39.56
413.338	40.72
413.55	58.74
413.763	39.56
413.976	71.72
414.189	28.71
414.402	39.17
414.615	75.21
414.827	17.66
415.04	70.75
415.253	69.78
415.466	77.53
415.678	104.66
415.891	58.74
416.104	59.71
416.316	36.07
416.529	34.33
416.742	70.36
416.954	62.03
417.167	43.43
417.38	34.91
417.592	76.95
417.805	-7.72
418.017	13.21
418.23	69.98
418.442	38.59
418.655	68.81
418.868	73.27
419.08	79.66
419.293	94.77
419.505	84.89
419.718	63.97
419.93	97.49
420.142	25.61
420.355	89.16
420.567	106.59
420.78	92.45
420.992	35.88
421.205	90.51
421.417	-5.01
421.629	29.29
421.842	37.23
422.054	5.84
422.266	68.62
422.479	102.91
422.691	34.71
422.903	76.56
423.115	36.84
423.328	69.01
423.54	64.74
423.752	57.58
423.964	25.41
424.177	60.29
424.389	39.56
424.601	138.56
424.813	52.54
425.025	55.25
425.238	78.69
425.45	47.69
425.662	38.01
425.874	284.84
426.086	38.39
426.298	69.98
426.51	59.32
426.722	79.27
426.934	39.94
427.146	81.02
427.358	-3.07
427.57	78.69
427.782	60.87
427.994	53.89
428.206	31.81
428.418	3.13
428.63	73.27
428.842	82.18
429.054	62.42
429.266	69.2
429.478	38.59
429.69	39.94
429.902	25.61
430.114	79.08
430.325	78.31
430.537	31.23
430.749	76.56
430.961	18.24
431.173	59.9
431.384	71.33
431.596	-12.37
431.808	31.23
432.02	41.49
432.231	66.1
432.443	49.44
432.655	56.41
432.867	31.61
433.078	75.79
433.29	126.55
433.502	80.05
433.713	81.21
433.925	58.54
434.136	100.39
434.348	24.25
434.56	14.76
434.771	121.71
434.983	47.11
435.194	33.36
435.406	58.16
435.617	73.46
435.829	137.79
436.04	76.37
436.252	107.95
436.463	105.62
436.675	73.46
436.886	77.92
437.098	79.66
437.309	124.42
437.521	42.46
437.732	63.39
437.943	69.98
438.155	65.71
438.366	36.26
438.578	103.11
438.789	86.44
439	105.24
439.211	65.33
439.423	99.81
439.634	99.81
439.845	82.76
440.057	112.99
440.268	94
440.479	41.49
440.69	76.17
440.902	79.27
441.113	72.69
441.324	66.68
441.535	59.71
441.746	105.24
441.957	31.03
442.168	55.06
442.38	87.41
442.591	69.01
442.802	30.45
443.013	62.61
443.224	81.02
443.435	24.83
443.646	75.4
443.857	66.68
444.068	63.58
444.279	71.14
444.49	138.95
444.701	79.27
444.912	171.11
445.123	108.92
445.334	78.5
445.545	87.41
445.756	80.63
445.967	29.09
446.178	109.31
446.388	140.5
446.599	114.92
446.81	125
447.021	52.15
447.232	95.94
447.443	146.89
447.653	34.33
447.864	126.16
448.075	71.33
448.286	135.46
448.496	83.92
448.707	92.84
448.918	80.44
449.129	184.48
449.339	70.56
449.55	109.89
449.761	77.92
449.971	119.19
450.182	72.3
450.393	100.59
450.603	68.23
450.814	119.38
451.024	94.19
451.235	98.07
451.446	127.52
451.656	147.86
451.867	58.74
452.077	83.34
452.288	125
452.498	129.26
452.709	73.46
452.919	119.96
453.13	78.5
453.34	119.38
453.55	45.95
453.761	115.51
453.971	119.38
454.182	115.7
454.392	124.61
454.602	146.89
454.813	119.57
455.023	132.94
455.233	66.68
455.444	99.23
455.654	56.22
455.864	101.36
456.075	84.7
456.285	90.32
456.495	109.31
456.705	111.05
456.916	122.67
457.126	137.79
457.336	109.31
457.546	51.76
457.756	86.64
457.967	160.07
458.177	80.05
458.387	92.64
458.597	76.17
458.807	91.67
459.017	96.91
459.227	118.41
459.437	62.23
459.647	143.41
459.857	128.87
460.068	81.41
460.278	147.47
460.488	110.47
460.698	161.62
460.908	88.57
461.117	51.18
461.327	68.81
461.537	84.89
461.747	82.96
461.957	92.26
462.167	192.04
462.377	131.2
462.587	122.29
462.797	126.16
463.007	128.68
463.216	132.56
463.426	127.71
463.636	140.11
463.846	72.3
464.056	83.15
464.265	142.82
464.475	78.89
464.685	115.51
464.895	122.87
465.104	101.94
465.314	127.32
465.524	101.36
465.733	102.91
465.943	171.3
466.153	177.89
466.362	157.55
466.572	105.43
466.782	117.06
466.991	93.03
467.201	174.79
467.41	81.99
467.62	129.07
467.829	87.61
468.039	136.62
468.249	89.93
468.458	100.01
468.668	143.6
468.877	146.31
469.086	162.2
469.296	143.41
469.505	101.94
469.715	174.4
469.924	130.62
470.134	137.98
470.343	161.23
470.552	115.89
470.762	125.97
470.971	126.16
471.18	135.46
471.39	89.74
471.599	114.73
471.808	144.37
472.018	74.43
472.227	125.77
472.436	159.1
472.645	120.35
472.855	100.2
473.064	155.22
473.273	134.69
473.482	141.08
473.691	160.07
473.901	143.02
474.11	133.33
474.319	207.73
474.528	113.76
474.737	171.11
474.946	130.04
475.155	138.95
475.364	155.22
475.573	143.02
475.783	142.24
475.992	156.19
476.201	151.93
476.41	130.42
476.619	108.53
476.828	117.44
477.037	124.22
477.245	144.57
477.454	154.45
477.663	129.26
477.872	107.56
478.081	182.54
478.29	108.14
478.499	210.83
478.708	136.24
478.917	201.72
479.125	179.44
479.334	162.39
479.543	98.46
479.752	169.17
479.961	137.01
480.169	173.63
480.378	124.03
480.587	268.57
480.796	158.71
481.004	133.33
481.213	174.99
481.422	169.56
481.63	170.34
481.839	192.42
482.048	200.75
482.256	157.16
482.465	169.37
482.674	199.98
482.882	187.97
483.091	214.7
483.299	165.88
483.508	186.03
483.716	161.04
483.925	167.43
484.134	134.49
484.342	137.21
484.551	200.75
484.759	218
484.967	167.04
485.176	191.45
485.384	203.85
485.593	212.96
485.801	207.34
486.01	220.71
486.218	163.55
486.426	149.41
486.635	160.07
486.843	167.62
487.051	224.39
487.26	147.47
487.468	200.75
487.676	204.44
487.885	166.07
488.093	189.71
488.301	178.28
488.509	160.65
488.717	202.11
488.926	143.02
489.134	146.7
489.342	190.68
489.55	146.31
489.758	180.02
489.967	155.81
490.175	284.45
490.383	172.27
490.591	224
490.799	142.24
491.007	203.47
491.215	197.27
491.423	193
491.631	193.39
491.839	195.33
492.047	207.73
492.255	175.57
492.463	168.4
492.671	193.78
492.879	237.95
493.087	198.24
493.295	218.77
493.503	217.22
493.711	220.32
493.919	210.44
494.127	233.3
494.334	229.62
494.542	180.02
494.75	189.13
494.958	187.77
495.166	259.85
495.374	223.81
495.581	216.64
495.789	197.85
495.997	245.51
496.205	209.09
496.412	219.55
496.62	211.8
496.828	214.9
497.035	178.67
497.243	229.24
497.451	222.65
497.658	223.42
497.866	181.38
498.074	276.32
498.281	172.66
498.489	279.8
498.696	224
498.904	213.35
499.112	215.87
499.319	280.77
499.527	211.02
499.734	245.51
499.942	175.95
500.149	210.05
500.357	211.8
500.564	178.86
500.771	241.05
500.979	227.69
501.186	201.72
501.394	221.87
501.601	253.84
501.808	255.58
502.016	238.15
502.223	209.28
502.43	220.13
502.638	209.67
502.845	216.84
503.052	272.25
503.26	188.94
503.467	275.73
503.674	217.61
503.881	238.73
504.089	297.82
504.296	261.59
504.503	204.63
504.71	228.65
504.917	210.64
505.125	241.83
505.332	227.3
505.539	240.47
505.746	281.55
505.953	242.22
506.16	226.72
506.367	267.21
506.574	261.78
506.781	276.9
506.988	201.92
507.195	255
507.402	230.2
507.609	253.07
507.816	209.67
508.023	226.52
508.23	224.59
508.437	196.1
508.644	240.09
508.851	301.5
509.058	276.12
509.265	254.23
509.472	289.1
509.679	329.21
509.885	247.64
510.092	227.3
510.299	264.3
510.506	264.3
510.713	284.07
510.92	263.33
511.126	257.33
511.333	285.62
511.54	276.32
511.746	316.23
511.953	275.93
512.16	294.72
512.367	217.22
512.573	255.78
512.78	260.82
512.987	217.22
513.193	283.1
513.4	190.68
513.606	236.02
513.813	271.67
514.02	250.93
514.226	335.41
514.433	283.1
514.639	237.95
514.846	269.73
515.052	236.99
515.259	282.13
515.465	268.57
515.672	293.56
515.878	353.62
516.085	239.12
516.291	300.92
516.497	229.62
516.704	248.8
516.91	232.92
517.117	220.32
517.323	213.93
517.529	250.16
517.736	243.38
517.942	267.98
518.148	248.03
518.354	270.5
518.561	262.75
518.767	235.24
518.973	299.95
519.179	286.78
519.386	257.72
519.592	281.55
519.798	242.8
520.004	300.15
520.21	227.3
520.417	280.19
520.623	335.02
520.829	301.7
521.035	286.2
521.241	285.42
521.447	295.69
521.653	375.71
521.859	278.45
522.065	304.22
522.271	357.69
522.477	329.02
522.683	364.28
522.889	319.91
523.095	322.82
523.301	294.33
523.507	281.93
523.713	302.47
523.919	293.56
524.125	324.37
524.331	310.03
524.537	360.01
524.742	366.02
524.948	344.9
525.154	302.86
525.36	418.72
525.566	332.5
525.772	373.38
525.977	270.89
526.183	357.11
526.389	362.53
526.595	330.76
526.8	332.12
527.006	329.79
527.212	316.42
527.417	301.5
527.623	290.85
527.829	370.09
528.034	337.73
528.24	331.34
528.446	327.27
528.651	396.05
528.857	361.18
529.062	396.83
529.268	323.59
529.473	376.1
529.679	330.57
529.884	407.1
530.09	360.21
530.295	392.37
530.501	380.94
530.706	354.98
530.912	331.53
531.117	366.99
531.323	334.05
531.528	373.58
531.733	371.06
531.939	354.78
532.144	349.94
532.35	344.51
532.555	384.04
532.76	400.7
532.966	417.36
533.171	398.76
533.376	367.96
533.581	351.49
533.787	354.01
533.992	406.9
534.197	416.78
534.402	365.44
534.607	351.68
534.813	463.86
535.018	368.54
535.223	355.75
535.428	376.48
535.633	390.43
535.838	396.63
536.043	354.2
536.249	437.51
536.454	342.96
536.659	394.31
536.864	358.08
537.069	387.14
537.274	384.23
537.479	412.91
537.684	395.08
537.889	376.29
538.094	465.61
538.299	384.43
538.504	415.04
538.708	411.94
538.913	396.44
539.118	382.88
539.323	417.75
539.528	398.18
539.733	385.2
539.938	415.81
540.142	440.61
540.347	373.96
540.552	383.65
540.757	393.73
540.962	380.55
541.166	334.05
541.371	369.12
541.576	401.28
541.781	301.31
541.985	394.89
542.19	389.46
542.395	446.81
542.599	458.63
542.804	434.8
543.008	475.68
543.213	381.33
543.418	350.13
543.622	431.89
543.827	375.32
544.031	450.69
544.236	445.46
544.44	386.95
544.645	485.95
544.849	403.22
545.054	431.12
545.258	466.77
545.463	492.73
545.667	373
545.872	423.18
546.076	417.36
546.281	393.34
546.485	390.24
546.689	465.8
546.894	441
547.098	375.13
547.302	357.88
547.507	412.33
547.711	426.28
547.915	446.43
548.119	405.93
548.324	415.81
548.528	461.93
548.732	412.52
548.936	434.61
549.141	446.62
549.345	378.81
549.549	410.58
549.753	447.59
549.957	470.26
550.161	498.93
550.366	425.11
550.57	415.04
550.774	418.53
550.978	414.85
551.182	450.88
551.386	426.08
551.59	396.63
551.794	431.31
551.998	460.96
552.202	445.46
552.406	378.61
552.61	413.1
552.814	400.51
553.018	478.01
553.222	433.06
553.426	441.39
553.63	476.65
553.833	422.21
554.037	416.4
554.241	460.38
554.445	436.16
554.649	409.81
554.853	436.54
555.056	470.84
555.26	465.03
555.464	417.75
555.668	445.65
555.871	453.01
556.075	461.34
556.279	425.5
556.483	378.03
556.686	440.03
556.89	417.56
557.094	417.36
557.297	384.62
557.501	462.31
557.704	385.2
557.908	455.34
558.112	394.89
558.315	487.69
558.519	434.8
558.722	426.08
558.926	426.86
559.129	384.62
559.333	348.39
559.536	377.84
559.74	381.71
559.943	385.2
560.147	365.63
560.35	391.98
560.553	391.4
560.757	357.11
560.96	433.25
561.164	366.02
561.367	452.63
561.57	380.55
561.774	386.56
561.977	389.08
562.18	372.22
562.384	458.83
562.587	413.3
562.79	366.6
562.993	390.82
563.197	442.94
563.4	441.58
563.603	459.6
563.806	481.3
564.009	389.85
564.212	430.54
564.416	336.96
564.619	396.44
564.822	359.63
565.025	451.27
565.228	384.62
565.431	399.15
565.634	335.99
565.837	366.21
566.04	326.11
566.243	340.45
566.446	338.9
566.649	415.81
566.852	352.26
567.055	387.53
567.258	383.26
567.461	451.46
567.664	419.3
567.867	318.17
568.07	392.18
568.273	368.73
568.475	439.84
568.678	385.01
568.881	379
569.084	379.58
569.287	328.82
569.489	326.11
569.692	408.06
569.895	419.88
570.098	334.83
570.3	330.95
570.503	265.08
570.706	328.24
570.909	347.23
571.111	289.1
571.314	311.97
571.516	328.63
571.719	360.98
571.922	337.73
572.124	318.75
572.327	296.66
572.529	283.1
572.732	260.04
572.935	353.23
573.137	365.83
573.34	296.85
573.542	342.58
573.745	350.13
573.947	367.76
574.15	335.21
574.352	300.15
574.554	339.86
574.757	308.28
574.959	307.7
575.162	294.72
575.364	285.42
575.566	399.35
575.769	294.72
575.971	336.57
576.173	268.95
576.376	346.45
576.578	362.34
576.78	385.78
576.982	250.93
577.185	279.8
577.387	280.77
577.589	256.17
577.791	316.03
577.993	322.04
578.196	308.48
578.398	345.87
578.6	357.5
578.802	277.28
579.004	282.32
579.206	313.52
579.408	304.22
579.61	310.8
579.812	330.37
580.014	284.45
580.216	278.06
580.418	261.4
580.62	282.9
580.822	235.63
581.024	286.78
581.226	313.9
581.428	295.3
581.63	339.67
581.832	289.68
582.034	340.25
582.236	297.24
582.438	314.68
582.64	339.28
582.841	352.07
583.043	328.63
583.245	346.84
583.447	339.67
583.649	291.04
583.85	304.6
584.052	330.18
584.254	308.87
584.456	337.35
584.657	274.77
584.859	287.36
585.061	280.77
585.262	261.59
585.464	279.42
585.666	336.96
585.867	273.8
586.069	357.3
586.27	306.93
586.472	311.77
586.674	273.22
586.875	291.82
587.077	293.37
587.278	294.53
587.48	297.05
587.681	398.38
587.883	307.51
588.084	255.97
588.285	301.7
588.487	279.8
588.688	295.11
588.89	251.52
589.091	244.35
589.292	260.04
589.494	281.93
589.695	285.42
589.896	211.99
590.098	242.02
590.299	277.09
590.5	259.46
590.702	242.22
590.903	253.65
591.104	329.21
591.305	285.03
591.507	330.95
591.708	274.18
591.909	261.2
592.11	304.02
592.311	292.98
592.512	271.08
592.714	235.24
592.915	264.3
593.116	260.23
593.317	246.09
593.518	254.62
593.719	254.62
593.92	268.95
594.121	329.21
594.322	279.22
594.523	287.75
594.724	241.05
594.925	256.17
595.126	277.87
595.327	296.08
595.528	300.92
595.729	275.15
595.929	263.14
596.13	246.29
596.331	279.03
596.532	292.98
596.733	303.44
596.934	291.82
597.135	292.59
597.335	264.5
597.536	241.25
597.737	275.35
597.938	257.52
598.138	277.87
598.339	291.62
598.54	292.59
598.74	291.82
598.941	304.6
599.142	341.41
599.342	268.57
599.543	241.05
599.744	244.35
599.944	257.72
600.145	256.36
600.345	271.47
600.546	323.4
600.746	316.42
600.947	352.85
601.147	292.2
601.348	298.98
601.548	269.15
601.749	304.6
601.949	249.97
602.15	255
602.35	288.13
602.551	340.25
602.751	224.2
602.951	274.77
603.152	209.09
603.352	273.22
603.552	256.75
603.753	266.82
603.953	297.05
604.153	265.08
604.354	274.96
604.554	273.6
604.754	263.72
604.954	225.55
605.155	276.12
605.355	261.01
605.555	307.32
605.755	313.32
605.955	261.4
606.155	303.25
606.356	267.4
606.556	278.25
606.756	287.94
606.956	225.75
607.156	308.48
607.356	238.73
607.556	291.43
607.756	270.12
607.956	301.12
608.156	266.82
608.356	269.34
608.556	275.15
608.756	261.01
608.956	261.98
609.156	272.83
609.356	242.6
609.556	230.98
609.755	277.67
609.955	222.65
610.155	306.35
610.355	277.28
610.555	250.35
610.755	245.32
610.954	221.68
611.154	303.44
611.354	292.98
611.554	247.45
611.753	250.93
611.953	196.88
612.153	266.05
612.352	274.57
612.552	223.23
612.752	205.6
612.951	263.72
613.151	275.73
613.351	236.21
613.55	239.31
613.75	241.83
613.949	266.43
614.149	279.03
614.348	243.38
614.548	222.45
614.747	209.09
614.947	219.74
615.146	194.55
615.346	278.25
615.545	242.02
615.745	249
615.944	280.19
616.144	247.64
616.343	274.18
616.542	254.03
616.742	264.5
616.941	235.82
617.14	181.19
617.34	250.16
617.539	236.4
617.738	220.32
617.938	299.37
618.137	243.38
618.336	239.31
618.535	249.19
618.734	228.85
618.934	255.78
619.133	257.72
619.332	250.55
619.531	218.77
619.73	220.13
619.929	253.84
620.128	267.4
620.328	276.12
620.527	222.07
620.726	228.07
620.925	247.25
621.124	210.05
621.323	236.21
621.522	187.77
621.721	194.75
621.92	186.8
622.119	249.77
622.318	218.77
622.517	212.96
622.715	240.09
622.914	173.24
623.113	219.74
623.312	209.28
623.511	247.83
623.71	213.74
623.909	191.84
624.107	298.21
624.306	179.44
624.505	177.5
624.704	202.3
624.902	194.36
625.101	260.82
625.3	231.75
625.499	183.9
625.697	206.37
625.896	177.89
626.095	252.68
626.293	178.28
626.492	193.2
626.69	225.36
626.889	160.84
627.088	245.51
627.286	203.85
627.485	192.23
627.683	195.33
627.882	246.09
628.08	166.27
