Data from oakcork_FLMT105791__216__17-32-47-055.txt Node

Date: Mon Mar 20 17:32:47 GMT 2023
User: antho
Spectrometer: FLMT10579
Trigger mode: 0
Integration Time (sec): 1.000000E-1
Scans to average: 10
Electric dark correction enabled: true
Nonlinearity correction enabled: false
Boxcar width: 0
XAxis mode: Wavelengths
Number of Pixels in Spectrum: 3648
>>>>>Begin Spectral Data<<<<<
345.248	-143.86
345.464	-143.86
345.681	-143.86
345.898	-142.69
346.114	-146.76
346.331	-32.45
346.548	16.37
346.764	-3
346.981	24.51
347.197	-25.48
347.414	9.01
347.631	7.27
347.847	38.07
348.064	8.62
348.28	-3.2
348.497	-37.68
348.713	-2.03
348.93	15.6
349.146	17.92
349.363	9.59
349.579	17.53
349.796	7.07
350.012	9.2
350.229	49.11
350.445	-5.91
350.661	-11.72
350.878	-3.78
351.094	26.25
351.311	28.58
351.527	48.53
351.743	20.63
351.96	49.31
352.176	28.77
352.392	35.17
352.609	40.78
352.825	21.02
353.041	28
353.257	2.62
353.474	18.89
353.69	55.7
353.906	19.67
354.122	-6.88
354.339	64.42
354.555	22.57
354.771	15.21
354.987	80.89
355.203	79.73
355.42	-6.49
355.636	3
355.852	10.56
356.068	8.62
356.284	-18.12
356.5	74.3
356.716	18.5
356.932	27.22
357.148	30.52
357.364	9.78
357.58	67.13
357.796	60.35
358.012	70.04
358.228	24.7
358.444	-28.38
358.66	79.92
358.876	-3.58
359.092	17.73
359.308	16.57
359.524	17.92
359.74	11.53
359.956	26.25
360.172	24.9
360.388	43.11
360.604	17.34
360.819	83.02
361.035	12.3
361.251	33.23
361.467	-7.85
361.683	53.57
361.898	29.93
362.114	34
362.33	33.42
362.546	60.93
362.762	13.47
362.977	54.15
363.193	21.02
363.409	58.41
363.624	13.66
363.84	2.81
364.056	-2.42
364.271	37.88
364.487	44.66
364.703	-7.65
364.918	-32.84
365.134	27.42
365.35	-3.78
365.565	93.48
365.781	34.78
365.996	21.41
366.212	77.4
366.427	28.97
366.643	21.22
366.858	28.38
367.074	-8.82
367.289	74.5
367.505	116.35
367.72	-3.58
367.936	4.75
368.151	44.66
368.367	34.78
368.582	37.3
368.798	0.87
369.013	80.5
369.228	15.98
369.444	56.86
369.659	51.44
369.874	36.72
370.09	80.7
370.305	-20.44
370.52	-0.68
370.736	69.07
370.951	0.29
371.166	98.91
371.381	63.06
371.597	42.92
371.812	6.88
372.027	1.07
372.242	28.77
372.458	61.51
372.673	19.47
372.888	28.77
373.103	42.72
373.318	110.92
373.533	55.9
373.749	34.58
373.964	-13.47
374.179	74.69
374.394	-9.2
374.609	82.44
374.824	7.65
375.039	80.89
375.254	17.34
375.469	77.21
375.684	30.9
375.899	85.73
376.114	39.43
376.329	56.67
376.544	57.64
376.759	61.32
376.974	15.02
377.189	42.72
377.404	18.12
377.619	63.65
377.834	-17.15
378.049	39.23
378.264	0.87
378.478	60.93
378.693	35.75
378.908	50.66
379.123	25.28
379.338	74.3
379.553	31.1
379.767	33.23
379.982	68.68
380.197	66.94
380.412	28.38
380.626	38.27
380.841	80.11
381.056	43.69
381.271	94.45
381.485	15.79
381.7	18.89
381.915	35.94
382.129	32.07
382.344	41.75
382.559	28.97
382.773	81.66
382.988	3.2
383.202	57.25
383.417	28.38
383.632	102.2
383.846	48.15
384.061	28.97
384.275	39.82
384.49	44.85
384.704	41.37
384.919	60.35
385.133	46.01
385.348	78.95
385.562	-8.04
385.777	88.25
385.991	39.23
386.206	32.26
386.42	22.96
386.634	102.78
386.849	62.87
387.063	64.03
387.277	17.53
387.492	14.05
387.706	9.2
387.92	30.32
388.135	69.65
388.349	50.28
388.563	48.34
388.778	55.31
388.992	75.66
389.206	53.76
389.42	99.68
389.635	44.27
389.849	84.96
390.063	91.55
390.277	75.08
390.491	108.6
390.706	62.29
390.92	84.96
391.134	66.94
391.348	95.42
391.562	-3.78
391.776	68.3
391.99	46.21
392.205	84.57
392.419	11.92
392.633	45.82
392.847	73.53
393.061	22.96
393.275	111.5
393.489	44.27
393.703	51.05
393.917	91.55
394.131	48.73
394.345	72.95
394.559	101.43
394.773	53.18
394.986	54.54
395.2	65.2
395.414	85.15
395.628	47.95
395.842	54.54
396.056	59.19
396.27	7.07
396.484	57.64
396.697	62.1
396.911	81.47
397.125	73.91
397.339	106.66
397.553	85.54
397.766	116.54
397.98	100.65
398.194	106.46
398.408	53.38
398.621	106.08
398.835	83.6
399.049	104.91
399.262	119.25
399.476	96
399.69	103.75
399.903	135.91
400.117	63.06
400.331	100.85
400.544	72.36
400.758	198.11
400.971	89.8
401.185	110.15
401.398	59.19
401.612	138.04
401.826	126.42
402.039	138.04
402.253	91.35
402.466	118.67
402.68	88.25
402.893	100.46
403.106	99.3
403.32	90.77
403.533	136.11
403.747	99.3
403.96	102.78
404.174	143.86
404.387	63.65
404.6	105.5
404.814	127.97
405.027	101.43
405.24	98.13
405.454	108.79
405.667	127
405.88	39.04
406.094	110.34
406.307	151.41
406.52	121.77
406.733	59.58
406.947	39.04
407.16	145.79
407.373	147.54
407.586	95.61
407.799	49.7
408.012	138.63
408.226	126.03
408.439	142.69
408.652	58.61
408.865	95.03
409.078	138.43
409.291	130.68
409.504	93.48
409.717	121.19
409.93	107.05
410.143	100.26
410.357	66.36
410.57	49.5
410.783	90.38
410.996	122.55
411.209	89.41
411.421	174.08
411.634	112.08
411.847	101.23
412.06	105.5
412.273	114.02
412.486	122.93
412.699	198.88
412.912	125.45
413.125	145.02
413.338	133.59
413.55	136.11
413.763	145.41
413.976	139.21
414.189	99.68
414.402	115.76
414.615	151.22
414.827	95.23
415.04	151.8
415.253	118.86
415.466	154.13
415.678	188.81
415.891	129.52
416.104	107.82
416.316	120.61
416.529	108.79
416.742	146.57
416.954	157.81
417.167	112.86
417.38	114.8
417.592	182.41
417.805	96.97
418.017	79.34
418.23	151.03
418.442	110.15
418.655	105.3
418.868	141.14
419.08	173.5
419.293	170.98
419.505	163.04
419.718	169.43
419.93	181.64
420.142	118.28
420.355	187.45
420.567	183.19
420.78	162.65
420.992	127.97
421.205	198.3
421.417	123.32
421.629	107.43
421.842	100.65
422.054	113.25
422.266	173.89
422.479	157.42
422.691	134.75
422.903	150.83
423.115	110.53
423.328	143.86
423.54	121.58
423.752	140.95
423.964	133.59
424.177	136.69
424.389	124.68
424.601	232.79
424.813	152.58
425.025	155.29
425.238	176.79
425.45	125.06
425.662	133.59
425.874	407.35
426.086	163.04
426.298	167.11
426.51	190.36
426.722	164.01
426.934	131.65
427.146	173.5
427.358	106.46
427.57	164.98
427.782	161.68
427.994	146.76
428.206	126.61
428.418	94.06
428.63	164.59
428.842	180.28
429.054	145.79
429.266	173.69
429.478	114.8
429.69	161.68
429.902	116.54
430.114	173.31
430.325	185.71
430.537	133.78
430.749	131.46
430.961	107.63
431.173	136.49
431.384	155.29
431.596	90.19
431.808	151.41
432.02	144.44
432.231	196.17
432.443	204.89
432.655	186.87
432.867	122.16
433.078	162.26
433.29	224.46
433.502	206.83
433.713	191.33
433.925	171.56
434.136	201.98
434.348	144.24
434.56	127.78
434.771	226.01
434.983	120.22
435.194	145.99
435.406	177.18
435.617	240.54
435.829	210.51
436.04	224.26
436.252	230.66
436.463	252.55
436.675	200.04
436.886	195.59
437.098	205.86
437.309	259.52
437.521	194.23
437.732	196.94
437.943	190.36
438.155	189.78
438.366	169.43
438.578	252.55
438.789	216.9
439	198.3
439.211	183.38
439.423	221.36
439.634	215.54
439.845	203.92
440.057	181.06
440.268	229.69
440.479	179.7
440.69	200.24
440.902	189.39
441.113	201.01
441.324	200.63
441.535	222.32
441.746	290.91
441.957	193.65
442.168	178.15
442.38	255.46
442.591	229.69
442.802	176.99
443.013	200.04
443.224	242.47
443.435	229.11
443.646	226.97
443.857	224.65
444.068	216.9
444.279	192.88
444.49	291.88
444.701	218.64
444.912	312.61
445.123	249.06
445.334	249.84
445.545	231.04
445.756	228.72
445.967	198.11
446.178	267.47
446.388	275.99
446.599	265.92
446.81	250.42
447.021	213.8
447.232	259.72
447.443	317.45
447.653	226.01
447.864	275.22
448.075	259.91
448.286	266.89
448.496	274.44
448.707	246.35
448.918	235.31
449.129	310.67
449.339	230.07
449.55	291.88
449.761	230.07
449.971	282.77
450.182	249.45
450.393	266.5
450.603	249.45
450.814	272.51
451.024	262.04
451.235	291.49
451.446	336.83
451.656	332.76
451.867	260.88
452.077	271.34
452.288	312.61
452.498	315.13
452.709	244.02
452.919	276.57
453.13	257.01
453.34	316.29
453.55	232.01
453.761	287.42
453.971	261.66
454.182	305.44
454.392	300.02
454.602	325.59
454.813	299.05
455.023	299.24
455.233	237.24
455.444	287.04
455.654	201.4
455.864	275.02
456.075	273.67
456.285	268.05
456.495	295.37
456.705	283.74
456.916	320.17
457.126	320.94
457.336	264.95
457.546	234.53
457.756	239.18
457.967	348.65
458.177	278.71
458.387	291.69
458.597	279.48
458.807	269.99
459.017	290.14
459.227	264.76
459.437	256.42
459.647	331.4
459.857	312.42
460.068	263.21
460.278	316.87
460.488	299.44
460.698	337.02
460.908	284.91
461.117	274.25
461.327	265.92
461.537	305.25
461.747	298.47
461.957	302.54
462.167	386.43
462.377	349.23
462.587	291.88
462.797	324.04
463.007	291.69
463.216	331.6
463.426	360.27
463.636	356.2
463.846	269.79
464.056	299.24
464.265	364.15
464.475	307.77
464.685	303.7
464.895	341.67
465.104	304.86
465.314	345.94
465.524	309.12
465.733	285.29
465.943	369.57
466.153	381.59
466.362	330.82
466.572	333.15
466.782	327.34
466.991	311.64
467.201	371.9
467.41	262.04
467.62	347.1
467.829	341.67
468.039	360.66
468.249	340.12
468.458	341.29
468.668	371.12
468.877	351.36
469.086	351.55
469.296	381.59
469.505	306.22
469.715	406.38
469.924	351.17
470.134	398.83
470.343	397.08
470.552	358.53
470.762	341.87
470.971	318.04
471.18	347.68
471.39	349.62
471.599	344.77
471.808	377.52
472.018	360.27
472.227	390.89
472.436	396.89
472.645	378.49
472.855	341.48
473.064	372.48
473.273	384.49
473.482	403.48
473.691	436.22
473.901	408.52
474.11	393.21
474.319	467.22
474.528	397.08
474.737	449.59
474.946	410.07
475.155	396.5
475.364	436.03
475.573	437.97
475.783	442.62
475.992	442.23
476.201	445.33
476.41	405.03
476.619	395.53
476.828	421.3
477.037	405.42
477.245	430.99
477.454	483.88
477.663	413.94
477.872	425.37
478.081	478.65
478.29	409.1
478.499	504.61
478.708	501.71
478.917	502.29
479.125	459.86
479.334	479.62
479.543	455.98
479.752	466.45
479.961	456.57
480.169	496.48
480.378	453.08
480.587	560.8
480.796	497.64
481.004	504.23
481.213	507.52
481.422	487.18
481.63	489.89
481.839	517.6
482.048	547.82
482.256	517.4
482.465	500.93
482.674	523.41
482.882	543.17
483.091	603.23
483.299	533.87
483.508	546.66
483.716	541.62
483.925	554.6
484.134	502.87
484.342	541.81
484.551	546.27
484.759	544.33
484.967	536.97
485.176	557.31
485.384	562.35
485.593	562.74
485.801	554.8
486.01	517.79
486.218	511.98
486.426	446.49
486.635	507.13
486.843	463.93
487.051	513.53
487.26	487.95
487.468	525.73
487.676	542.2
487.885	510.43
488.093	557.31
488.301	571.65
488.509	585.79
488.717	600.33
488.926	550.92
489.134	550.15
489.342	584.05
489.55	533.87
489.758	564.48
489.967	578.43
490.175	683.44
490.383	581.92
490.591	684.02
490.799	563.13
491.007	630.74
491.215	620.67
491.423	602.26
491.631	611.18
491.839	595.09
492.047	635.01
492.255	575.91
492.463	554.6
492.671	600.13
492.879	645.28
493.087	639.66
493.295	624.74
493.503	630.74
493.711	661.94
493.919	672.01
494.127	640.24
494.334	697.59
494.542	601.68
494.75	640.24
494.958	665.42
495.166	694.68
495.374	668.72
495.581	672.79
495.789	644.31
495.997	708.44
496.205	623.38
496.412	676.27
496.62	654.38
496.828	704.56
497.035	678.41
497.243	680.54
497.451	657.29
497.658	697.01
497.866	662.52
498.074	743.5
498.281	671.82
498.489	737.11
498.696	693.13
498.904	675.89
499.112	650.89
499.319	732.07
499.527	682.86
499.734	744.86
499.942	653.99
500.149	675.5
500.357	685.19
500.564	653.22
500.771	702.43
500.979	646.24
501.186	658.64
501.394	688.48
501.601	664.84
501.808	704.76
502.016	652.25
502.223	707.27
502.43	677.63
502.638	673.37
502.845	641.79
503.052	745.05
503.26	694.1
503.467	753.97
503.674	700.88
503.881	737.69
504.089	778.19
504.296	713.67
504.503	669.11
504.71	699.52
504.917	646.05
505.125	718.12
505.332	728.39
505.539	709.02
505.746	758.42
505.953	733.24
506.16	738.66
506.367	758.42
506.574	811.7
506.781	790.78
506.988	757.26
507.195	749.7
507.402	710.76
507.609	764.62
507.816	717.54
508.023	746.6
508.23	751.45
508.437	699.72
508.644	795.43
508.851	811.51
509.058	795.24
509.265	778.96
509.472	772.18
509.679	870.22
509.885	757.07
510.092	783.03
510.299	763.07
510.506	804.73
510.713	790.78
510.92	761.52
511.126	818.29
511.333	838.44
511.54	821.97
511.746	828.56
511.953	846.58
512.16	849.87
512.367	801.82
512.573	799.69
512.78	832.82
512.987	771.99
513.193	817.32
513.4	750.29
513.606	783.8
513.813	814.8
514.02	815.58
514.226	867.5
514.433	840.38
514.639	786.32
514.846	838.44
515.052	802.99
515.259	827.4
515.465	820.42
515.672	841.73
515.878	907.61
516.085	833.6
516.291	859.37
516.497	828.56
516.704	786.32
516.91	815.77
517.117	757.26
517.323	700.3
517.529	775.86
517.736	778.38
517.942	784
518.148	797.75
518.354	827.59
518.561	818.68
518.767	814.61
518.973	847.55
519.179	827.98
519.386	818.1
519.592	805.12
519.798	830.5
520.004	888.82
520.21	842.51
520.417	915.75
520.623	925.82
520.829	946.16
521.035	928.15
521.241	953.72
521.447	939.96
521.653	1002.93
521.859	908.38
522.065	933.57
522.271	1022.89
522.477	967.67
522.683	1011.26
522.889	987.05
523.095	944.61
523.301	976.78
523.507	960.11
523.713	964.18
523.919	956.82
524.125	1013.2
524.331	1003.9
524.537	1058.54
524.742	1013.59
524.948	1050.21
525.154	1025.99
525.36	1142.62
525.566	1028.89
525.772	1087.02
525.977	1001.38
526.183	1051.76
526.389	1061.44
526.595	983.36
526.8	1011.26
527.006	981.62
527.212	943.45
527.417	947.71
527.623	942.68
527.829	1035.09
528.034	1020.18
528.24	1005.84
528.446	1018.63
528.651	1085.08
528.857	1087.6
529.062	1145.34
529.268	1068.81
529.473	1108.52
529.679	1101.36
529.884	1154.06
530.09	1128.09
530.295	1190.29
530.501	1155.02
530.706	1123.06
530.912	1106.39
531.117	1105.81
531.323	1124.8
531.528	1180.4
531.733	1191.25
531.939	1132.74
532.144	1162.77
532.35	1149.21
532.555	1204.82
532.76	1171.49
532.966	1174.4
533.171	1151.92
533.376	1133.52
533.581	1136.23
533.787	1109.49
533.992	1182.34
534.197	1214.31
534.402	1130.42
534.607	1205.01
534.813	1258.1
535.018	1186.41
535.223	1161.42
535.428	1181.76
535.633	1250.15
535.838	1232.91
536.043	1197.07
536.249	1312.73
536.454	1237.95
536.659	1260.42
536.864	1229.04
537.069	1214.89
537.274	1251.12
537.479	1248.99
537.684	1222.06
537.889	1171.11
538.094	1313.51
538.299	1213.15
538.504	1257.52
538.708	1304.21
538.913	1294.72
539.118	1264.69
539.323	1276.5
539.528	1222.45
539.733	1277.08
539.938	1271.85
540.142	1277.08
540.347	1231.75
540.552	1236.79
540.757	1266.62
540.962	1240.85
541.166	1192.22
541.371	1201.33
541.576	1228.65
541.781	1164.91
541.985	1269.72
542.19	1294.13
542.395	1306.15
542.599	1318.16
542.804	1267.2
543.008	1326.49
543.213	1266.82
543.418	1234.46
543.622	1307.7
543.827	1227.1
544.031	1326.68
544.236	1347.03
544.44	1339.67
544.645	1383.06
544.849	1284.64
545.054	1348
545.258	1367.56
545.463	1358.85
545.667	1292.78
545.872	1384.42
546.076	1320.1
546.281	1308.86
546.485	1292.97
546.689	1343.93
546.894	1352.26
547.098	1368.34
547.302	1317.77
547.507	1320.1
547.711	1337.53
547.915	1409.22
548.119	1320.87
548.324	1322.03
548.528	1351.68
548.732	1315.83
548.936	1385.58
549.141	1407.28
549.345	1335.4
549.549	1332.11
549.753	1346.25
549.957	1432.08
550.161	1404.18
550.366	1389.46
550.57	1337.73
550.774	1365.82
550.978	1351.29
551.182	1373.96
551.386	1360.98
551.59	1321.26
551.794	1344.51
551.998	1374.15
552.202	1345.67
552.406	1323.39
552.61	1372.21
552.814	1391.59
553.018	1398.76
553.222	1343.15
553.426	1357.49
553.63	1427.05
553.833	1382.87
554.037	1299.75
554.241	1381.32
554.445	1378.61
554.649	1360.59
554.853	1333.27
555.056	1417.36
555.26	1414.06
555.464	1364.27
555.668	1387.13
555.871	1387.13
556.075	1412.32
556.279	1328.82
556.483	1307.12
556.686	1354
556.89	1350.71
557.094	1376.48
557.297	1323.58
557.501	1369.31
557.704	1288.9
557.908	1361.75
558.112	1313.32
558.315	1404.96
558.519	1346.64
558.722	1326.1
558.926	1331.92
559.129	1262.55
559.333	1251.32
559.536	1255.19
559.74	1226.52
559.943	1250.93
560.147	1255.19
560.35	1249.19
560.553	1257.13
560.757	1229.42
560.96	1343.73
561.164	1256.55
561.367	1334.43
561.57	1271.08
561.774	1301.5
561.977	1292.39
562.18	1273.79
562.384	1359.62
562.587	1294.52
562.79	1269.33
562.993	1288.13
563.197	1320.68
563.4	1309.25
563.603	1325.72
563.806	1372.99
564.009	1260.23
564.212	1280.38
564.416	1233.88
564.619	1255.58
564.822	1231.36
565.025	1296.27
565.228	1244.92
565.431	1262.55
565.634	1172.07
565.837	1225.74
566.04	1195.32
566.243	1212.18
566.446	1142.62
566.649	1245.12
566.852	1161.81
567.055	1196.87
567.258	1219.35
567.461	1262.36
567.664	1234.07
567.867	1132.74
568.07	1214.12
568.273	1182.34
568.475	1237.17
568.678	1179.24
568.881	1169.94
569.084	1177.69
569.287	1094.96
569.489	1091.67
569.692	1167.81
569.895	1164.71
570.098	1109.3
570.3	1105.42
570.503	1049.63
570.706	1069
570.909	1103.1
571.111	1024.83
571.314	1064.54
571.516	1053.31
571.719	1078.69
571.922	1062.41
572.124	1073.84
572.327	1072.49
572.529	1050.79
572.732	1070.55
572.935	1084.11
573.137	1093.61
573.34	1061.06
573.542	1084.89
573.745	1089.93
573.947	1064.93
574.15	1075.59
574.352	1030.06
574.554	1118.99
574.757	1014.56
574.959	1026.18
575.162	1033.16
575.364	998.28
575.566	1155.61
575.769	1030.25
575.971	1019.4
576.173	940.16
576.376	1027.15
576.578	1040.91
576.78	1072.29
576.982	939.77
577.185	996.15
577.387	1004.48
577.589	956.24
577.791	1005.06
577.993	1045.17
578.196	986.08
578.398	1002.55
578.6	1036.64
578.802	950.43
579.004	950.81
579.206	975.23
579.408	1000.61
579.61	978.71
579.812	1042.46
580.014	943.26
580.216	948.1
580.418	973.29
580.62	949.85
580.822	928.15
581.024	973.68
581.226	1008.74
581.428	979.49
581.63	1036.45
581.832	975.42
582.034	1008.94
582.236	972.32
582.438	1017.66
582.64	1010.68
582.841	1028.7
583.043	1085.47
583.245	1026.18
583.447	1020.56
583.649	977.55
583.85	971.35
584.052	1033.54
584.254	951.2
584.456	1012.62
584.657	963.41
584.859	981.43
585.061	973.87
585.262	972.13
585.464	945.2
585.666	1009.91
585.867	991.11
586.069	1020.76
586.27	993.25
586.472	973.48
586.674	939.58
586.875	966.9
587.077	959.73
587.278	979.88
587.48	970.38
587.681	1052.53
587.883	987.05
588.084	916.72
588.285	932.21
588.487	941.13
588.688	943.65
588.89	861.3
589.091	883.97
589.292	883.2
589.494	854.52
589.695	848.9
589.896	791.55
590.098	774.31
590.299	864.21
590.5	818.49
590.702	845.61
590.903	881.84
591.104	919.43
591.305	886.3
591.507	936.09
591.708	895.21
591.909	908.38
592.11	949.26
592.311	888.82
592.512	879.13
592.714	843.09
592.915	877.58
593.116	861.69
593.317	887.46
593.518	912.45
593.719	872.73
593.92	885.72
594.121	922.53
594.322	928.34
594.523	905.28
594.724	838.05
594.925	887.65
595.126	920.01
595.327	910.13
595.528	916.33
595.729	871.57
595.929	882.03
596.13	905.09
596.331	889.4
596.532	885.91
596.733	942.68
596.934	923.3
597.135	939
597.335	925.82
597.536	875.45
597.737	905.87
597.938	878.55
598.138	913.23
598.339	886.49
598.54	897.15
598.74	892.69
598.941	882.62
599.142	935.9
599.342	897.15
599.543	851.42
599.744	868.47
599.944	866.15
600.145	884.36
600.345	896.18
600.546	958.76
600.746	961.86
600.947	966.12
601.147	909.16
601.348	958.95
601.548	880.1
601.749	876.42
601.949	860.53
602.15	893.08
602.35	879.32
602.551	932.99
602.751	870.41
602.951	855.3
603.152	818.1
603.352	898.31
603.552	881.65
603.753	891.14
603.953	871.77
604.153	908.38
604.354	900.25
604.554	873.51
604.754	871.77
604.954	855.3
605.155	913.42
605.355	876.42
605.555	899.86
605.755	937.25
605.955	908.77
606.155	904.7
606.356	897.53
606.556	918.65
606.756	888.04
606.956	854.52
607.156	946.16
607.356	851.81
607.556	893.85
607.756	903.35
607.956	921.95
608.156	913.23
608.356	855.1
608.556	922.72
608.756	869.44
608.956	845.03
609.156	897.73
609.356	849.48
609.556	831.27
609.755	881.65
609.955	835.15
610.155	853.17
610.355	869.44
610.555	847.74
610.755	857.82
610.954	797.75
611.154	875.83
611.354	879.32
611.554	835.53
611.753	852.78
611.953	798.92
612.153	871.38
612.352	831.27
612.552	812.29
612.752	794.27
612.951	834.37
613.151	857.62
613.351	809.57
613.55	830.69
613.75	856.27
613.949	816.35
614.149	845.8
614.348	830.11
614.548	802.4
614.747	757.45
614.947	795.82
615.146	754.16
615.346	820.81
615.545	792.33
615.745	826.43
615.944	844.64
616.144	798.14
616.343	844.64
616.542	798.53
616.742	799.3
616.941	791.17
617.14	761.14
617.34	775.86
617.539	801.05
617.738	759
617.938	833.79
618.137	795.43
618.336	743.12
618.535	823.91
618.734	780.7
618.934	805.7
619.133	782.06
619.332	778.77
619.531	778.77
619.73	776.44
619.929	834.76
620.128	795.04
620.328	846.58
620.527	786.71
620.726	794.07
620.925	799.89
621.124	800.66
621.323	815
621.522	728.39
