Data from oakcork_FLMT105791__298__17-34-44-052.txt Node

Date: Mon Mar 20 17:34:44 GMT 2023
User: antho
Spectrometer: FLMT10579
Trigger mode: 0
Integration Time (sec): 1.000000E-1
Scans to average: 10
Electric dark correction enabled: true
Nonlinearity correction enabled: false
Boxcar width: 0
XAxis mode: Wavelengths
Number of Pixels in Spectrum: 3648
>>>>>Begin Spectral Data<<<<<
345.248	-158.26
345.464	-158.26
345.681	-158.26
345.898	-163.1
346.114	-146.63
346.331	-33.49
346.548	42.08
346.764	-8.49
346.981	-11.01
347.197	-20.31
347.414	8.36
347.631	-19.15
347.847	47.89
348.064	6.81
348.28	30.26
348.497	-30.97
348.713	-11.98
348.93	23.67
349.146	25.03
349.363	-27.09
349.579	17.86
349.796	-20.5
350.012	-22.05
350.229	44.79
350.445	0.23
350.661	-9.07
350.878	5.65
351.094	8.75
351.311	9.33
351.527	18.24
351.743	1.78
351.96	1.39
352.176	30.26
352.392	7.59
352.609	47.11
352.825	-7.52
353.041	-11.98
353.257	-2.68
353.474	-10.43
353.69	34.33
353.906	-17.4
354.122	-17.99
354.339	52.54
354.555	15.53
354.771	-7.52
354.987	71.33
355.203	34.13
355.42	-30.97
355.636	-17.6
355.852	-11.4
356.068	2.36
356.284	-18.18
356.5	47.5
356.716	-8.49
356.932	-18.76
357.148	31.61
357.364	10.3
357.58	24.44
357.796	43.82
358.012	58.93
358.228	36.46
358.444	-58.48
358.66	23.48
358.876	7.01
359.092	-27.67
359.308	-11.4
359.524	19.21
359.74	-23.99
359.956	-12.17
360.172	9.72
360.388	37.23
360.604	5.07
360.819	68.04
361.035	12.04
361.251	1.39
361.467	-8.69
361.683	18.24
361.898	28.51
362.114	25.99
362.33	15.53
362.546	60.48
362.762	-6.56
362.977	18.83
363.193	-33.87
363.409	40.33
363.624	-31.16
363.84	-5.39
364.056	-15.27
364.271	19.02
364.487	31.81
364.703	2.94
364.918	0.03
365.134	12.63
365.35	-16.24
365.565	86.83
365.781	7.2
365.996	25.99
366.212	81.99
366.427	10.3
366.643	-13.34
366.858	-2.29
367.074	-40.85
367.289	35.29
367.505	101.36
367.72	-14.31
367.936	-22.05
368.151	64.94
368.367	35.88
368.582	28.32
368.798	-12.37
369.013	29.09
369.228	1
369.444	-14.5
369.659	51.38
369.874	19.41
370.09	64.74
370.305	-61.39
370.52	-12.56
370.736	53.7
370.951	14.37
371.166	23.09
371.381	81.02
371.597	62.03
371.812	3.71
372.027	-6.17
372.242	-6.56
372.458	72.49
372.673	2.55
372.888	18.44
373.103	20.57
373.318	87.41
373.533	24.83
373.749	17.47
373.964	-55.77
374.179	50.02
374.394	-17.02
374.609	67.07
374.824	-20.5
375.039	49.05
375.254	-10.82
375.469	58.93
375.684	11.27
375.899	61.06
376.114	7.01
376.329	-7.52
376.544	47.11
376.759	50.6
376.974	-21.47
377.189	6.62
377.404	22.51
377.619	34.13
377.834	-36.2
378.049	-19.92
378.264	-22.05
378.478	15.73
378.693	-39.1
378.908	17.66
379.123	-6.75
379.338	55.25
379.553	35.1
379.767	22.89
379.982	35.88
380.197	51.76
380.412	9.72
380.626	10.49
380.841	69.59
381.056	33.36
381.271	92.84
381.485	-30.58
381.7	-19.92
381.915	14.76
382.129	-17.4
382.344	11.27
382.559	-1.91
382.773	52.73
382.988	-7.91
383.202	32
383.417	-7.33
383.632	83.73
383.846	15.73
384.061	49.63
384.275	5.65
384.49	33.36
384.704	47.89
384.919	37.81
385.133	9.53
385.348	44.59
385.562	-7.91
385.777	47.11
385.991	18.24
386.206	2.74
386.42	-10.82
386.634	38.39
386.849	51.38
387.063	1.19
387.277	-4.42
387.492	20.38
387.706	-18.18
387.92	-26.7
388.135	35.1
388.349	28.32
388.563	8.36
388.778	23.09
388.992	32.58
389.206	60.87
389.42	83.34
389.635	13.79
389.849	37.62
390.063	52.34
390.277	47.5
390.491	81.6
390.706	29.29
390.92	42.27
391.134	26.77
391.348	44.79
391.562	-22.83
391.776	9.91
391.99	12.04
392.205	39.75
392.419	-5.97
392.633	-6.56
392.847	62.61
393.061	15.34
393.275	72.88
393.489	24.25
393.703	32.78
393.917	58.16
394.131	-1.13
394.345	44.21
394.559	64.16
394.773	19.6
394.986	37.04
395.2	20.18
395.414	44.98
395.628	1.19
395.842	15.14
396.056	7.2
396.27	12.63
396.484	39.17
396.697	27.54
396.911	70.94
397.125	32.78
397.339	55.64
397.553	42.85
397.766	68.81
397.98	63.78
398.194	73.46
398.408	-2.49
398.621	32.78
398.835	36.84
399.049	27.54
399.262	76.76
399.476	55.44
399.69	36.84
399.903	92.26
400.117	47.69
400.331	39.56
400.544	16.5
400.758	140.31
400.971	44.59
401.185	58.35
401.398	-1.52
401.612	57.77
401.826	50.02
402.039	59.32
402.253	21.34
402.466	40.91
402.68	17.28
402.893	25.41
403.106	12.24
403.32	14.56
403.533	31.42
403.747	43.43
403.96	53.89
404.174	42.08
404.387	-4.81
404.6	44.79
404.814	54.48
405.027	37.43
405.24	51.96
405.454	56.03
405.667	69.59
405.88	-23.41
406.094	43.24
406.307	64.94
406.52	39.17
406.733	-7.14
406.947	-11.01
407.16	107.76
407.373	59.32
407.586	32.58
407.799	6.43
408.012	59.9
408.226	55.44
408.439	83.34
408.652	8.94
408.865	49.24
409.078	94.58
409.291	59.71
409.504	24.25
409.717	60.68
409.93	28.71
410.143	49.83
410.357	-0.94
410.57	7.39
410.783	30.06
410.996	38.98
411.209	44.59
411.421	70.75
411.634	21.93
411.847	17.66
412.06	39.17
412.273	48.47
412.486	51.96
412.699	149.22
412.912	45.95
413.125	68.62
413.338	46.92
413.55	100.2
413.763	50.21
413.976	85.09
414.189	34.52
414.402	8.56
414.615	97.87
414.827	11.85
415.04	79.27
415.253	76.56
415.466	84.31
415.678	103.69
415.891	50.21
416.104	57.96
416.316	56.03
416.529	11.66
416.742	58.54
416.954	69.01
417.167	69.39
417.38	73.07
417.592	88.38
417.805	11.08
418.017	-1.32
418.23	47.89
418.442	0.81
418.655	45.37
418.868	54.67
419.08	99.62
419.293	80.82
419.505	62.03
419.718	84.12
419.93	85.09
420.142	38.98
420.355	90.12
420.567	102.14
420.78	88.57
420.992	44.01
421.205	94.58
421.417	17.47
421.629	35.29
421.842	24.64
422.054	7.01
422.266	68.81
422.479	85.28
422.691	40.53
422.903	76.37
423.115	19.79
423.328	64.74
423.54	86.83
423.752	46.34
423.964	48.47
424.177	68.04
424.389	27.35
424.601	139.72
424.813	67.84
425.025	62.42
425.238	87.02
425.45	27.35
425.662	23.09
425.874	318.94
426.086	38.01
426.298	79.08
426.51	83.34
426.722	68.43
426.934	39.17
427.146	65.52
427.358	25.99
427.57	95.74
427.782	51.38
427.994	48.08
428.206	29.29
428.418	-6.17
428.63	61.06
428.842	83.73
429.054	50.99
429.266	82.96
429.478	43.82
429.69	72.49
429.902	38.2
430.114	86.44
430.325	62.81
430.537	13.98
430.749	42.27
430.961	-0.36
431.173	50.6
431.384	70.94
431.596	-21.47
431.808	46.73
432.02	55.83
432.231	69.2
432.443	95.36
432.655	64.16
432.867	34.91
433.078	84.89
433.29	106.59
433.502	84.89
433.713	92.64
433.925	74.43
434.136	108.34
434.348	48.08
434.56	17.86
434.771	147.47
434.983	2.55
435.194	54.28
435.406	51.76
435.617	94.39
435.829	103.11
436.04	81.6
436.252	72.49
436.463	85.09
436.675	87.02
436.886	69.2
437.098	77.14
437.309	121.32
437.521	69.78
437.732	56.8
437.943	75.98
438.155	82.76
438.366	27.35
438.578	145.54
438.789	80.24
439	103.3
439.211	49.83
439.423	87.41
439.634	74.43
439.845	109.11
440.057	81.99
440.268	93.22
440.479	55.64
440.69	99.42
440.902	61.64
441.113	58.54
441.324	77.34
441.535	99.23
441.746	119.77
441.957	24.44
442.168	60.09
442.38	81.02
442.591	118.8
442.802	90.32
443.013	39.75
443.224	68.62
443.435	69.39
443.646	72.3
443.857	86.64
444.068	60.48
444.279	79.86
444.49	125.39
444.701	82.76
444.912	180.99
445.123	89.74
445.334	94.77
445.545	112.02
445.756	110.08
445.967	36.26
446.178	119.19
446.388	111.05
446.599	137.21
446.81	83.92
447.021	87.02
447.232	122.87
447.443	122.67
447.653	51.57
447.864	121.32
448.075	85.86
448.286	112.6
448.496	80.24
448.707	102.91
448.918	91.09
449.129	185.84
449.339	83.34
449.55	95.94
449.761	66.49
449.971	159.49
450.182	81.6
450.393	108.53
450.603	68.81
450.814	122.48
451.024	119.77
451.235	125.58
451.446	114.54
451.656	138.56
451.867	79.66
452.077	111.44
452.288	142.24
452.498	142.44
452.709	82.37
452.919	121.32
453.13	93.61
453.34	129.26
453.55	51.57
453.761	135.27
453.971	125.97
454.182	142.63
454.392	107.17
454.602	152.71
454.813	97.1
455.023	131.78
455.233	70.75
455.444	98.84
455.654	92.84
455.864	108.92
456.075	83.73
456.285	89.54
456.495	70.17
456.705	111.05
456.916	137.98
457.126	143.99
457.336	89.74
457.546	59.9
457.756	99.81
457.967	131.59
458.177	93.61
458.387	112.79
458.597	63.97
458.807	95.55
459.017	77.92
459.227	100.2
459.437	97.29
459.647	122.87
459.857	123.64
460.068	50.41
460.278	126.74
460.488	118.22
460.698	184.29
460.908	120.93
461.117	77.34
461.327	83.34
461.537	94.77
461.747	121.32
461.957	138.56
462.167	180.22
462.377	159.87
462.587	102.91
462.797	130.81
463.007	108.53
463.216	147.28
463.426	150.19
463.636	133.91
463.846	71.72
464.056	90.71
464.265	158.32
464.475	105.82
464.685	131.2
464.895	141.27
465.104	111.44
465.314	145.34
465.524	95.16
465.733	79.08
465.943	193.39
466.153	176.73
466.362	134.49
466.572	122.48
466.782	98.46
466.991	136.82
467.201	166.46
467.41	74.43
467.62	143.02
467.829	112.02
468.039	133.14
468.249	114.34
468.458	107.56
468.668	162.39
468.877	159.87
469.086	142.44
469.296	155.81
469.505	82.76
469.715	182.93
469.924	155.81
470.134	175.76
470.343	196.88
470.552	125
470.762	131.78
470.971	99.42
471.18	129.26
471.39	118.02
471.599	88.96
471.808	163.55
472.018	113.37
472.227	182.35
472.436	137.21
472.645	112.41
472.855	87.8
473.064	158.91
473.273	112.02
473.482	154.26
473.691	188.94
473.901	178.86
474.11	146.7
474.319	233.69
474.528	142.05
474.737	181.19
474.946	159.1
475.155	125.19
475.364	162.39
475.573	168.2
475.783	154.06
475.992	145.34
476.201	198.62
476.41	129.46
476.619	121.12
476.828	164.52
477.037	127.71
477.245	171.3
477.454	196.69
477.663	128.49
477.872	155.61
478.081	191.45
478.29	124.81
478.499	213.15
478.708	168.98
478.917	217.03
479.125	151.35
479.334	177.7
479.543	159.68
479.752	159.68
479.961	163.94
480.169	211.6
480.378	142.63
480.587	272.63
480.796	178.67
481.004	167.43
481.213	190.68
481.422	180.02
481.63	171.69
481.839	200.75
482.048	221.1
482.256	155.22
482.465	172.47
482.674	190.29
482.882	186.42
483.091	254.62
483.299	214.9
483.508	195.14
483.716	172.47
483.925	175.95
484.134	195.14
484.342	180.6
484.551	246.87
484.759	204.44
484.967	217.61
485.176	220.13
485.384	213.35
485.593	236.99
485.801	206.18
486.01	188.74
486.218	205.6
486.426	176.15
486.635	186.22
486.843	190.68
487.051	188.94
487.26	184.87
487.468	197.65
487.676	244.35
487.885	165.49
488.093	184.87
488.301	174.6
488.509	205.79
488.717	201.34
488.926	214.51
489.134	203.66
489.342	194.75
489.55	181.77
489.758	220.32
489.967	171.89
490.175	293.56
490.383	190.49
490.591	251.13
490.799	156
491.007	253.84
491.215	219.35
491.423	187.19
491.631	209.47
491.839	210.44
492.047	252.48
492.255	190.87
492.463	157.16
492.671	207.92
492.879	253.65
493.087	207.15
493.295	222.07
493.503	219.94
493.711	267.79
493.919	252.1
494.127	268.95
494.334	273.41
494.542	201.34
494.75	225.94
494.958	224.2
495.166	271.28
495.374	221.1
495.581	249.58
495.789	216.84
495.997	282.9
496.205	264.3
496.412	236.21
496.62	222.07
496.828	247.06
497.035	218.58
497.243	263.72
497.451	237.37
497.658	228.46
497.866	218.19
498.074	294.33
498.281	219.74
498.489	291.43
498.696	274.77
498.904	261.98
499.112	217.22
499.319	310.61
499.527	242.41
499.734	329.79
499.942	210.05
500.149	217.03
500.357	250.74
500.564	218.58
500.771	270.31
500.979	219.94
501.186	230.79
501.394	251.52
501.601	254.23
501.808	283.68
502.016	231.17
502.223	252.29
502.43	251.9
502.638	236.99
502.845	241.44
503.052	308.28
503.26	235.24
503.467	317.2
503.674	236.02
503.881	262.37
504.089	323.59
504.296	245.7
504.503	213.93
504.71	281.35
504.917	224.97
505.125	266.43
505.332	270.89
505.539	267.79
505.746	281.74
505.953	258.49
506.16	262.37
506.367	303.44
506.574	310.42
506.781	297.05
506.988	245.12
507.195	261.01
507.402	262.17
507.609	315.84
507.816	268.18
508.023	257.33
508.23	260.82
508.437	235.05
508.644	273.22
508.851	333.47
509.058	298.6
509.265	274.18
509.472	299.57
509.679	351.88
509.885	287.36
510.092	267.79
510.299	254.23
510.506	277.28
510.713	297.82
510.92	296.27
511.126	319.91
511.333	328.24
511.54	313.52
511.746	346.84
511.953	333.86
512.16	344.51
512.367	255.39
512.573	277.48
512.78	282.71
512.987	301.89
513.193	321.46
513.4	221.29
513.606	283.48
513.813	308.09
514.02	296.85
514.226	365.83
514.433	385.4
514.639	273.8
514.846	307.51
515.052	295.5
515.259	310.03
515.465	326.3
515.672	323.01
515.878	384.04
516.085	272.44
516.291	348.78
516.497	291.43
516.704	293.56
516.91	255.58
517.117	276.32
517.323	243.38
517.529	280.38
517.736	292.98
517.942	299.95
518.148	265.47
518.354	279.8
518.561	305.96
518.767	311.97
518.973	338.31
519.179	334.83
519.386	310.8
519.592	280
519.798	305.77
520.004	356.53
520.21	275.35
520.417	345.48
520.623	346.26
520.829	322.04
521.035	347.42
521.241	341.8
521.447	345.29
521.653	445.07
521.859	349.94
522.065	333.86
522.271	411.36
522.477	373.77
522.683	399.54
522.889	390.43
523.095	358.08
523.301	365.25
523.507	337.73
523.713	366.21
523.919	316.42
524.125	390.63
524.331	375.32
524.537	382.68
524.742	398.96
524.948	397.6
525.154	378.23
525.36	470.06
525.566	369.51
525.772	435.96
525.977	355.17
526.183	424.53
526.389	410.2
526.595	378.61
526.8	379.2
527.006	371.25
527.212	387.53
527.417	336.18
527.623	298.79
527.829	408.06
528.034	370.67
528.24	395.47
528.446	343.55
528.651	427.05
528.857	403.8
529.062	451.27
529.268	420.08
529.473	397.21
529.679	384.43
529.884	459.99
530.09	417.36
530.295	460.96
530.501	445.65
530.706	405.16
530.912	389.85
531.117	410
531.323	412.52
531.528	417.75
531.733	424.53
531.939	422.98
532.144	445.46
532.35	416.78
532.555	455.92
532.76	453.01
532.966	485.56
533.171	423.56
533.376	425.89
533.581	426.47
533.787	426.47
533.992	430.34
534.197	492.15
534.402	436.54
534.607	448.94
534.813	511.14
535.018	403.22
535.223	435.19
535.428	430.93
535.633	472.19
535.838	440.03
536.043	440.03
536.249	534
536.454	431.51
536.659	480.14
536.864	437.71
537.069	429.18
537.274	466.96
537.479	445.26
537.684	473.16
537.889	448.56
538.094	527.8
538.299	438.68
538.504	475.1
538.708	480.91
538.913	500.09
539.118	468.32
539.323	474.52
539.528	453.21
539.733	455.34
539.938	483.04
540.142	483.04
540.347	432.09
540.552	429.76
540.757	462.31
540.962	455.53
541.166	419.3
541.371	412.33
541.576	464.06
541.781	372.22
541.985	475.49
542.19	496.03
542.395	474.33
542.599	520.24
542.804	499.71
543.008	518.5
543.213	470.64
543.418	456.11
543.622	490.99
543.827	475.1
544.031	529.93
544.236	543.3
544.44	464.06
544.645	549.31
544.849	455.53
545.054	494.48
545.258	544.46
545.463	528.57
545.667	463.67
545.872	512.88
546.076	495.83
546.281	490.99
546.485	483.82
546.689	515.4
546.894	517.72
547.098	514.24
547.302	464.25
547.507	497.77
547.711	505.52
547.915	536.32
548.119	481.11
548.324	505.33
548.528	531.67
548.732	518.69
548.936	507.65
549.141	515.21
549.345	497.58
549.549	478.98
549.753	481.69
549.957	568.49
550.161	528.57
550.366	503.78
550.57	466.58
550.774	470.06
550.978	489.24
551.182	509.2
551.386	479.94
551.59	483.63
551.794	491.96
551.998	504.55
552.202	512.69
552.406	438.09
552.61	505.13
552.814	516.95
553.018	555.12
553.222	515.21
553.426	489.63
553.63	548.72
553.833	492.15
554.037	448.17
554.241	524.31
554.445	486.14
554.649	455.53
554.853	486.92
555.056	536.52
555.26	528.38
555.464	499.51
555.668	531.09
555.871	539.04
556.075	537.1
556.279	458.44
556.483	466.58
556.686	478.39
556.89	522.18
557.094	526.25
557.297	456.69
557.501	525.67
557.704	453.98
557.908	531.29
558.112	476.65
558.315	524.31
558.519	477.23
558.722	471.81
558.926	479.36
559.129	443.13
559.333	413.49
559.536	449.33
559.74	456.69
559.943	465.03
560.147	454.76
560.35	444.88
560.553	431.89
560.757	394.11
560.96	531.87
561.164	456.11
561.367	527.41
561.57	467.16
561.774	481.49
561.977	450.88
562.18	451.46
562.384	528.96
562.587	468.9
562.79	439.45
562.993	464.25
563.197	470.45
563.4	534.19
563.603	514.04
563.806	559.19
564.009	433.64
564.212	488.86
564.416	419.88
564.619	487.69
564.822	444.1
565.025	512.3
565.228	465.8
565.431	484.01
565.634	399.93
565.837	452.43
566.04	419.11
566.243	447.98
566.446	355.75
566.649	425.5
566.852	434.03
567.055	427.83
567.258	453.59
567.461	517.14
567.664	482.27
567.867	396.83
568.07	447.2
568.273	435.77
568.475	478.98
568.678	422.98
568.881	437.9
569.084	457.66
569.287	356.14
569.489	392.56
569.692	428.6
569.895	452.82
570.098	390.82
570.3	367.38
570.503	335.99
570.706	364.47
570.909	376.68
571.111	350.71
571.314	386.17
571.516	372.22
571.719	411.94
571.922	366.99
572.124	373.19
572.327	385.98
572.529	349.16
572.732	341.22
572.935	381.91
573.137	441
573.34	339.48
573.542	420.27
573.745	413.1
573.947	388.88
574.15	367.96
574.352	360.4
574.554	430.93
574.757	375.71
574.959	354.98
575.162	340.06
575.364	352.85
575.566	446.62
575.769	371.45
575.971	379.39
576.173	304.02
576.376	360.01
576.578	375.13
576.78	429.18
576.982	309.45
577.185	339.86
577.387	329.79
577.589	326.11
577.791	386.36
577.993	384.62
578.196	332.7
578.398	381.33
578.6	388.11
578.802	327.66
579.004	325.53
579.206	316.03
579.408	346.65
579.61	356.53
579.812	365.25
580.014	325.92
580.216	336.57
580.418	329.02
580.62	306.73
580.822	279.8
581.024	345.1
581.226	367.18
581.428	339.09
581.63	405.93
581.832	285.62
582.034	385.01
582.236	316.42
582.438	373.58
582.64	377.65
582.841	386.56
583.043	405.55
583.245	364.08
583.447	363.31
583.649	332.7
583.85	362.53
584.052	390.05
584.254	329.6
584.456	393.73
584.657	325.14
584.859	343.74
585.061	324.75
585.262	307.32
585.464	309.64
585.666	357.11
585.867	335.41
586.069	405.55
586.27	335.6
586.472	357.69
586.674	354.01
586.875	312.93
587.077	335.02
587.278	387.33
587.48	326.3
587.681	470.26
587.883	346.26
588.084	294.33
588.285	326.5
588.487	332.7
588.688	346.26
588.89	325.14
589.091	282.9
589.292	321.27
589.494	321.07
589.695	329.98
589.896	252.87
590.098	266.63
590.299	343.35
590.5	280.58
590.702	284.84
590.903	310.42
591.104	336.57
591.305	299.95
591.507	343.35
591.708	332.31
591.909	310.42
592.11	367.18
592.311	322.23
592.512	316.62
592.714	261.78
592.915	277.67
593.116	298.6
593.317	298.02
593.518	271.28
593.719	338.7
593.92	323.59
594.121	349.55
594.322	312.74
594.523	312.35
594.724	272.83
594.925	296.08
595.126	338.12
595.327	320.68
595.528	310.42
595.729	323.4
595.929	290.46
596.13	310.22
596.331	298.6
596.532	327.08
596.733	328.43
596.934	341.22
597.135	345.87
597.335	315.65
597.536	273.22
597.737	319.72
597.938	282.9
598.138	292.98
598.339	311
598.54	311
598.74	286.97
598.941	328.82
599.142	358.66
599.342	316.03
599.543	274.38
599.744	301.12
599.944	330.76
600.145	281.55
600.345	335.8
600.546	382.88
600.746	370.67
600.947	354.2
601.147	317.97
601.348	340.06
601.548	267.4
601.749	312.55
601.949	290.27
602.15	250.74
602.35	311.58
602.551	368.73
602.751	298.02
602.951	320.49
603.152	244.54
603.352	301.7
603.552	284.65
603.753	315.26
603.953	344.13
604.153	334.83
604.354	289.68
604.554	299.57
604.754	291.82
604.954	267.79
605.155	305.18
605.355	286.39
605.555	326.69
605.755	363.31
605.955	332.7
606.155	318.75
606.356	296.08
606.556	350.52
606.756	306.54
606.956	277.09
607.156	308.67
607.356	278.06
607.556	297.63
607.756	310.03
607.956	353.43
608.156	312.35
608.356	256.17
608.556	320.88
608.756	328.05
608.956	276.12
609.156	300.92
609.356	293.75
609.556	277.09
609.755	325.33
609.955	253.26
610.155	306.73
610.355	289.1
610.555	284.07
610.755	309.64
610.954	251.32
611.154	285.62
611.354	335.41
611.554	292.01
611.753	280.19
611.953	243.57
612.153	306.93
612.352	298.79
612.552	247.45
612.752	231.95
612.951	286.97
613.151	299.18
613.351	253.07
613.55	271.28
613.75	287.94
613.949	289.49
614.149	292.4
614.348	309.64
614.548	255.78
614.747	228.65
614.947	250.35
615.146	208.5
615.346	282.52
615.545	297.05
615.745	289.1
615.944	293.95
616.144	280.77
616.343	311
616.542	259.65
616.742	290.07
616.941	273.41
617.14	227.1
617.34	260.04
617.539	268.95
617.738	248.8
617.938	346.84
618.137	278.45
618.336	218.77
618.535	285.23
618.734	268.76
618.934	302.08
619.133	273.99
619.332	277.67
619.531	240.86
619.73	257.13
619.929	290.27
620.128	271.47
620.328	330.57
620.527	236.99
620.726	250.74
620.925	283.29
621.124	250.93
621.323	270.7
621.522	218.39
621.721	224.78
621.92	216.64
622.119	283.1
622.318	253.65
622.517	250.35
622.715	253.07
622.914	223.04
623.113	236.6
623.312	191.26
623.511	276.12
623.71	245.51
623.909	243.57
624.107	306.54
624.306	203.85
624.505	204.82
624.704	225.94
624.902	242.22
625.101	305.38
625.3	255.97
625.499	247.06
625.697	231.37
625.896	211.22
626.095	281.74
626.293	211.99
626.492	235.05
626.69	278.25
626.889	229.24
627.088	270.89
627.286	217.22
627.485	224.78
627.683	222.45
