Data from oakcork_FLMT105791__304__17-34-50-052.txt Node

Date: Mon Mar 20 17:34:50 GMT 2023
User: antho
Spectrometer: FLMT10579
Trigger mode: 0
Integration Time (sec): 1.000000E-1
Scans to average: 10
Electric dark correction enabled: true
Nonlinearity correction enabled: false
Boxcar width: 0
XAxis mode: Wavelengths
Number of Pixels in Spectrum: 3648
>>>>>Begin Spectral Data<<<<<
345.248	-156.77
345.464	-156.77
345.681	-156.77
345.898	-170.92
346.114	-149.41
346.331	-17.28
346.548	4.23
346.764	17.79
346.981	-0.03
347.197	-40.33
347.414	32.32
347.631	-32
347.847	60.61
348.064	-7.2
348.28	7.33
348.497	-39.75
348.713	14.31
348.93	33.49
349.146	27.87
349.363	-19.79
349.579	-0.03
349.796	-6.23
350.012	-2.74
350.229	33.49
350.445	16.44
350.661	-15.73
350.878	6.56
351.094	11.4
351.311	-2.16
351.527	-1.19
351.743	1.13
351.96	9.07
352.176	16.63
352.392	22.05
352.609	30.58
352.825	-18.05
353.041	10.82
353.257	-9.53
353.474	-11.66
353.69	46.85
353.906	11.21
354.122	-7.2
354.339	40.27
354.555	-17.28
354.771	1.32
354.987	46.47
355.203	60.42
355.42	-13.59
355.636	-10.11
355.852	-0.23
356.068	14.5
356.284	-38.59
356.5	51.89
356.716	3.65
356.932	-20.38
357.148	8.3
357.364	4.62
357.58	27.87
357.796	43.17
358.012	55.38
358.228	5.01
358.444	-81.99
358.66	46.85
358.876	27.87
359.092	7.14
359.308	-14.76
359.524	34.26
359.74	-33.55
359.956	-29.48
360.172	-6.23
360.388	38.14
360.604	-25.22
360.819	62.35
361.035	-9.72
361.251	20.5
361.467	-10.69
361.683	27.29
361.898	19.73
362.114	32.52
362.33	-1.19
362.546	35.42
362.762	-0.23
362.977	-4.1
363.193	-9.53
363.409	47.05
363.624	-6.04
363.84	-17.28
364.056	-7.59
364.271	7.33
364.487	55.57
364.703	-1.78
364.918	6.56
365.134	-14.95
365.35	-7.59
365.565	91.22
365.781	12.37
365.996	17.21
366.212	60.42
366.427	5.78
366.643	-13.79
366.858	0.74
367.074	-32.19
367.289	49.57
367.505	101.88
367.72	-18.63
367.936	0.94
368.151	24.19
368.367	40.07
368.582	-1.78
368.798	3.26
369.013	53.05
369.228	1.71
369.444	21.86
369.659	67.97
369.874	28.84
370.09	62.16
370.305	-52.34
370.52	-5.07
370.736	50.54
370.951	18.18
371.166	42.01
371.381	47.82
371.597	17.6
371.812	2.49
372.027	-17.86
372.242	-9.14
372.458	65.65
372.673	6.17
372.888	-5.84
373.103	28.64
373.318	70.3
373.533	42.01
373.749	13.92
373.964	-35.49
374.179	48.21
374.394	-26.77
374.609	55.19
374.824	-35.1
375.039	54.99
375.254	3.46
375.469	86.57
375.684	25.35
375.899	37.94
376.114	17.99
376.329	3.46
376.544	43.56
376.759	27.48
376.974	-10.69
377.189	2.1
377.404	-7.2
377.619	53.83
377.834	-52.34
378.049	-6.62
378.264	-27.93
378.478	20.31
378.693	-23.09
378.908	50.92
379.123	17.6
379.338	38.91
379.553	19.92
379.767	6.75
379.982	34.84
380.197	45.5
380.412	23.6
380.626	14.5
380.841	79.6
381.056	42.59
381.271	85.99
381.485	-20.96
381.7	-23.67
381.915	13.72
382.129	-10.49
382.344	42.98
382.559	11.59
382.773	46.85
382.988	-40.14
383.202	11.98
383.417	3.46
383.632	96.07
383.846	16.82
384.061	-5.26
384.275	10.24
384.49	21.09
384.704	25.93
384.919	24.96
385.133	27.87
385.348	43.37
385.562	-33.16
385.777	52.86
385.991	26.7
386.206	-17.08
386.42	22.64
386.634	66.23
386.849	20.7
387.063	31.16
387.277	-12.04
387.492	-12.63
387.706	-16.31
387.92	-15.34
388.135	40.85
388.349	24.77
388.563	31.35
388.778	27.87
388.992	47.63
389.206	28.06
389.42	94.52
389.635	15.27
389.849	40.65
390.063	82.7
390.277	16.05
390.491	40.65
390.706	50.15
390.92	34.07
391.134	21.86
391.348	54.41
391.562	-18.63
391.776	15.66
391.99	-1
392.205	47.05
392.419	8.88
392.633	32.52
392.847	71.85
393.061	-19.21
393.275	109.24
393.489	20.89
393.703	32.32
393.917	60.8
394.131	-8.75
394.345	40.27
394.559	39.1
394.773	4.62
394.986	36.59
395.2	6.36
395.414	44.72
395.628	16.24
395.842	21.28
396.056	3.26
396.27	-54.09
396.484	2.1
396.697	10.24
396.911	63.9
397.125	52.67
397.339	49.57
397.553	58.29
397.766	76.3
397.98	54.8
398.194	49.95
398.408	11.4
398.621	35.04
398.835	56.93
399.049	17.02
399.262	73.01
399.476	68.94
399.69	62.35
399.903	106.14
400.117	17.4
400.331	24.38
400.544	29.8
400.758	138.11
400.971	66.62
401.185	76.69
401.398	17.21
401.612	72.82
401.826	64.68
402.039	81.34
402.253	-0.42
402.466	65.65
402.68	24.77
402.893	45.69
403.106	54.22
403.32	33.87
403.533	44.34
403.747	63.9
403.96	34.65
404.174	73.01
404.387	7.14
404.6	42.59
404.814	77.66
405.027	43.95
405.24	47.05
405.454	17.4
405.667	86.96
405.88	-4.88
406.094	38.52
406.307	77.27
406.52	48.21
406.733	29.03
406.947	13.72
407.16	75.53
407.373	82.7
407.586	32.71
407.799	6.56
408.012	71.65
408.226	60.42
408.439	94.32
408.652	6.36
408.865	53.64
409.078	90.25
409.291	65.84
409.504	19.15
409.717	74.17
409.93	69.33
410.143	30.58
410.357	6.75
410.57	-9.14
410.783	25.15
410.996	52.86
411.209	40.85
411.421	93.74
411.634	39.3
411.847	23.22
412.06	58.87
412.273	59.06
412.486	42.01
412.699	117.38
412.912	62.74
413.125	63.9
413.338	68.94
413.55	93.35
413.763	65.84
413.976	37.94
414.189	39.69
414.402	59.25
414.615	92
414.827	18.18
415.04	97.81
415.253	55.38
415.466	76.89
415.678	122.61
415.891	60.61
416.104	69.14
416.316	43.95
416.529	41.43
416.742	61
416.954	105.17
417.167	49.95
417.38	47.82
417.592	80.57
417.805	36
418.017	20.31
418.23	47.44
418.442	31.94
418.655	54.8
418.868	73.59
419.08	85.8
419.293	94.52
419.505	90.25
419.718	51.12
419.93	75.14
420.142	38.33
420.355	97.04
420.567	87.93
420.78	81.92
420.992	38.52
421.205	107.69
421.417	5.97
421.629	48.6
421.842	23.41
422.054	39.3
422.266	65.45
422.479	109.05
422.691	40.85
422.903	73.98
423.115	41.82
423.328	49.76
423.54	62.74
423.752	65.65
423.964	44.14
424.177	73.4
424.389	57.7
424.601	147.8
424.813	82.7
425.025	101.1
425.238	100.91
425.45	39.49
425.662	45.11
425.874	326.82
426.086	58.29
426.298	69.14
426.51	58.87
426.722	91.61
426.934	48.4
427.146	73.79
427.358	-1.78
427.57	105.56
427.782	51.89
427.994	45.5
428.206	59.45
428.418	55.38
428.63	72.43
428.842	100.33
429.054	56.15
429.266	86.38
429.478	17.6
429.69	74.56
429.902	40.07
430.114	77.08
430.325	90.25
430.537	61
430.749	58.09
430.961	14.11
431.173	59.25
431.384	103.23
431.596	8.88
431.808	60.8
432.02	65.65
432.231	92.19
432.443	111.18
432.655	78.44
432.867	34.65
433.078	78.44
433.29	127.07
433.502	89.48
433.713	94.32
433.925	72.62
434.136	69.72
434.348	39.88
434.56	39.1
434.771	134.82
434.983	34.45
435.194	41.24
435.406	42.4
435.617	93.35
435.829	118.54
436.04	110.79
436.252	104.2
436.463	114.08
436.675	77.66
436.886	114.08
437.098	89.67
437.309	125.71
437.521	66.62
437.732	82.5
437.943	79.4
438.155	68.17
438.366	52.86
438.578	124.74
438.789	96.65
439	119.7
439.211	73.2
439.423	100.52
439.634	110.6
439.845	88.7
440.057	85.6
440.268	111.37
440.479	58.09
440.69	91.42
440.902	68.36
441.113	76.3
441.324	70.1
441.535	99.55
441.746	141.6
441.957	81.92
442.168	59.25
442.38	119.32
442.591	120.87
442.802	51.31
443.013	45.3
443.224	100.14
443.435	84.05
443.646	68.17
443.857	79.21
444.068	51.31
444.279	68.17
444.49	149.35
444.701	87.93
444.912	163.68
445.123	111.76
445.334	108.66
445.545	103.62
445.756	79.6
445.967	76.5
446.178	78.63
446.388	138.3
446.599	133.27
446.81	128.03
447.021	106.14
447.232	147.99
447.443	127.84
447.653	61.39
447.864	137.53
448.075	74.75
448.286	118.73
448.496	119.12
448.707	121.25
448.918	88.12
449.129	170.27
449.339	67
449.55	122.03
449.761	93.16
449.971	131.72
450.182	78.44
450.393	128.03
450.603	104.4
450.814	117.77
451.024	122.42
451.235	126.29
451.446	152.64
451.656	152.83
451.867	107.5
452.077	154.97
452.288	148.38
452.498	138.11
452.709	107.88
452.919	117.96
453.13	118.93
453.34	144.31
453.55	84.64
453.761	116.02
453.971	165.62
454.182	151.87
454.392	125.32
454.602	176.47
454.813	139.08
455.023	155.16
455.233	103.04
455.444	119.7
455.654	76.3
455.864	112.34
456.075	106.33
456.285	90.25
456.495	123.58
456.705	121.83
456.916	162.33
457.126	170.66
457.336	104.2
457.546	64.29
457.756	87.54
457.967	146.63
458.177	92.77
458.387	113.5
458.597	89.29
458.807	123.97
459.017	104.4
459.227	133.46
459.437	88.9
459.647	124.93
459.857	146.44
460.068	109.82
460.278	158.84
460.488	128.42
460.698	162.72
460.908	102.07
461.117	59.84
461.327	89.29
461.537	112.15
461.747	105.75
461.957	129
462.167	194.68
462.377	141.79
462.587	128.62
462.797	167.37
463.007	121.83
463.216	165.23
463.426	170.47
463.636	163.49
463.846	89.67
464.056	122.42
464.265	153.22
464.475	122.8
464.685	128.81
464.895	173.57
465.104	147.22
465.314	162.33
465.524	135.2
465.733	110.21
465.943	184.03
466.153	167.56
466.362	173.18
466.572	134.43
466.782	125.71
466.991	156.71
467.201	176.86
467.41	100.72
467.62	126.29
467.829	137.92
468.039	168.72
468.249	119.32
468.458	121.06
468.668	170.27
468.877	149.15
469.086	209.21
469.296	171.63
469.505	130.55
469.715	194.3
469.924	153.42
470.134	175.7
470.343	184.42
470.552	156.32
470.762	153.8
470.971	136.75
471.18	138.11
471.39	152.83
471.599	102.65
471.808	165.43
472.018	91.42
472.227	178.6
472.436	164.65
472.645	115.44
472.855	108.66
473.064	186.35
473.273	154
473.482	159.42
473.691	197.98
473.901	191.78
474.11	146.25
474.319	233.24
474.528	164.85
474.737	211.15
474.946	162.72
475.155	166.59
475.364	199.91
475.573	197.4
475.783	165.62
475.992	164.65
476.201	237.7
476.41	183.25
476.619	146.05
476.828	156.71
477.037	144.31
477.245	168.72
477.454	208.83
477.663	147.41
477.872	185.58
478.081	234.6
478.29	127.26
478.499	234.79
478.708	194.3
478.917	221.42
479.125	194.1
479.334	215.41
479.543	158.26
479.752	197.59
479.961	190.03
480.169	210.38
480.378	168.14
480.587	282.64
480.796	222.97
481.004	184.42
481.213	212.12
481.422	201.27
481.63	189.45
481.839	212.31
482.048	249.13
482.256	186.55
482.465	229.75
482.674	226.26
482.882	235.76
483.091	271.02
483.299	234.98
483.508	241.96
483.716	231.88
483.925	247.96
484.134	214.45
484.342	197.01
484.551	245.25
484.759	246.8
484.967	232.66
485.176	221.42
485.384	251.84
485.593	276.45
485.801	218.32
486.01	210.57
486.218	214.06
486.426	173.18
486.635	247.96
486.843	223.55
487.051	225.3
487.26	191.2
487.468	228.78
487.676	214.64
487.885	184.03
488.093	217.16
488.301	200.11
488.509	210.76
488.717	239.63
488.926	241.96
489.134	225.3
489.342	215.03
489.55	202.43
489.758	225.49
489.967	214.83
490.175	334.57
490.383	213.67
490.591	281.29
490.799	208.63
491.007	281.29
491.215	232.85
491.423	233.24
491.631	244.86
491.839	229.75
492.047	299.89
492.255	204.56
492.463	182.48
492.671	238.86
492.879	301.83
493.087	229.95
493.295	255.91
493.503	291.56
493.711	270.44
493.919	280.9
494.127	290.39
494.334	267.34
494.542	222.39
494.75	253.97
494.958	224.71
495.166	296.4
495.374	236.53
495.581	266.18
495.789	260.56
495.997	317.71
496.205	276.06
496.412	272.96
496.62	255.91
496.828	273.73
497.035	248.55
497.243	282.06
497.451	279.16
497.658	265.4
497.866	273.73
498.074	342.51
498.281	251.45
498.489	340.58
498.696	283.03
498.904	243.12
499.112	279.93
499.319	330.69
499.527	281.87
499.734	315.58
499.942	249.71
500.149	280.32
500.357	259.2
500.564	256.49
500.771	305.7
500.979	250.87
501.186	271.21
501.394	315.19
501.601	282.26
501.808	308.03
502.016	286.13
502.223	268.11
502.43	293.69
502.638	279.74
502.845	238.47
503.052	356.46
503.26	287.49
503.467	333.6
503.674	274.7
503.881	271.8
504.089	343.87
504.296	339.61
504.503	245.06
504.71	295.04
504.917	235.56
505.125	285.55
505.332	287.88
505.539	303.76
505.746	336.51
505.953	311.13
506.16	325.66
506.367	344.26
506.574	353.94
506.781	347.16
506.988	252.03
507.195	291.75
507.402	307.64
507.609	339.61
507.816	312.09
508.023	308.8
508.23	274.51
508.437	235.56
508.644	318.88
508.851	360.34
509.058	342.32
509.265	322.56
509.472	330.11
509.679	408.77
509.885	310.35
510.092	294.27
510.299	342.13
510.506	333.41
510.713	339.41
510.92	331.86
511.126	339.03
511.333	347.55
511.54	363.24
511.746	395.99
511.953	368.28
512.16	357.04
512.367	313.45
512.573	308.22
512.78	330.69
512.987	314.61
513.193	344.26
513.4	271.21
513.606	338.64
513.813	341.74
514.02	331.08
514.226	381.26
514.433	388.62
514.639	321.59
514.846	342.71
515.052	328.56
515.259	336.7
515.465	346.39
515.672	350.26
515.878	420.59
516.085	333.79
516.291	365.96
516.497	346.78
516.704	341.54
516.91	318.68
517.117	316.74
517.323	257.46
517.529	317.52
517.736	334.57
517.942	336.31
518.148	319.84
518.354	366.54
518.561	332.83
518.767	349.29
518.973	381.46
519.179	376.22
519.386	307.25
519.592	308.99
519.798	326.43
520.004	397.15
520.21	346.58
520.417	366.15
520.623	418.07
520.829	362.66
521.035	397.92
521.241	396.57
521.447	388.82
521.653	473.49
521.859	392.31
522.065	415.56
522.271	459.73
522.477	407.61
522.683	442.68
522.889	397.54
523.095	421.76
523.301	400.06
523.507	387.46
523.713	389.21
523.919	371.57
524.125	460.5
524.331	390.95
524.537	482.59
524.742	452.75
524.948	440.16
525.154	436.87
525.36	519.99
525.566	424.08
525.772	456.05
525.977	412.26
526.183	484.92
526.389	495.38
526.595	408.58
526.8	408.77
527.006	391.72
527.212	400.44
527.417	392.5
527.623	393.27
527.829	450.43
528.034	439.58
528.24	444.62
528.446	382.81
528.651	482.4
528.857	416.52
529.062	501
529.268	456.63
529.473	436.87
529.679	468.25
529.884	502.55
530.09	490.15
530.295	545.95
530.501	509.33
530.706	493.44
530.912	444.81
531.117	451.79
531.323	459.54
531.528	473.49
531.733	463.22
531.939	438.81
532.144	491.12
532.35	494.99
532.555	504.49
532.76	518.05
532.966	540.91
533.171	520.37
533.376	459.54
533.581	439.58
533.787	490.54
533.992	480.07
534.197	523.86
534.402	481.24
534.607	494.8
534.813	562.61
535.018	503.32
535.223	484.72
535.428	511.65
535.633	572.68
535.838	531.22
536.043	472.13
536.249	602.52
536.454	488.21
536.659	538.2
536.864	489.18
537.069	502.94
537.274	528.51
537.479	538.2
537.684	535.29
537.889	522.89
538.094	569.97
538.299	514.37
538.504	554.28
538.708	543.23
538.913	551.57
539.118	519.79
539.323	542.65
539.528	480.65
539.733	531.03
539.938	535.49
540.142	534.9
540.347	510.1
540.552	503.52
540.757	531.8
540.962	501.58
541.166	504.1
541.371	496.74
541.576	516.69
541.781	438.81
541.985	548.66
542.19	529.29
542.395	575.78
542.599	594.58
542.804	569.39
543.008	611.63
543.213	507.78
543.418	479.49
543.622	547.69
543.827	524.64
544.031	600.39
544.236	589.15
544.44	540.52
544.645	606.59
544.849	538.78
545.054	575.78
545.258	617.44
545.463	616.67
545.667	526.57
545.872	541.68
546.076	549.24
546.281	553.31
546.485	547.69
546.689	550.98
546.894	577.72
547.098	542.85
547.302	518.05
547.507	559.51
547.711	543.82
547.915	629.45
548.119	535.29
548.324	541.3
548.528	620.15
548.732	574.82
548.936	570.17
549.141	603.1
549.345	553.89
549.549	559.7
549.753	542.27
549.957	636.04
550.161	614.73
550.366	579.27
550.57	533.74
550.774	567.45
550.978	525.8
551.182	587.41
551.386	541.49
551.59	540.91
551.794	541.1
551.998	594.19
552.202	554.47
552.406	530.06
552.61	545.95
552.814	568.42
553.018	622.09
553.222	559.32
553.426	559.51
553.63	634.1
553.833	520.95
554.037	511.65
554.241	590.32
554.445	594.97
554.649	590.32
554.853	534.32
555.056	593.03
555.26	615.12
555.464	583.34
555.668	563
555.871	598.84
556.075	584.12
556.279	552.92
556.483	518.24
556.686	550.79
556.89	552.15
557.094	584.31
557.297	523.28
557.501	583.53
557.704	506.04
557.908	609.69
558.112	523.28
558.315	598.45
558.519	547.88
558.722	551.18
558.926	550.4
559.129	536.07
559.333	507.97
559.536	510.88
559.74	513.98
559.943	494.02
560.147	497.51
560.35	549.63
560.553	513.59
560.757	494.99
560.96	576.75
561.164	509.72
561.367	599.23
561.57	521.54
561.774	550.4
561.977	520.18
562.18	502.74
562.384	601.94
562.587	531.61
562.79	504.49
562.993	519.6
563.197	549.24
563.4	571.33
563.603	578.5
563.806	628.87
564.009	502.74
564.212	519.02
564.416	480.27
564.619	528.51
564.822	469.8
565.025	568.03
565.228	501
565.431	510.49
565.634	440.74
565.837	502.35
566.04	503.71
566.243	503.13
566.446	429.12
566.649	530.06
566.852	464.77
567.055	490.15
567.258	506.04
567.461	569.2
567.664	557.96
567.867	444.04
568.07	495.77
568.273	487.82
568.475	538.78
568.678	467.67
568.881	501
569.084	505.26
569.287	422.92
569.489	458.37
569.692	467.48
569.895	536.07
570.098	437.45
570.3	434.74
570.503	391.34
570.706	443.07
570.909	415.17
571.111	407.42
571.314	435.71
571.516	452.56
571.719	431.06
571.922	446.36
572.124	417.11
572.327	466.7
572.529	395.21
572.732	404.71
572.935	435.9
573.137	466.9
573.34	424.86
573.542	454.5
573.745	430.86
573.947	429.12
574.15	452.17
574.352	444.23
574.554	480.27
574.757	401.41
574.959	393.66
575.162	419.62
575.364	412.65
575.566	470.39
575.769	414.39
575.971	437.06
576.173	349.68
576.376	395.99
576.578	454.5
576.78	500.8
576.982	363.63
577.185	384.17
577.387	370.41
577.589	355.88
577.791	438.03
577.993	444.62
578.196	397.73
578.398	437.64
578.6	432.61
578.802	380.49
579.004	401.61
579.206	370.99
579.408	430.86
579.61	399.47
579.812	425.63
580.014	386.88
580.216	376.22
580.418	393.47
580.62	382.81
580.822	349.1
581.024	410.13
581.226	400.44
581.428	375.45
581.63	448.3
581.832	390.17
582.034	426.79
582.236	392.31
582.438	420.79
582.64	424.47
582.841	448.11
583.043	467.87
583.245	437.84
583.447	405.87
583.649	402.77
583.85	412.46
584.052	450.24
584.254	375.26
584.456	437.06
584.657	349.29
584.859	380.29
585.061	383.2
585.262	372.54
585.464	348.91
585.666	424.27
585.867	362.86
586.069	447.14
586.27	400.25
586.472	389.01
586.674	417.3
586.875	401.61
587.077	342.71
587.278	402.77
587.48	354.53
587.681	462.25
587.883	402.77
588.084	350.84
588.285	360.34
588.487	377.39
588.688	372.54
588.89	384.36
589.091	337.86
589.292	369.83
589.494	326.04
589.695	353.94
589.896	302.79
590.098	300.08
590.299	345.03
590.5	301.44
590.702	330.31
590.903	345.23
591.104	378.74
591.305	343.29
591.507	398.31
591.708	366.54
591.909	338.64
592.11	416.52
592.311	386.11
592.512	351.04
592.714	274.9
592.915	310.74
593.116	343.48
593.317	358.98
593.518	323.33
593.719	338.44
593.92	377.39
594.121	422.72
594.322	341.54
594.523	344.64
594.724	293.11
594.925	330.11
595.126	381.46
595.327	383.2
595.528	332.44
595.729	368.86
595.929	350.07
596.13	361.5
596.331	363.63
596.532	360.14
596.733	401.41
596.934	380.68
597.135	392.11
597.335	345.23
597.536	313.84
597.737	367.89
597.938	324.3
598.138	374.87
598.339	325.85
598.54	351.81
598.74	340.38
598.941	379.71
599.142	419.62
599.342	362.28
599.543	343.87
599.744	322.75
599.944	341.93
600.145	340.19
600.345	339.03
600.546	434.54
600.746	385.52
600.947	399.67
601.147	362.08
601.348	398.51
601.548	325.46
601.749	340.77
601.949	309.19
602.15	317.71
602.35	324.88
602.551	406.84
602.751	313.84
602.951	338.06
603.152	281.87
603.352	366.34
603.552	324.88
603.753	362.28
603.953	335.93
604.153	332.63
604.354	337.48
604.554	326.63
604.754	361.69
604.954	286.52
605.155	351.23
605.355	329.73
605.555	393.08
605.755	399.47
605.955	372.74
606.155	358.59
606.356	377
606.556	365.96
606.756	333.41
606.956	299.31
607.156	391.14
607.356	311.32
607.556	370.41
607.756	353.36
607.956	370.22
608.156	378.16
608.356	344.84
608.556	379.91
608.756	345.42
608.956	326.43
609.156	326.82
609.356	294.46
609.556	304.15
609.755	328.18
609.955	313.26
610.155	342.9
610.355	347.74
610.555	307.44
610.755	337.28
610.954	258.81
611.154	320.23
611.354	375.84
611.554	285.36
611.753	307.83
611.953	281.29
612.153	348.33
612.352	345.42
612.552	312.48
612.752	248.55
612.951	285.74
613.151	342.51
613.351	325.46
613.55	308.61
613.75	333.99
613.949	332.05
614.149	336.31
614.348	333.6
614.548	284.97
614.747	275.86
614.947	288.84
615.146	259.98
615.346	356.85
615.545	327.21
615.745	324.3
615.944	365.76
616.144	307.44
616.343	353.94
616.542	290.59
616.742	313.64
616.941	313.06
617.14	245.64
617.34	289.62
617.539	299.89
617.738	272.76
617.938	388.82
618.137	324.49
618.336	260.95
618.535	308.03
618.734	319.84
618.934	302.6
619.133	286.52
619.332	305.7
619.531	296.79
619.73	319.46
619.929	314.42
620.128	294.27
620.328	351.62
620.527	274.12
620.726	294.08
620.925	282.64
621.124	267.92
621.323	301.83
621.522	263.66
621.721	265.6
621.92	257.85
622.119	306.67
622.318	283.81
622.517	290.59
622.715	256.88
622.914	247.58
623.113	276.06
623.312	246.03
623.511	305.31
623.71	265.4
623.909	267.53
624.107	317.91
624.306	230.53
624.505	279.74
624.704	253.97
624.902	251.26
625.101	319.65
625.3	288.84
625.499	231.11
625.697	250.87
625.896	242.35
626.095	294.27
626.293	242.93
626.492	267.15
626.69	273.35
626.889	248.35
627.088	293.69
627.286	232.08
627.485	242.54
627.683	260.95
