Data from oakcork_FLMT105791__15__17-26-50-067.txt Node

Date: Mon Mar 20 17:26:50 GMT 2023
User: antho
Spectrometer: FLMT10579
Trigger mode: 0
Integration Time (sec): 1.000000E-1
Scans to average: 10
Electric dark correction enabled: true
Nonlinearity correction enabled: false
Boxcar width: 0
XAxis mode: Wavelengths
Number of Pixels in Spectrum: 3648
>>>>>Begin Spectral Data<<<<<
345.248	-178.54
345.464	-178.54
345.681	-178.54
345.898	-171.95
346.114	-179.12
346.331	-62.87
346.548	33.42
346.764	-10.37
346.981	-4.17
347.197	-23.93
347.414	24.51
347.631	-2.81
347.847	77.98
348.064	-0.48
348.28	27.61
348.497	-44.27
348.713	-14.63
348.93	19.67
349.146	24.51
349.363	-19.47
349.579	24.12
349.796	15.6
350.012	8.62
350.229	38.07
350.445	8.04
350.661	-28.97
350.878	-5.52
351.094	33.42
351.311	12.69
351.527	-6.88
351.743	-7.27
351.96	30.13
352.176	27.42
352.392	36.52
352.609	32.45
352.825	-27.03
353.041	7.85
353.257	0.48
353.474	9.01
353.69	8.23
353.906	-12.3
354.122	-12.69
354.339	57.45
354.555	-3.2
354.771	-2.23
354.987	51.44
355.203	53.18
355.42	-21.41
355.636	-7.27
355.852	-15.79
356.068	9.4
356.284	-19.28
356.5	49.89
356.716	22.38
356.932	-1.84
357.148	41.37
357.364	18.12
357.58	41.56
357.796	69.65
358.012	49.31
358.228	36.72
358.444	-35.75
358.66	41.37
358.876	16.57
359.092	-0.48
359.308	49.7
359.524	35.55
359.74	15.21
359.956	7.07
360.172	-30.52
360.388	51.25
360.604	-6.3
360.819	94.65
361.035	-3.97
361.251	46.6
361.467	-27.42
361.683	63.84
361.898	27.42
362.114	26.64
362.33	3.78
362.546	55.31
362.762	15.21
362.977	5.13
363.193	-12.5
363.409	29.93
363.624	-26.06
363.84	-31.1
364.056	-31.68
364.271	23.54
364.487	29.93
364.703	-11.33
364.918	-29.35
365.134	3.78
365.35	-3
365.565	120.41
365.781	17.15
365.996	38.07
366.212	78.95
366.427	34.39
366.643	17.92
366.858	3.2
367.074	-40.01
367.289	62.68
367.505	90
367.72	-14.63
367.936	-2.42
368.151	36.33
368.367	41.95
368.582	26.25
368.798	16.18
369.013	72.36
369.228	40.78
369.444	6.3
369.659	78.76
369.874	34.97
370.09	72.56
370.305	-22.77
370.52	-4.17
370.736	50.66
370.951	27.8
371.166	84.18
371.381	93.68
371.597	46.6
371.812	-9.78
372.027	-1.84
372.242	57.64
372.458	87.28
372.673	-11.33
372.888	11.72
373.103	74.3
373.318	90.96
373.533	35.55
373.749	58.22
373.964	-42.14
374.179	58.61
374.394	-25.09
374.609	60.74
374.824	-22.96
375.039	66.94
375.254	19.28
375.469	63.26
375.684	66.75
375.899	85.15
376.114	37.88
376.329	33.81
376.544	69.46
376.759	77.98
376.974	6.3
377.189	31.1
377.404	17.53
377.619	54.35
377.834	-29.35
378.049	-21.02
378.264	-8.04
378.478	13.66
378.693	4.75
378.908	39.23
379.123	10.75
379.338	50.86
379.553	51.25
379.767	33.03
379.982	42.53
380.197	59.77
380.412	15.21
380.626	56.09
380.841	117.9
381.056	21.6
381.271	109.76
381.485	7.46
381.7	10.75
381.915	34
382.129	26.64
382.344	39.04
382.559	16.18
382.773	82.25
382.988	-21.02
383.202	45.63
383.417	-12.69
383.632	93.29
383.846	7.46
384.061	58.8
384.275	9.98
384.49	69.85
384.704	34.97
384.919	51.05
385.133	34.78
385.348	70.04
385.562	-4.75
385.777	74.88
385.991	31.1
386.206	25.48
386.42	16.57
386.634	79.15
386.849	58.22
387.063	31.68
387.277	0.68
387.492	15.98
387.706	5.72
387.92	16.18
388.135	90.58
388.349	45.24
388.563	20.25
388.778	48.92
388.992	64.61
389.206	53.76
389.42	136.11
389.635	41.75
389.849	73.72
390.063	75.27
390.277	52.21
390.491	98.52
390.706	57.83
390.92	68.49
391.134	56.28
391.348	75.46
391.562	3.2
391.776	50.28
391.99	36.52
392.205	71.59
392.419	8.82
392.633	28.58
392.847	105.5
393.061	51.44
393.275	113.25
393.489	76.82
393.703	51.44
393.917	54.73
394.131	34
394.345	63.06
394.559	90
394.773	44.46
394.986	45.24
395.2	59.19
395.414	74.69
395.628	33.23
395.842	43.69
396.056	56.67
396.27	6.3
396.484	53.96
396.697	65.2
396.911	103.56
397.125	65.78
397.339	93.87
397.553	65.97
397.766	96.39
397.98	86.51
398.194	108.79
398.408	28.97
398.621	85.15
398.835	101.62
399.049	74.69
399.262	120.03
399.476	111.5
399.69	121.19
399.903	130.3
400.117	75.46
400.331	82.83
400.544	61.51
400.758	193.07
400.971	103.17
401.185	122.55
401.398	84.76
401.612	157.23
401.826	122.16
402.039	143.28
402.253	83.99
402.466	119.25
402.68	81.66
402.893	131.07
403.106	90.96
403.32	100.85
403.533	130.68
403.747	100.26
403.96	93.68
404.174	133.78
404.387	58.8
404.6	99.3
404.814	113.44
405.027	113.05
405.24	95.81
405.454	102.01
405.667	129.13
405.88	57.06
406.094	112.47
406.307	162.84
406.52	112.66
406.733	90.96
406.947	63.84
407.16	139.98
407.373	154.9
407.586	74.11
407.799	67.33
408.012	142.69
408.226	125.84
408.439	165.36
408.652	72.56
408.865	133.98
409.078	163.43
409.291	116.73
409.504	83.02
409.717	145.21
409.93	115.38
410.143	123.32
410.357	57.06
410.57	90.96
410.783	109.95
410.996	133.2
411.209	108.98
411.421	143.47
411.634	106.66
411.847	103.56
412.06	138.63
412.273	97.36
412.486	151.61
412.699	214.77
412.912	122.55
413.125	168.85
413.338	145.6
413.55	154.9
413.763	115.76
413.976	161.88
414.189	114.8
414.402	113.44
414.615	171.37
414.827	97.16
415.04	158.58
415.253	160.33
415.466	165.56
415.678	169.04
415.891	124.48
416.104	135.33
416.316	137.66
416.529	131.65
416.742	145.02
416.954	191.71
417.167	136.69
417.38	129.91
417.592	171.18
417.805	112.47
418.017	92.32
418.23	162.46
418.442	141.34
418.655	112.66
418.868	146.57
419.08	156.84
419.293	192.29
419.505	131.84
419.718	145.41
419.93	178.73
420.142	113.63
420.355	185.51
420.567	188.03
420.78	183.58
420.992	134.36
421.205	206.63
421.417	121.96
421.629	139.59
421.842	127.78
422.054	97.55
422.266	177.38
422.479	166.33
422.691	121.96
422.903	177.57
423.115	130.3
423.328	143.86
423.54	150.25
423.752	151.8
423.964	124.48
424.177	158.39
424.389	131.07
424.601	274.64
424.813	158.39
425.025	175.24
425.238	194.04
425.45	151.22
425.662	156.45
425.874	439.71
426.086	155.68
426.298	168.27
426.51	166.33
426.722	170.4
426.934	138.82
427.146	191.52
427.358	125.84
427.57	193.84
427.782	147.54
427.994	164.78
428.206	172.53
428.418	122.16
428.63	185.9
428.842	195.59
429.054	164.39
429.266	168.27
429.478	134.36
429.69	130.49
429.902	102.59
430.114	184.54
430.325	164.39
430.537	104.53
430.749	143.47
430.961	90
431.173	145.41
431.384	155.29
431.596	104.14
431.808	170.4
432.02	173.11
432.231	184.74
432.443	212.06
432.655	168.66
432.867	173.5
433.078	194.62
433.29	246.54
433.502	196.94
433.713	238.21
433.925	198.88
434.136	246.74
434.348	149.67
434.56	109.76
434.771	286.46
434.983	125.65
435.194	185.51
435.406	167.69
435.617	217.29
435.829	271.34
436.04	215.54
436.252	232.98
436.463	259.72
436.675	276.57
436.886	229.69
437.098	222.52
437.309	287.23
437.521	237.44
437.732	249.06
437.943	207.99
438.155	211.28
438.366	180.28
438.578	249.45
438.789	220.58
439	226.39
439.211	209.15
439.423	228.33
439.634	248.29
439.845	253.52
440.057	239.96
440.268	266.69
440.479	212.83
440.69	226.78
440.902	226.01
441.113	222.32
441.324	206.63
441.535	266.69
441.746	301.76
441.957	210.89
442.168	222.32
442.38	255.46
442.591	279.09
442.802	224.07
443.013	215.93
443.224	252.16
443.435	225.42
443.646	223.1
443.857	249.45
444.068	218.45
444.279	246.93
444.49	331.79
444.701	253.32
444.912	353.49
445.123	294.01
445.334	277.35
445.545	265.34
445.756	272.12
445.967	245.57
446.178	235.11
446.388	276.57
446.599	277.35
446.81	300.41
447.021	255.07
447.232	307.19
447.443	320.55
447.653	259.14
447.864	307.77
448.075	293.43
448.286	340.7
448.496	292.46
448.707	325.4
448.918	296.53
449.129	348.45
449.339	236.66
449.55	316.87
449.761	271.73
449.971	317.65
450.182	308.93
450.393	353.88
450.603	299.05
450.814	326.56
451.024	276.38
451.235	341.67
451.446	331.4
451.656	358.14
451.867	272.31
452.077	349.04
452.288	357.75
452.498	347.29
452.709	289.36
452.919	335.67
453.13	286.84
453.34	325.98
453.55	257.59
453.761	342.64
453.971	313.77
454.182	310.87
454.392	326.17
454.602	366.86
454.813	330.24
455.023	367.64
455.233	269.99
455.444	295.37
455.654	251.39
455.864	298.27
456.075	304.28
456.285	292.85
456.495	300.6
456.705	329.08
456.916	384.69
457.126	364.73
457.336	323.07
457.546	282.77
457.756	289.36
457.967	365.12
458.177	294.59
458.387	334.31
458.597	281.42
458.807	322.88
459.017	314.74
459.227	317.26
459.437	319.2
459.647	373.84
459.857	338.96
460.068	326.56
460.278	378.1
460.488	332.37
460.698	387.01
460.908	340.51
461.117	302.15
461.327	331.6
461.537	345.94
461.747	337.22
461.957	344.19
462.167	419.17
462.377	363.95
462.587	374.42
462.797	372.48
463.007	349.42
463.216	405.22
463.426	394.37
463.636	377.52
463.846	307.38
464.056	354.65
464.265	401.54
464.475	315.32
464.685	342.45
464.895	360.27
465.104	345.16
465.314	388.56
465.524	372.29
465.733	330.44
465.943	446.68
466.153	414.91
466.362	412
466.572	359.69
466.782	372.67
466.991	369.96
467.201	428.08
467.41	343.8
467.62	365.12
467.829	362.4
468.039	378.29
468.249	400.38
468.458	371.7
468.668	428.67
468.877	398.63
469.086	445.72
469.296	423.24
469.505	378.68
469.715	448.62
469.924	404.83
470.134	465.67
470.343	457.53
470.552	420.33
470.762	405.61
470.971	375.19
471.18	397.28
471.39	419.17
471.599	374.8
471.808	449.2
472.018	381.39
472.227	456.95
472.436	454.63
472.645	409.1
472.855	380.42
473.064	454.05
473.273	465.28
473.482	493.38
473.691	490.47
473.901	461.41
474.11	429.44
474.319	525.54
474.528	447.65
474.737	510.81
474.946	462.57
475.155	490.08
475.364	490.86
475.573	481.36
475.783	463.15
475.992	495.12
476.201	513.72
476.41	486.21
476.619	441.07
476.828	443.58
477.037	452.88
477.245	487.95
477.454	503.84
477.663	475.55
477.872	486.6
478.081	537.55
478.29	476.91
478.499	576.49
478.708	503.26
478.917	584.83
479.125	544.91
479.334	513.33
479.543	498.03
479.752	545.69
479.961	517.4
480.169	584.44
480.378	506.55
480.587	649.34
480.796	577.46
481.004	571.26
481.213	585.99
481.422	566.42
481.63	553.63
481.839	592.38
482.048	593.35
482.256	583.28
482.465	584.83
482.674	595.48
482.882	604.59
483.091	669.88
483.299	633.65
483.508	639.08
483.716	604.98
483.925	619.89
484.134	618.73
484.342	576.88
484.551	633.65
484.759	618.73
484.967	633.46
485.176	650.31
485.384	669.11
485.593	658.64
485.801	625.9
486.01	637.53
486.218	574.75
486.426	549.56
486.635	571.26
486.843	533.68
487.051	601.1
487.26	611.95
487.468	606.72
487.676	644.11
487.885	597.61
488.093	643.92
488.301	664.26
488.509	655.74
488.717	682.09
488.926	661.16
489.134	644.89
489.342	650.51
489.55	629.19
489.758	663.68
489.967	655.93
490.175	753.97
490.383	666.39
490.591	738.27
490.799	645.66
491.007	744.28
491.215	713.28
491.423	710.18
491.631	698.94
491.839	710.18
492.047	734.79
492.255	649.73
492.463	655.93
492.671	678.79
492.879	704.76
493.087	683.83
493.295	739.05
493.503	743.5
493.711	750.48
493.919	769.66
494.127	783.22
494.334	772.76
494.542	684.22
494.75	726.84
494.958	728.78
495.166	759.97
495.374	779.74
495.581	770.24
495.789	745.64
495.997	851.03
496.205	748.93
496.412	727.62
496.62	734.4
496.828	758.23
497.035	775.28
497.243	799.11
497.451	770.63
497.658	783.8
497.866	794.46
498.074	843.48
498.281	736.53
498.489	863.63
498.696	777.8
498.904	752.22
499.112	758.04
499.319	868.47
499.527	769.66
499.734	824.3
499.942	764.62
500.149	775.28
500.357	796.98
500.564	759
500.771	782.64
500.979	788.26
501.186	743.5
501.394	796.98
501.601	769.08
501.808	796.98
502.016	801.63
502.223	749.32
502.43	783.03
502.638	758.23
502.845	738.86
503.052	873.51
503.26	749.51
503.467	867.31
503.674	796.01
503.881	824.88
504.089	880.68
504.296	822.55
504.503	745.05
504.71	809.57
504.917	753.39
505.125	809.19
505.332	818.68
505.539	808.41
505.746	886.1
505.953	853.94
506.16	841.35
506.367	912.45
506.574	909.74
506.781	900.05
506.988	815.97
507.195	869.44
507.402	843.09
507.609	863.05
507.816	833.98
508.023	845.61
508.23	814.03
508.437	781.29
508.644	869.25
508.851	876.61
509.058	873.7
509.265	835.53
509.472	909.93
509.679	971.16
509.885	880.87
510.092	881.07
510.299	845.61
510.506	883.39
510.713	873.32
510.92	909.35
511.126	915.17
511.333	938.61
511.54	922.91
511.746	951.2
511.953	920.2
512.16	952.56
512.367	893.27
512.573	897.53
512.78	920.4
512.987	884.17
513.193	925.24
513.4	823.91
513.606	885.13
513.813	918.26
514.02	912.07
514.226	971.55
514.433	954.3
514.639	875.83
514.846	929.11
515.052	888.62
515.259	887.65
515.465	911.1
515.672	957.79
515.878	1022.31
516.085	936.09
516.291	933.38
516.497	910.32
516.704	901.41
516.91	889.4
517.117	829.72
517.323	798.53
517.529	848.71
517.736	844.06
517.942	892.69
518.148	829.34
518.354	868.67
518.561	877
518.767	904.32
518.973	943.45
519.179	931.63
519.386	876.22
519.592	871.57
519.798	918.46
520.004	954.88
520.21	906.06
520.417	990.53
520.623	996.35
520.829	995.38
521.035	996.93
521.241	1021.53
521.447	977.36
521.653	1115.11
521.859	999.06
522.065	1022.89
522.271	1082.18
522.477	1056.21
522.683	1080.24
522.889	1048.66
523.095	1025.02
523.301	1044.39
523.507	1036.06
523.713	1041.49
523.919	988.98
524.125	1076.94
524.331	1050.4
524.537	1144.17
524.742	1113.56
524.948	1117.82
525.154	1123.64
525.36	1199.78
525.566	1112.59
525.772	1143.01
525.977	1057.96
526.183	1110.85
526.389	1140.69
526.595	1083.53
526.8	1072.49
527.006	1039.74
527.212	1025.6
527.417	1004.48
527.623	976.58
527.829	1063.77
528.034	1084.69
528.24	1079.66
528.446	1048.08
528.651	1140.11
528.857	1146.11
529.062	1163.74
529.268	1138.94
529.473	1193
529.679	1146.11
529.884	1214.89
530.09	1183.5
530.295	1220.12
530.501	1205.79
530.706	1196.29
530.912	1158.12
531.117	1209.27
531.323	1178.66
531.528	1208.69
531.733	1218.38
531.939	1192.8
532.144	1230.97
532.35	1221.09
532.555	1234.46
532.76	1251.9
532.966	1217.99
533.171	1201.52
533.376	1192.8
533.581	1171.49
533.787	1167.04
533.992	1244.15
534.197	1266.43
534.402	1228.65
534.607	1210.24
534.813	1312.73
535.018	1236.2
535.223	1226.71
535.428	1272.05
535.633	1259.26
535.838	1261.78
536.043	1267.59
536.249	1356.33
536.454	1304.02
536.659	1288.13
536.864	1265.85
537.069	1250.54
537.274	1274.76
537.479	1264.69
537.684	1291.81
537.889	1252.48
538.094	1329.4
538.299	1253.06
538.504	1297.04
538.708	1263.14
538.913	1321.65
539.118	1281.93
539.323	1325.72
539.528	1275.34
539.733	1263.33
539.938	1291.81
540.142	1293.55
540.347	1267.98
540.552	1272.24
540.757	1268.75
540.962	1229.81
541.166	1223.61
541.371	1214.5
541.576	1275.53
541.781	1164.13
541.985	1325.91
542.19	1313.32
542.395	1345.48
542.599	1350.71
542.804	1292.97
543.008	1361.56
543.213	1260.81
543.418	1237.56
543.622	1311.18
543.827	1245.12
544.031	1371.44
544.236	1364.66
544.44	1305.57
544.645	1419.68
544.849	1307.31
545.054	1367.56
545.258	1426.27
545.463	1397.01
545.667	1313.32
545.872	1360.4
546.076	1318.55
546.281	1335.02
546.485	1312.93
546.689	1362.91
546.894	1349.55
547.098	1341.41
547.302	1293.17
547.507	1348.58
547.711	1352.65
547.915	1366.98
548.119	1329.78
548.324	1337.73
548.528	1414.06
548.732	1366.98
548.936	1375.51
549.141	1391.2
549.345	1350.32
549.549	1357.68
549.753	1350.71
549.957	1444.68
550.161	1415.42
550.366	1378.22
550.57	1328.82
550.774	1341.8
550.978	1343.15
551.182	1386.55
551.386	1354.39
551.59	1307.5
551.794	1352.65
551.998	1374.54
552.202	1375.51
552.406	1316.03
552.61	1402.83
552.814	1357.1
553.018	1410.96
553.222	1344.51
553.426	1340.83
553.63	1421.62
553.833	1372.41
554.037	1323.97
554.241	1382.29
554.445	1345.48
554.649	1347.22
554.853	1310.02
555.056	1421.62
555.26	1405.35
555.464	1345.09
555.668	1357.3
555.871	1402.83
556.075	1380.16
556.279	1317.58
556.483	1327.85
556.686	1336.57
556.89	1380.35
557.094	1333.27
557.297	1323.78
557.501	1386.75
557.704	1268.37
557.908	1371.63
558.112	1326.88
558.315	1413.48
558.519	1322.62
558.722	1331.14
558.926	1311.77
559.129	1238.72
559.333	1220.32
559.536	1246.28
559.74	1244.15
559.943	1250.15
560.147	1247.25
560.35	1253.25
560.553	1271.47
560.757	1212.57
560.96	1332.69
561.164	1250.93
561.367	1326.3
561.57	1246.86
561.774	1297.23
561.977	1252.09
562.18	1237.75
562.384	1350.52
562.587	1265.27
562.79	1264.1
562.993	1281.93
563.197	1305.76
563.4	1326.1
563.603	1290.84
563.806	1327.85
564.009	1220.9
564.212	1287.55
564.416	1216.64
564.619	1260.23
564.822	1187.77
565.025	1296.46
565.228	1229.23
565.431	1237.56
565.634	1179.82
565.837	1201.33
566.04	1172.27
566.243	1161.81
566.446	1113.37
566.649	1221.09
566.852	1164.13
567.055	1152.31
567.258	1210.05
567.461	1249.57
567.664	1248.99
567.867	1166.26
568.07	1236.01
568.273	1195.32
568.475	1215.28
568.678	1160.64
568.881	1160.45
569.084	1151.73
569.287	1087.79
569.489	1116.66
569.692	1183.7
569.895	1163.36
570.098	1100.39
570.3	1095.35
570.503	1069.58
570.706	1097.87
570.909	1109.69
571.111	1052.34
571.314	1055.83
571.516	1106.78
571.719	1108.33
571.922	1083.92
572.124	1050.21
572.327	1058.15
572.529	1019.01
572.732	1047.49
572.935	1096.32
573.137	1130.42
573.34	1082.56
573.542	1108.14
573.745	1091.09
573.947	1091.09
574.15	1083.14
574.352	1035.29
574.554	1127.12
574.757	1070.94
574.959	1030.64
575.162	1033.54
575.364	1026.76
575.566	1135.46
575.769	999.83
575.971	1049.43
576.173	981.23
576.376	1025.79
576.578	1067.45
576.78	1099.81
576.982	988.21
577.185	1030.64
577.387	1001.77
577.589	995.18
577.791	1055.24
577.993	1031.61
578.196	1026.96
578.398	1029.48
578.6	1012.23
578.802	964.76
579.004	958.18
579.206	978.13
579.408	1013.59
579.61	997.12
579.812	1024.44
580.014	963.8
580.216	984.53
580.418	994.02
580.62	973.68
580.822	976.39
581.024	988.6
581.226	1055.44
581.428	983.75
581.63	1070.94
581.832	975.23
582.034	1050.4
582.236	1036.26
582.438	1041.49
582.64	1073.26
582.841	1098.64
583.043	1091.86
583.245	1037.03
583.447	1033.35
583.649	1018.24
583.85	1017.85
584.052	1054.86
584.254	993.25
584.456	1069.97
584.657	966.51
584.859	1002.55
585.061	987.05
585.262	998.86
585.464	942.68
585.666	1022.5
585.867	981.81
586.069	1015.72
586.27	995.76
586.472	1024.44
586.674	1002.55
586.875	943.84
587.077	956.63
587.278	992.66
587.48	960.89
587.681	1108.72
587.883	983.17
588.084	910.52
588.285	940.16
588.487	930.08
588.688	956.82
588.89	900.63
589.091	860.92
589.292	914.39
589.494	870.6
589.695	846.38
589.896	801.82
590.098	790.97
590.299	876.8
590.5	792.14
590.702	854.72
590.903	875.64
591.104	905.48
591.305	882.23
591.507	943.45
591.708	902.57
591.909	902.38
592.11	969.22
592.311	940.93
592.512	907.8
592.714	848.9
592.915	864.02
593.116	883.2
593.317	887.27
593.518	885.91
593.719	891.72
593.92	899.08
594.121	937.45
594.322	892.11
594.523	880.87
594.724	871.57
594.925	900.05
595.126	887.07
595.327	908.19
595.528	876.61
595.729	897.73
595.929	896.95
596.13	906.45
596.331	893.85
596.532	919.23
596.733	966.7
596.934	932.99
597.135	924.27
597.335	905.28
597.536	864.21
597.737	894.63
597.938	849.1
598.138	917.88
598.339	913.03
598.54	885.72
598.74	892.3
598.941	879.13
599.142	965.15
599.342	913.81
599.543	846.97
599.744	885.13
599.944	881.26
600.145	892.5
600.345	927.95
600.546	963.21
600.746	928.34
600.947	964.96
601.147	897.53
601.348	938.8
601.548	882.23
601.749	882.03
601.949	856.46
602.15	849.48
602.35	877.19
602.551	945.58
602.751	845.61
602.951	888.62
603.152	803.57
603.352	900.63
603.552	878.74
603.753	914.58
603.953	910.52
604.153	894.05
604.354	901.22
604.554	852.2
604.754	894.43
604.954	834.37
605.155	875.45
605.355	872.35
605.555	905.67
605.755	926.79
605.955	886.3
606.155	903.15
606.356	876.22
606.556	925.82
606.756	911.87
606.956	864.02
607.156	912.45
607.356	843.28
607.556	863.05
607.756	900.83
607.956	921.17
608.156	887.46
608.356	864.21
608.556	902.18
608.756	874.67
608.956	828.95
609.156	871.77
609.356	827.79
609.556	817.9
609.755	863.24
609.955	829.53
610.155	866.15
610.355	865.18
610.555	819.65
610.755	867.31
610.954	803.18
611.154	850.26
611.354	857.23
611.554	801.44
611.753	836.89
611.953	778.19
612.153	874.09
612.352	836.12
612.552	787.29
612.752	755.71
612.951	797.75
613.151	836.12
613.351	786.13
613.55	831.66
613.75	853.94
613.949	825.85
614.149	833.79
614.348	818.1
614.548	792.91
614.747	755.52
614.947	790.2
615.146	738.86
615.346	841.15
615.545	843.48
615.745	816.35
615.944	852.58
616.144	827.01
616.343	826.43
616.542	791.36
616.742	807.44
616.941	791.36
617.14	737.5
617.34	790.39
617.539	788.07
617.738	779.35
617.938	839.41
618.137	760.94
618.336	715.8
618.535	797.56
618.734	761.14
618.934	800.47
619.133	782.25
619.332	793.1
619.531	753
619.73	786.9
619.929	818.49
620.128	773.34
620.328	812.29
620.527	753.77
620.726	774.12
