Data from oakcork_FLMT105791__253__17-33-24-054.txt Node

Date: Mon Mar 20 17:33:24 GMT 2023
User: antho
Spectrometer: FLMT10579
Trigger mode: 0
Integration Time (sec): 1.000000E-1
Scans to average: 10
Electric dark correction enabled: true
Nonlinearity correction enabled: false
Boxcar width: 0
XAxis mode: Wavelengths
Number of Pixels in Spectrum: 3648
>>>>>Begin Spectral Data<<<<<
345.248	-149.83
345.464	-149.83
345.681	-149.83
345.898	-168.82
346.114	-135.49
346.331	-33.97
346.548	21.64
346.764	-12.27
346.981	2.45
347.197	-13.05
347.414	27.25
347.631	-9.56
347.847	68.91
348.064	-10.33
348.28	23.38
348.497	-60.32
348.713	-4.13
348.93	34.23
349.146	16.21
349.363	4.78
349.579	4
349.796	-9.36
350.012	-9.56
350.229	42.17
350.445	-33.39
350.661	-13.05
350.878	-0.84
351.094	-3.16
351.311	12.92
351.527	27.45
351.743	-33.78
351.96	38.49
352.176	17.76
352.392	1.1
352.609	38.1
352.825	-20.21
353.041	5.36
353.257	-24.67
353.474	13.89
353.69	8.46
353.906	18.73
354.122	-9.75
354.339	47.98
354.555	6.91
354.771	-12.08
354.987	42.75
355.203	53.02
355.42	8.07
355.636	-3.94
355.852	4.59
356.068	0.71
356.284	-3.94
356.5	35.97
356.716	35.2
356.932	2.65
357.148	-4.33
357.364	10.4
357.58	15.82
357.796	56.51
358.012	33.65
358.228	12.72
358.444	-47.34
358.66	49.92
358.876	6.14
359.092	-26.41
359.308	19.89
359.524	56.12
359.74	0.52
359.956	-12.08
360.172	13.11
360.388	45.08
360.604	-7.04
360.819	94.1
361.035	13.89
361.251	34.81
361.467	3.04
361.683	32.1
361.898	21.64
362.114	27.84
362.33	49.92
362.546	49.53
362.762	29.77
362.977	11.56
363.193	-25.25
363.409	26.67
363.624	-16.34
363.84	9.24
364.056	-9.95
364.271	36.75
364.487	22.22
364.703	21.83
364.918	-2.39
365.134	-7.81
365.35	-3.55
365.565	113.08
365.781	-19.25
365.996	31.71
366.212	74.72
366.427	15.44
366.643	6.91
366.858	-9.36
367.074	-20.6
367.289	69.3
367.505	78.98
367.72	-13.24
367.936	-14.01
368.151	37.91
368.367	20.09
368.582	32.48
368.798	-25.45
369.013	60
369.228	30.35
369.444	16.99
369.659	41.78
369.874	10.98
370.09	53.99
370.305	-40.36
370.52	19.5
370.736	61.93
370.951	6.91
371.166	66.39
371.381	62.32
371.597	35.97
371.812	-34.94
372.027	-9.36
372.242	36.36
372.458	87.12
372.673	-14.79
372.888	7.3
373.103	22.8
373.318	99.13
373.533	16.4
373.749	34.81
373.964	-19.25
374.179	52.44
374.394	-10.91
374.609	47.6
374.824	1.29
375.039	44.88
375.254	-9.75
375.469	76.08
375.684	16.99
375.899	56.9
376.114	4.2
376.329	16.6
376.544	26.09
376.759	57.67
376.974	-8.98
377.189	1.87
377.404	-0.84
377.619	39.46
377.834	-31.06
378.049	-22.54
378.264	4.39
378.478	24.35
378.693	12.14
378.908	36.75
379.123	6.14
379.338	45.08
379.553	40.62
379.767	22.02
379.982	23.96
380.197	58.06
380.412	32.87
380.626	30.93
380.841	107.85
381.056	30.93
381.271	68.33
381.485	25.9
381.7	23.96
381.915	26.87
382.129	19.31
382.344	22.41
382.559	13.5
382.773	58.45
382.988	-21.96
383.202	48.37
383.417	-8.01
383.632	102.43
383.846	27.06
384.061	7.69
384.275	3.81
384.49	34.81
384.704	45.47
384.919	45.66
385.133	34.03
385.348	40.23
385.562	-13.82
385.777	54.57
385.991	21.44
386.206	1.68
386.42	18.54
386.634	51.47
386.849	42.95
387.063	34.81
387.277	0.52
387.492	14.27
387.706	10.59
387.92	-5.1
388.135	52.05
388.349	39.85
388.563	18.92
388.778	33.07
388.992	51.67
389.206	51.08
389.42	122.96
389.635	11.95
389.849	65.03
390.063	74.53
390.277	27.25
390.491	89.83
390.706	56.32
390.92	53.8
391.134	35.97
391.348	69.49
391.562	1.68
391.776	26.29
391.99	28.42
392.205	46.43
392.419	25.32
392.633	8.65
392.847	84.6
393.061	-2.58
393.275	80.53
393.489	36.36
393.703	39.27
393.917	59.22
394.131	13.5
394.345	54.38
394.559	60.38
394.773	30.55
394.986	61.35
395.2	26.67
395.414	62.32
395.628	16.02
395.842	61.55
396.056	8.85
396.27	-4.52
396.484	46.43
396.697	61.93
396.911	72.2
397.125	66.78
397.339	63.48
397.553	43.53
397.766	108.43
397.98	91.97
398.194	71.82
398.408	14.66
398.621	70.85
398.835	80.15
399.049	51.47
399.262	75.5
399.476	61.93
399.69	81.31
399.903	125.48
400.117	41.01
400.331	66.58
400.544	59.61
400.758	128.97
400.971	78.6
401.185	86.35
401.398	4.97
401.612	87.9
401.826	71.04
402.039	87.51
402.253	30.55
402.466	74.92
402.68	73.37
402.893	61.93
403.106	51.47
403.32	60.97
403.533	69.88
403.747	57.28
403.96	63.1
404.174	64.65
404.387	20.86
404.6	75.5
404.814	98.75
405.027	59.22
405.24	69.3
405.454	46.05
405.667	106.88
405.88	14.66
406.094	98.75
406.307	80.92
406.52	92.74
406.733	49.15
406.947	32.87
407.16	110.37
407.373	105.14
407.586	33.65
407.799	42.75
408.012	84.02
408.226	112.12
408.439	106.88
408.652	43.14
408.865	80.73
409.078	100.68
409.291	77.82
409.504	39.07
409.717	73.95
409.93	87.51
410.143	114.25
410.357	43.33
410.57	34.03
410.783	81.31
410.996	88.67
411.209	62.9
411.421	112.7
411.634	60
411.847	58.64
412.06	77.63
412.273	50.7
412.486	95.84
412.699	151.64
412.912	71.82
413.125	93.52
413.338	74.92
413.55	98.75
413.763	89.83
413.976	94.29
414.189	49.34
414.402	56.12
414.615	119.67
414.827	37.91
415.04	126.65
415.253	81.31
415.466	104.56
415.678	151.06
415.891	82.67
416.104	109.6
416.316	87.12
416.529	50.7
416.742	88.48
416.954	94.1
417.167	64.26
417.38	82.08
417.592	111.73
417.805	49.53
418.017	36.75
418.23	109.79
418.442	62.52
418.655	58.83
418.868	93.9
419.08	108.43
419.293	102.04
419.505	91.19
419.718	94.1
419.93	112.31
420.142	82.08
420.355	148.35
420.567	139.24
420.78	99.91
420.992	93.71
421.205	149.31
421.417	50.5
421.629	55.73
421.842	92.16
422.054	37.33
422.266	124.9
422.479	145.25
422.691	61.16
422.903	126.26
423.115	78.02
423.328	75.5
423.54	79.76
423.752	96.62
423.964	53.99
424.177	103.78
424.389	82.08
424.601	185.35
424.813	106.69
425.025	120.45
425.238	133.81
425.45	81.31
425.662	58.83
425.874	343.26
426.086	87.7
426.298	99.91
426.51	95.07
426.722	122.38
426.934	93.13
427.146	117.35
427.358	64.45
427.57	129.94
427.782	94.29
427.994	90.22
428.206	74.33
428.418	27.06
428.63	130.71
428.842	111.53
429.054	126.45
429.266	134.01
429.478	55.93
429.69	94.48
429.902	66.2
430.114	142.73
430.325	92.16
430.537	108.24
430.749	98.55
430.961	50.31
431.173	63.29
431.384	134.2
431.596	35.39
431.808	81.89
432.02	98.17
432.231	136.72
432.443	139.63
432.655	131.49
432.867	72.98
433.078	99.72
433.29	176.44
433.502	133.62
433.713	140.4
433.925	115.22
434.136	172.56
434.348	97.39
434.56	84.8
434.771	214.61
434.983	66.58
435.194	102.43
435.406	88.28
435.617	134.01
435.829	170.43
436.04	120.45
436.252	138.85
436.463	178.18
436.675	146.8
436.886	106.69
437.098	139.05
437.309	182.06
437.521	105.14
437.732	149.51
437.943	109.98
438.155	144.28
438.366	88.28
438.578	174.31
438.789	138.85
439	146.41
439.211	112.12
439.423	150.48
439.634	162.88
439.845	153.19
440.057	149.51
440.268	181.28
440.479	131.1
440.69	152.61
440.902	131.88
441.113	133.23
441.324	149.9
441.535	143.31
441.746	196.4
441.957	102.62
442.168	102.23
442.38	154.16
442.591	181.67
442.802	138.66
443.013	111.53
443.224	147.57
443.435	125.48
443.646	152.61
443.857	131.49
444.068	126.26
444.279	121.41
444.49	199.11
444.701	148.54
444.912	216.35
445.123	172.37
445.334	140.6
445.545	169.08
445.756	166.75
445.967	115.8
446.178	179.54
446.388	193.3
446.599	180.12
446.81	173.15
447.021	163.07
447.232	205.31
447.443	207.24
447.653	131.3
447.864	201.43
448.075	159.97
448.286	187.48
448.496	197.75
448.707	198.72
448.918	174.89
449.129	255.1
449.339	135.75
449.55	171.98
449.761	159.58
449.971	203.95
450.182	141.76
450.393	189.23
450.603	177.02
450.814	191.75
451.024	185.35
451.235	196.01
451.446	236.5
451.656	246.77
451.867	165.4
452.077	208.02
452.288	220.42
452.498	247.93
452.709	187.48
452.919	193.68
453.13	156.29
453.34	219.26
453.55	151.64
453.761	211.89
453.971	213.25
454.182	200.08
454.392	172.56
454.602	234.37
454.813	223.13
455.023	233.01
455.233	168.69
455.444	224.29
455.654	149.12
455.864	195.23
456.075	186.51
456.285	193.1
456.495	176.63
456.705	235.73
456.916	248.71
457.126	256.84
457.336	187.87
457.546	153.38
457.756	173.73
457.967	234.37
458.177	184.58
458.387	210.54
458.597	168.69
458.807	199.5
459.017	178.76
459.227	202.79
459.437	179.93
459.647	257.23
459.857	225.65
460.068	173.15
460.278	255.1
460.488	225.65
460.698	290.75
460.908	196.98
461.117	169.27
461.327	165.4
461.537	255.88
461.747	210.34
461.957	213.25
462.167	309.93
462.377	250.84
462.587	216.93
462.797	232.63
463.007	225.46
463.216	232.24
463.426	271.76
463.636	240.18
463.846	177.02
464.056	184.96
464.265	249.68
464.475	177.41
464.685	216.74
464.895	271.38
465.104	212.67
465.314	261.3
465.524	242.89
465.733	177.99
465.943	294.62
466.153	283.19
466.362	265.76
466.572	236.89
466.782	234.56
466.991	222.94
467.201	285.33
467.41	212.86
467.62	259.36
467.829	234.56
468.039	239.79
468.249	219.64
468.458	238.05
468.668	254.13
468.877	247.74
469.086	283.97
469.296	290.17
469.505	223.52
469.715	299.86
469.924	237.08
470.134	301.21
470.343	316.32
470.552	243.28
470.762	262.66
470.971	224.88
471.18	273.12
471.39	269.83
471.599	245.8
471.808	289.01
472.018	257.62
472.227	313.81
472.436	313.03
472.645	247.35
472.855	246.58
473.064	310.71
473.273	284.74
473.482	308.57
473.691	301.99
473.901	322.33
474.11	284.94
474.319	392.85
474.528	318.07
474.737	353.14
474.946	318.65
475.155	306.06
475.364	354.3
475.573	286.68
475.783	314.97
475.992	328.72
476.201	319.23
476.41	304.51
476.619	289.98
476.828	326.79
477.037	286.68
477.245	291.14
477.454	337.25
477.663	321.94
477.872	300.44
478.081	347.91
478.29	271.76
478.499	414.55
478.708	331.24
478.917	388.79
479.125	345.97
479.334	340.16
479.543	343.06
479.752	363.02
479.961	338.61
480.169	384.14
480.378	352.56
480.587	478.1
480.796	380.84
481.004	363.02
481.213	393.24
481.422	388.4
481.63	379.68
481.839	401.38
482.048	404.87
482.256	368.44
482.465	378.13
482.674	404.67
482.882	426.37
483.091	448.85
483.299	402.15
483.508	419.59
483.716	389.75
483.925	430.05
484.134	377.74
484.342	375.03
484.551	413
484.759	420.75
484.967	420.37
485.176	449.04
485.384	448.46
485.593	415.72
485.801	419.59
486.01	421.72
486.218	388.2
486.426	353.72
486.635	379.87
486.843	356.04
487.051	392.47
487.26	403.51
487.468	415.52
487.676	427.54
487.885	391.5
488.093	403.51
488.301	413.2
488.509	440.9
488.717	471.9
488.926	412.23
489.134	425.02
489.342	437.8
489.55	404.87
489.758	418.82
489.967	388.01
490.175	519.57
490.383	414.94
490.591	506.78
490.799	395.57
491.007	475
491.215	477.33
491.423	451.37
491.631	456.02
491.839	438.19
492.047	493.8
492.255	451.95
492.463	394.02
492.671	432.38
492.879	478.49
493.087	472.87
493.295	462.8
493.503	486.82
493.711	499.8
493.919	525.77
494.127	497.09
494.334	517.24
494.542	456.6
494.75	504.84
494.958	466.87
495.166	536.42
495.374	511.82
495.581	496.7
495.789	452.14
495.997	558.7
496.205	514.14
496.412	502.13
496.62	468.61
496.828	517.82
497.035	481.2
497.243	526.35
497.451	505.81
497.658	518.6
497.866	505.03
498.074	558.51
498.281	506.58
498.489	563.55
498.696	506.2
498.904	481.2
499.112	492.63
499.319	605.59
499.527	528.48
499.734	568
499.942	471.52
500.149	489.34
500.357	508.91
500.564	491.67
500.771	518.02
500.979	473.07
501.186	484.88
501.394	525.18
501.601	519.95
501.808	553.66
502.016	529.64
502.223	518.21
502.43	507.17
502.638	516.85
502.845	512.2
503.052	553.28
503.26	535.07
503.467	598.42
503.674	519.18
503.881	544.95
504.089	603.65
504.296	560.83
504.503	498.64
504.71	532.74
504.917	486.82
505.125	559.86
505.332	523.44
505.539	548.82
505.746	601.52
505.953	560.45
506.16	561.03
506.367	616.25
506.574	617.8
506.781	614.7
506.988	541.65
507.195	568.39
507.402	554.63
507.609	609.08
507.816	530.42
508.023	553.08
508.23	571.88
508.437	526.73
508.644	592.61
508.851	618.57
509.058	615.08
509.265	598.61
509.472	626.9
509.679	690.84
509.885	596.68
510.092	595.9
510.299	591.06
510.506	595.32
510.713	613.15
510.92	593.19
511.126	616.05
511.333	649.18
511.54	639.88
511.746	640.66
511.953	659.45
512.16	654.41
512.367	578.46
512.573	567.61
512.78	634.26
512.987	622.45
513.193	603.26
513.4	544.95
513.606	605.2
513.813	624.77
514.02	629.81
514.226	682.89
514.433	656.74
514.639	599.39
514.846	605.4
515.052	623.61
515.259	632.52
515.465	633.68
515.672	643.76
515.878	722.23
516.085	616.63
516.291	666.62
516.497	617.02
516.704	636.78
516.91	587.96
517.117	569.55
517.323	564.51
517.529	603.85
517.736	586.21
517.942	585.25
518.148	604.23
518.354	632.13
518.561	642.01
518.767	613.15
518.973	622.06
519.179	687.16
519.386	628.06
519.592	673.21
519.798	641.43
520.004	700.91
520.21	628.84
520.417	667.78
520.623	722.23
520.829	732.3
521.035	714.28
521.241	693.55
521.447	733.07
521.653	801.47
521.859	713.12
522.065	722.61
522.271	800.89
522.477	733.27
522.683	765.24
522.889	757.29
523.095	747.99
523.301	762.14
523.507	721.45
523.713	778.61
523.919	709.63
524.125	774.15
524.331	759.81
524.537	837.7
524.742	808.44
524.948	815.61
525.154	789.26
525.36	936.12
525.566	800.89
525.772	867.54
525.977	762.91
526.183	817.16
526.389	834.02
526.595	793.52
526.8	775.12
527.006	750.9
527.212	721.45
527.417	720.87
527.623	712.93
527.829	790.81
528.034	817.74
528.24	796.24
528.446	818.9
528.651	848.16
528.857	844.48
529.062	888.27
529.268	856.88
529.473	871.41
529.679	803.6
529.884	911.52
530.09	863.27
530.295	888.46
530.501	873.74
530.706	876.06
530.912	849.52
531.117	879.55
531.323	906.48
531.528	908.03
531.733	926.82
531.939	878
532.144	913.65
532.35	914.81
532.555	937.28
532.76	895.82
532.966	910.35
533.171	872.77
533.376	898.34
533.581	865.21
533.787	902.22
533.992	926.24
534.197	942.52
534.402	895.05
534.607	923.72
534.813	989.21
535.018	889.82
535.223	933.02
535.428	924.3
535.633	959.37
535.838	982.82
536.043	969.83
536.249	1034.93
536.454	975.07
536.659	976.23
536.864	943.87
537.069	956.66
537.274	990.76
537.479	996.76
537.684	996.76
537.889	946
538.094	1031.25
538.299	966.35
538.504	1009.36
538.708	978.94
538.913	994.83
539.118	1019.24
539.323	1015.75
539.528	954.92
539.733	988.43
539.938	1025.44
540.142	1006.06
540.347	996.76
540.552	969.64
540.757	983.01
540.962	970.61
541.166	948.72
541.371	942.32
541.576	987.08
541.781	888.27
541.985	1012.65
542.19	953.75
542.395	1022.34
542.599	1045.01
542.804	989.02
543.008	1067.29
543.213	991.53
543.418	966.93
543.622	1037.84
543.827	1000.06
544.031	1057.41
544.236	1025.83
544.44	1038.42
544.645	1097.32
544.849	994.83
545.054	1054.31
545.258	1127.35
545.463	1084.73
545.667	1048.88
545.872	1042.3
546.076	1063.8
546.281	1066.32
546.485	1023.5
546.689	1068.65
546.894	1072.13
547.098	1061.09
547.302	1046.17
547.507	1064
547.711	1054.31
547.915	1120.96
548.119	1040.36
548.324	1019.43
548.528	1088.21
548.732	1070.97
548.936	1079.11
549.141	1084.92
549.345	1069.42
549.549	1079.88
549.753	1059.93
549.957	1145.76
550.161	1152.34
550.366	1087.83
550.57	1043.85
550.774	1069.42
550.978	1072.33
551.182	1102.16
551.386	1050.43
551.59	1078.72
551.794	1084.92
551.998	1091.51
552.202	1061.48
552.406	1011.3
552.61	1093.83
552.814	1093.44
553.018	1153.7
553.222	1079.11
553.426	1092.67
553.63	1136.26
553.833	1078.72
554.037	1037.65
554.241	1125.41
554.445	1074.46
554.649	1083.76
554.853	1093.06
555.056	1105.46
555.26	1113.98
555.464	1083.76
555.668	1104.1
555.871	1120.96
556.075	1146.73
556.279	1071.16
556.483	1044.23
556.686	1099.84
556.89	1047.33
557.094	1112.82
557.297	1060.31
557.501	1109.91
557.704	1046.95
557.908	1098.09
558.112	1036.87
558.315	1127.16
558.519	1060.9
558.722	1046.56
558.926	1020.98
559.129	1005.48
559.333	987.08
559.536	1019.82
559.74	995.8
559.943	986.5
560.147	992.11
560.35	1038.03
560.553	1007.23
560.757	996.18
560.96	1082.98
561.164	978.36
561.367	1065.35
561.57	1021.76
561.774	1051.6
561.977	999.09
562.18	1005.1
562.384	1096.74
562.587	1024.28
562.79	974.1
562.993	990.76
563.197	1040.75
563.4	1045.4
563.603	1031.06
563.806	1062.25
564.009	984.17
564.212	1004.71
564.416	946.39
564.619	1029.31
564.822	969.06
565.025	1022.73
565.228	981.65
565.431	986.11
565.634	897.18
565.837	964.6
566.04	937.67
566.243	949.68
566.446	888.85
566.649	995.8
566.852	912.29
567.055	942.32
567.258	955.11
567.461	995.6
567.664	987.08
567.867	912.87
568.07	963.63
568.273	954.14
568.475	1000.83
568.678	913.65
568.881	924.5
569.084	894.85
569.287	864.82
569.489	845.06
569.692	929.53
569.895	920.62
570.098	879.94
570.3	841.19
570.503	826.85
570.706	865.4
570.909	822
571.111	822.2
571.314	800.69
571.516	839.25
571.719	844.67
571.922	849.71
572.124	811.16
572.327	861.72
572.529	792.56
572.732	806.7
572.935	833.82
573.137	883.81
573.34	841.77
573.542	847.97
573.745	850.1
573.947	855.91
574.15	845.25
574.352	816.39
574.554	894.66
574.757	797.01
574.959	785.77
575.162	797.98
575.364	815.42
575.566	870.25
575.769	777.25
575.971	829.37
576.173	729.97
576.376	801.47
576.578	818.9
576.78	861.72
576.982	729.78
577.185	799.92
577.387	751.29
577.589	727.46
577.791	806.51
577.993	795.27
578.196	770.66
578.398	780.93
578.6	801.66
578.802	748.57
579.004	737.72
579.206	760.39
579.408	776.86
579.61	766.21
579.812	782.09
580.014	754
580.216	761.17
580.418	741.6
580.62	717.58
580.822	703.43
581.024	771.05
581.226	785
581.428	755.55
581.63	815.61
581.832	731.91
582.034	822.97
582.236	786.94
582.438	801.86
582.64	809.22
582.841	800.11
583.043	837.12
583.245	782.67
583.447	784.81
583.649	789.46
583.85	797.4
584.052	817.35
584.254	766.79
584.456	821.42
584.657	748.96
584.859	764.66
585.061	780.74
585.262	740.05
585.464	725.33
585.666	790.42
585.867	748.77
586.069	796.62
586.27	753.61
586.472	785.77
586.674	743.92
586.875	775.51
587.077	748.77
587.278	752.06
587.48	761.36
587.681	825.49
587.883	778.61
588.084	721.45
588.285	708.66
588.487	724.16
588.688	758.07
588.89	661.39
589.091	644.14
589.292	691.42
589.494	690.45
589.695	686.19
589.896	612.37
590.098	612.56
590.299	683.28
590.5	659.45
590.702	667.2
590.903	668.56
591.104	713.31
591.305	696.46
591.507	725.91
591.708	699.75
591.909	676.31
592.11	777.64
592.311	722.42
592.512	677.66
592.714	644.53
592.915	653.83
593.116	672.82
593.317	699.36
593.518	680.57
593.719	674.56
593.92	700.53
594.121	752.26
594.322	721.06
594.523	727.26
594.724	653.06
594.925	687.16
595.126	687.74
595.327	726.1
595.528	696.65
595.729	710.41
595.929	667.2
596.13	699.36
596.331	709.44
596.532	705.37
596.733	733.27
596.934	724.36
597.135	734.04
597.335	717.96
597.536	674.37
597.737	672.04
597.938	670.3
598.138	703.43
598.339	703.63
598.54	711.76
598.74	699.36
598.941	704.01
599.142	733.85
599.342	720.87
599.543	653.64
599.744	696.84
599.944	687.93
600.145	707.69
600.345	713.7
600.546	785.77
600.746	743.34
600.947	784.03
601.147	723.58
601.348	722.81
601.548	684.25
601.749	674.37
601.949	660.23
602.15	678.44
602.35	709.44
602.551	736.17
602.751	690.64
602.951	662.55
603.152	613.53
603.352	722.61
603.552	674.95
603.753	721.64
603.953	692
604.153	693.36
604.354	685.41
604.554	677.86
604.754	684.83
604.954	671.27
605.155	730.75
605.355	679.41
605.555	732.88
605.755	755.94
605.955	671.27
606.155	745.86
606.356	707.69
606.556	748.96
606.756	711.57
606.956	678.44
607.156	744.89
607.356	674.18
607.556	703.43
607.756	696.46
607.956	777.25
608.156	708.66
608.356	691.23
608.556	711.57
608.756	692.97
608.956	635.62
609.156	695.1
609.356	663.13
609.556	649.96
609.755	695.88
609.955	633.49
610.155	670.69
610.355	684.25
610.555	683.67
610.755	694.52
610.954	628.26
611.154	681.73
611.354	683.28
611.554	650.73
611.753	636.4
611.953	607.72
612.153	686.19
612.352	666.81
612.552	637.17
612.752	597.26
612.951	632.91
613.151	670.88
613.351	629.42
613.55	649.18
613.75	653.64
613.949	652.48
614.149	654.8
614.348	666.23
614.548	628.65
614.747	619.15
614.947	638.72
615.146	579.82
615.346	651.51
615.545	626.13
615.745	628.06
615.944	676.11
616.144	630.78
616.343	673.79
616.542	619.35
616.742	661.97
616.941	625.74
617.14	599.97
617.34	651.89
617.539	614.5
617.738	581.95
617.938	650.93
618.137	627.1
618.336	623.22
618.535	653.83
618.734	641.82
618.934	637.95
619.133	647.44
619.332	643.56
619.531	574.2
619.73	601.91
619.929	637.95
620.128	652.28
620.328	694.91
620.527	581.18
620.726	612.56
620.925	624
621.124	619.35
621.323	625.35
621.522	601.71
621.721	584.66
621.92	573.04
622.119	627.87
622.318	591.06
622.517	619.35
622.715	591.45
622.914	555.02
623.113	599.39
623.312	556.38
623.511	598.42
623.71	580.21
623.909	560.45
624.107	636.01
624.306	568.97
624.505	568.58
624.704	557.15
624.902	584.86
625.101	591.83
