Data from oakcork_FLMT105791__192__17-32-05-057.txt Node

Date: Mon Mar 20 17:32:05 GMT 2023
User: antho
Spectrometer: FLMT10579
Trigger mode: 0
Integration Time (sec): 1.000000E-1
Scans to average: 10
Electric dark correction enabled: true
Nonlinearity correction enabled: false
Boxcar width: 0
XAxis mode: Wavelengths
Number of Pixels in Spectrum: 3648
>>>>>Begin Spectral Data<<<<<
345.248	-154.01
345.464	-154.01
345.681	-154.01
345.898	-192.37
346.114	-171.64
346.331	-38.93
346.548	9.51
346.764	0.4
346.981	0.79
347.197	-8.51
347.414	8.73
347.631	-5.99
347.847	55.04
348.064	8.35
348.28	26.17
348.497	-50.36
348.713	-5.22
348.93	39.15
349.146	10.28
349.363	-8.12
349.579	9.51
349.796	3.89
350.012	0.21
350.229	26.37
350.445	3.89
350.661	-20.71
350.878	8.15
351.094	3.5
351.311	25.2
351.527	-1.53
351.743	6.02
351.96	23.07
352.176	28.5
352.392	23.85
352.609	12.03
352.825	-15.1
353.041	11.25
353.257	-6.18
353.474	-0.76
353.69	-11.41
353.906	4.86
354.122	-14.13
354.339	44.38
354.555	-12.19
354.771	-2.5
354.987	25.4
355.203	69.77
355.42	21.72
355.636	-8.51
355.852	1.57
356.068	13.38
356.284	-27.11
356.5	64.53
356.716	9.12
356.932	6.41
357.148	31.02
357.364	-4.05
357.58	41.28
357.796	63.76
358.012	29.85
358.228	20.94
358.444	-43.19
358.66	49.03
358.876	16.87
359.092	-27.5
359.308	15.13
359.524	38.38
359.74	9.7
359.956	-2.5
360.172	5.25
360.388	10.67
360.604	-8.12
360.819	92.05
361.035	30.24
361.251	31.6
361.467	-17.81
361.683	36.25
361.898	27.33
362.114	56.59
362.33	3.5
362.546	50.97
362.762	0.98
362.977	9.51
363.193	4.67
363.409	52.13
363.624	-26.14
363.84	-18.78
364.056	8.35
364.271	25.4
364.487	5.44
364.703	-0.95
364.918	-37.38
365.134	29.66
365.35	18.03
365.565	103.86
365.781	16.1
365.996	33.92
366.212	66.47
366.427	23.07
366.643	11.64
366.858	-3.08
367.074	-26.91
367.289	54.65
367.505	96.7
367.72	-11.03
367.936	-14.51
368.151	38.38
368.367	48.07
368.582	17.65
368.798	8.93
369.013	50.78
369.228	7.96
369.444	6.22
369.659	61.24
369.874	25.01
370.09	54.65
370.305	-57.14
370.52	-12.77
370.736	58.14
370.951	20.36
371.166	35.28
371.381	72.67
371.597	49.03
371.812	-19.36
372.027	-20.52
372.242	10.28
372.458	70.93
372.673	0.6
372.888	8.73
373.103	23.46
373.318	82.94
373.533	34.12
373.749	22.1
373.964	14.35
374.179	50.78
374.394	-9.67
374.609	53.49
374.824	-23.62
375.039	61.43
375.254	-7.93
375.469	71.7
375.684	27.14
375.899	40.7
376.114	14.55
376.329	40.32
376.544	62.4
376.759	52.91
376.974	-20.91
377.189	17.45
377.404	23.46
377.619	52.72
377.834	-13.35
378.049	-2.5
378.264	-9.48
378.478	27.33
378.693	10.87
378.908	33.73
379.123	-10.45
379.338	58.53
379.553	62.79
379.767	15.71
379.982	25.78
380.197	35.67
380.412	13.77
380.626	53.3
380.841	59.11
381.056	9.7
381.271	75.58
381.485	-1.15
381.7	-29.05
381.915	25.2
382.129	-5.41
382.344	31.4
382.559	14.93
382.773	27.53
382.988	-37.76
383.202	40.32
383.417	0.98
383.632	120.72
383.846	22.68
384.061	39.93
384.275	18.23
384.49	10.67
384.704	46.32
384.919	28.69
385.133	32.18
385.348	37.6
385.562	-14.13
385.777	60.27
385.991	-1.34
386.206	8.35
386.42	-6.18
386.634	44.97
386.849	39.54
387.063	29.47
387.277	-10.64
387.492	1.18
387.706	-35.83
387.92	-20.33
388.135	47.87
388.349	31.02
388.563	26.17
388.778	40.12
388.992	28.88
389.206	34.5
389.42	65.31
389.635	26.75
389.849	45.55
390.063	43.61
390.277	55.62
390.491	79.26
390.706	32.76
390.92	63.95
391.134	33.15
391.348	31.98
391.562	-5.99
391.776	5.83
391.99	-8.7
392.205	31.4
392.419	-4.44
392.633	17.07
392.847	55.62
393.061	18.81
393.275	62.4
393.489	32.18
393.703	35.08
393.917	73.83
394.131	23.65
394.345	54.07
394.559	52.52
394.773	24.04
394.986	31.6
395.2	39.15
395.414	59.3
395.628	-3.28
395.842	27.92
396.056	1.18
396.27	-12.19
396.484	37.02
396.697	43.8
396.911	73.06
397.125	49.42
397.339	46.32
397.553	44
397.766	113.55
397.98	72.09
398.194	73.06
398.408	25.98
398.621	57.17
398.835	52.33
399.049	19
399.262	81.78
399.476	55.82
399.69	52.72
399.903	136.22
400.117	35.67
400.331	79.07
400.544	32.95
400.758	148.04
400.971	43.8
401.185	50.58
401.398	21.33
401.612	96.5
401.826	73.64
402.039	77.32
402.253	22.49
402.466	43.22
402.68	13.38
402.893	41.09
403.106	51.55
403.32	13.38
403.533	80.03
403.747	44.58
403.96	46.32
404.174	77.13
404.387	0.79
404.6	40.12
404.814	49.62
405.027	37.6
405.24	66.08
405.454	37.6
405.667	70.93
405.88	10.28
406.094	66.67
406.307	69.77
406.52	58.72
406.733	32.37
406.947	-9.67
407.16	110.65
407.373	63.57
407.586	21.33
407.799	16.48
408.012	101.93
408.226	67.25
408.439	92.24
408.652	3.12
408.865	38.57
409.078	96.89
409.291	55.04
409.504	16.68
409.717	40.32
409.93	56.98
410.143	42.64
410.357	10.48
410.57	26.37
410.783	34.12
410.996	52.72
411.209	38.77
411.421	92.82
411.634	59.69
411.847	29.85
412.06	63.37
412.273	60.08
412.486	55.04
412.699	134.86
412.912	42.45
413.125	70.35
413.338	32.57
413.55	95.34
413.763	65.5
413.976	58.92
414.189	46.32
414.402	32.57
414.615	85.26
414.827	32.57
415.04	87.2
415.253	65.12
415.466	84.1
415.678	136.41
415.891	40.7
416.104	50.97
416.316	31.02
416.529	36.05
416.742	47.29
416.954	70.93
417.167	89.91
417.38	42.83
417.592	90.5
417.805	25.01
418.017	7.77
418.23	99.41
418.442	62.21
418.655	56.2
418.868	71.12
419.08	91.85
419.293	85.65
419.505	42.83
419.718	85.26
419.93	94.18
420.142	56.2
420.355	101.54
420.567	97.66
420.78	52.91
420.992	50
421.205	123.24
421.417	26.95
421.629	32.18
421.842	31.02
422.054	19.2
422.266	96.31
422.479	124.21
422.691	36.63
422.903	72.09
423.115	46.9
423.328	64.73
423.54	83.71
423.752	62.98
423.964	53.49
424.177	65.89
424.389	59.69
424.601	161.21
424.813	76.55
425.025	95.34
425.238	96.5
425.45	38.57
425.662	61.24
425.874	355.35
426.086	74.42
426.298	87.59
426.51	60.08
426.722	89.14
426.934	40.12
427.146	88.56
427.358	31.79
427.57	94.76
427.782	55.23
427.994	78.48
428.206	48.45
428.418	23.85
428.63	84.1
428.842	85.26
429.054	97.47
429.266	112
429.478	37.8
429.69	57.37
429.902	49.23
430.114	68.6
430.325	98.44
430.537	52.33
430.749	73.45
430.961	22.1
431.173	69.77
431.384	79.45
431.596	-33.5
431.808	59.88
432.02	87.2
432.231	89.14
432.443	116.65
432.655	92.05
432.867	57.17
433.078	84.1
433.29	155.6
433.502	113.94
433.713	115.49
433.925	97.28
434.136	113.36
434.348	38.57
434.56	29.85
434.771	173.81
434.983	35.67
435.194	30.63
435.406	60.66
435.617	102.7
435.829	160.83
436.04	116.85
436.252	116.46
436.463	125.37
436.675	131.76
436.886	94.76
437.098	90.88
437.309	133.51
437.521	95.92
437.732	98.05
437.943	81.39
438.155	86.23
438.366	43.03
438.578	147.07
438.789	99.41
439	106
439.211	78.68
439.423	114.71
439.634	109.48
439.845	128.66
440.057	112.39
440.268	123.24
440.479	90.3
440.69	110.45
440.902	89.33
441.113	94.76
441.324	77.71
441.535	105.41
441.746	137.19
441.957	62.98
442.168	89.53
442.38	110.65
442.591	114.13
442.802	81.39
443.013	48.07
443.224	119.17
443.435	101.54
443.646	89.33
443.857	71.9
444.068	71.51
444.279	74.03
444.49	153.46
444.701	118.59
444.912	196.28
445.123	127.89
445.334	134.09
445.545	128.08
445.756	104.06
445.967	66.86
446.178	108.71
446.388	123.43
446.599	124.79
446.81	134.09
447.021	90.5
447.232	139.51
447.443	149.59
447.653	77.32
447.864	146.1
448.075	114.71
448.286	160.63
448.496	129.83
448.707	145.91
448.918	116.46
449.129	196.67
449.339	120.33
449.55	157.92
449.761	89.14
449.971	142.23
450.182	134.86
450.393	147.07
450.603	109.48
450.814	156.56
451.024	136.03
451.235	174.97
451.446	175.74
451.656	181.36
451.867	104.25
452.077	146.88
452.288	177.1
452.498	167.8
452.709	123.63
452.919	170.51
453.13	107.35
453.34	157.53
453.55	72.48
453.761	174.19
453.971	146.1
454.182	177.1
454.392	154.43
454.602	205.58
454.813	169.16
455.023	164.51
455.233	90.11
455.444	148.43
455.654	72.67
455.864	143
456.075	115.68
456.285	137.58
456.495	123.05
456.705	160.63
456.916	174.78
457.126	177.49
457.336	160.83
457.546	89.91
457.756	118.59
457.967	173.81
458.177	141.45
458.387	162.96
458.597	119.56
458.807	136.41
459.017	133.7
459.227	114.52
459.437	135.83
459.647	181.36
459.857	174.78
460.068	147.07
460.278	176.33
460.488	161.02
460.698	189.69
460.908	155.98
461.117	97.86
461.327	139.9
461.537	125.56
461.747	161.8
461.957	166.06
462.167	225.54
462.377	193.38
462.587	155.98
462.797	234.84
463.007	165.28
463.216	165.86
463.426	196.86
463.636	144.36
463.846	96.5
464.056	150.17
464.265	202.29
464.475	111.81
464.685	163.54
464.895	177.49
465.104	171.48
465.314	183.3
465.524	145.52
465.733	112.78
465.943	232.32
466.153	197.83
466.362	183.3
466.572	167.99
466.782	158.89
466.991	148.23
467.201	215.85
467.41	133.31
467.62	164.12
467.829	159.08
468.039	176.33
468.249	153.46
468.458	169.35
468.668	197.44
468.877	195.12
469.086	207.13
469.296	194.73
469.505	156.95
469.715	231.74
469.924	195.7
470.134	197.06
470.343	218.37
470.552	156.76
470.762	162.38
470.971	144.94
471.18	183.3
471.39	183.49
471.599	130.02
471.808	225.34
472.018	144.16
472.227	187.56
472.436	205.97
472.645	179.43
472.855	140.1
473.064	189.31
473.273	207.52
473.482	217.21
473.691	206.74
473.901	203.06
474.11	183.49
474.319	286.57
474.528	233.87
474.737	258.67
474.946	187.76
475.155	201.32
475.364	229.61
475.573	186.59
475.783	207.13
475.992	223.02
476.201	255.57
476.41	195.12
476.619	182.33
476.828	220.31
477.037	199.96
477.245	217.4
477.454	252.86
477.663	205
477.872	190.47
478.081	265.45
478.29	170.51
478.499	298.19
478.708	234.45
478.917	308.46
479.125	220.69
479.334	277.85
479.543	220.11
479.752	224.76
479.961	253.44
480.169	270.87
480.378	206.55
480.587	344.11
480.796	254.21
481.004	267
481.213	256.54
481.422	260.02
481.63	228.06
481.839	275.72
482.048	300.32
482.256	250.34
482.465	255.18
482.674	265.64
482.882	275.52
483.091	315.44
483.299	277.46
483.508	285.99
483.716	249.56
483.925	268.16
484.134	267.39
484.342	246.66
484.551	323.57
484.759	295.29
484.967	302.65
485.176	306.52
485.384	296.06
485.593	298.39
485.801	309.24
486.01	258.86
486.218	275.33
486.426	206.36
486.635	256.92
486.843	260.99
487.051	261.19
487.26	281.92
487.468	316.21
487.676	317.18
487.885	246.66
488.093	316.21
488.301	282.11
488.509	293.74
488.717	317.37
488.926	280.76
489.134	258.09
489.342	307.69
489.55	253.63
489.758	294.51
489.967	274.36
490.175	399.91
490.383	303.42
490.591	353.41
490.799	259.06
491.007	357.48
491.215	317.76
491.423	326.29
491.631	290.44
491.839	339.27
492.047	337.72
492.255	299.36
492.463	265.45
492.671	296.84
492.879	374.92
493.087	330.36
493.295	337.52
493.503	364.45
493.711	361.16
493.919	364.65
494.127	347.21
494.334	377.82
494.542	301.1
494.75	337.72
494.958	334.04
495.166	347.21
495.374	353.99
495.581	345.85
495.789	355.35
495.997	402.82
496.205	353.41
496.412	321.06
496.62	350.12
496.828	363.1
497.035	320.28
497.243	376.47
497.451	343.72
497.658	379.18
497.866	359.61
498.074	404.17
498.281	347.79
498.489	418.12
498.696	384.22
498.904	346.44
499.112	384.02
499.319	421.8
499.527	344.89
499.734	395.65
499.942	324.35
500.149	359.42
500.357	397.59
500.564	372.79
500.771	361.74
500.979	357.48
501.186	349.15
501.394	398.36
501.601	354.96
501.808	387.9
502.016	374.34
502.223	362.32
502.43	361.74
502.638	366.59
502.845	352.25
503.052	433.23
503.26	359.03
503.467	474.12
503.674	394.87
503.881	389.84
504.089	485.16
504.296	412.7
504.503	362.13
504.71	391.58
504.917	357.29
505.125	370.46
505.332	419.67
505.539	405.92
505.746	435.56
505.953	436.14
506.16	416.77
506.367	454.93
506.574	450.67
506.781	440.98
506.988	388.87
507.195	442.53
507.402	405.72
507.609	448.54
507.816	394.29
508.023	416.38
508.23	406.89
508.437	390.03
508.644	478.38
508.851	463.46
509.058	448.15
509.265	445.83
509.472	461.52
509.679	511.32
509.885	440.02
510.092	445.44
510.299	441.37
510.506	471.02
510.713	434.01
510.92	458.03
511.126	462.1
511.333	507.83
511.54	484.19
511.746	536.7
511.953	511.12
512.16	532.05
512.367	457.45
512.573	486.9
512.78	489.23
512.987	481.67
513.193	498.72
513.4	435.56
513.606	469.27
513.813	489.03
514.02	484
514.226	554.13
514.433	544.83
514.639	454.35
514.846	503.18
515.052	468.88
515.259	496.59
515.465	530.11
515.672	534.37
515.878	610.51
516.085	529.14
516.291	550.45
516.497	512.48
516.704	519.84
516.91	490.78
517.117	480.32
517.323	436.92
517.529	520.23
517.736	480.7
517.942	505.89
518.148	481.67
518.354	514.61
518.561	502.98
518.767	510.35
518.973	546.77
519.179	564.01
519.386	518.29
519.592	527.01
519.798	506.47
520.004	584.94
520.21	518.48
520.417	572.73
520.623	581.84
520.829	632.21
521.035	589.78
521.241	621.94
521.447	593.66
521.653	699.06
521.859	589.4
522.065	630.08
522.271	711.84
522.477	667.28
522.683	679.1
522.889	653.91
523.095	671.35
523.301	640.16
523.507	614.97
523.713	650.81
523.919	629.11
524.125	698.28
524.331	652.75
524.537	698.67
524.742	706.42
524.948	694.79
525.154	680.84
525.36	774.81
525.566	709.91
525.772	715.52
525.977	668.64
526.183	726.96
526.389	735.87
526.595	696.73
526.8	689.76
527.006	684.72
527.212	668.25
527.417	646.94
527.623	635.7
527.829	705.45
528.034	696.15
528.24	725.41
528.446	682.59
528.651	755.24
528.857	750.21
529.062	810.85
529.268	759.51
529.473	755.82
529.679	765.71
529.884	823.25
530.09	788.95
530.295	849.99
530.501	805.23
530.706	784.69
530.912	739.55
531.117	785.66
531.323	751.37
531.528	826.15
531.733	831.39
531.939	775.59
532.144	820.92
532.35	800.19
532.555	828.09
532.76	838.75
532.966	843.59
533.171	808.52
533.376	785.08
533.581	799.42
533.787	826.93
533.992	844.56
534.197	882.15
534.402	815.5
534.607	845.34
534.813	930.58
535.018	819.37
535.223	843.59
535.428	875.75
535.633	880.21
535.838	838.94
536.043	860.84
536.249	956.74
536.454	888.73
536.659	877.88
536.864	865.87
537.069	837.2
537.274	881.18
537.479	886.22
537.684	897.65
537.889	860.84
538.094	923.8
538.299	901.91
538.504	912.37
538.708	906.17
538.913	897.65
539.118	887.38
539.323	916.05
539.528	857.15
539.733	889.51
539.938	926.71
540.142	933.1
540.347	902.88
540.552	872.07
540.757	859.67
540.962	914.31
541.166	869.94
541.371	846.5
541.576	899.39
541.781	790.31
541.985	903.85
542.19	890.87
542.395	939.5
542.599	934.65
542.804	926.9
543.008	955.19
543.213	903.07
543.418	895.9
543.622	947.63
543.827	892.22
544.031	943.37
544.236	960.03
544.44	918.96
544.645	985.8
544.849	928.65
545.054	978.05
545.258	1015.83
545.463	1004.6
545.667	927.48
545.872	977.66
546.076	973.21
546.281	944.92
546.485	919.54
546.689	955.19
546.894	1013.7
547.098	933.3
547.302	912.95
547.507	942.21
547.711	952.28
547.915	1023
548.119	913.53
548.324	948.22
548.528	1024.75
548.732	947.44
548.936	1007.5
549.141	994.52
549.345	922.64
549.549	965.46
549.753	982.51
549.957	1025.33
550.161	1038.31
550.366	974.76
550.57	945.5
550.774	981.93
550.978	978.05
551.182	1032.88
551.386	951.51
551.59	971.66
551.794	943.95
551.998	1001.11
552.202	948.99
552.406	924.19
552.61	991.23
552.814	977.08
553.018	1053.42
553.222	1001.88
553.426	962.16
553.63	1023.78
553.833	980.38
554.037	933.68
554.241	1002.08
554.445	966.43
554.649	991.23
554.853	953.64
555.056	995.49
555.26	1006.92
555.464	993.36
555.668	971.27
555.871	1023.58
556.075	1015.83
556.279	953.83
556.483	942.4
556.686	975.15
556.89	957.13
557.094	994.91
557.297	891.45
557.501	1032.11
557.704	931.36
557.908	1022.81
558.112	942.6
558.315	1046.44
558.519	953.83
558.722	954.8
558.926	964.88
559.129	922.83
559.333	876.14
559.536	904.04
559.74	930.2
559.943	894.16
560.147	917.8
560.35	919.93
560.553	886.22
560.757	864.13
560.96	960.03
561.164	919.93
561.367	993.36
561.57	894.16
561.774	914.5
561.977	928.26
562.18	889.32
562.384	1008.28
562.587	895.13
562.79	911.02
562.993	922.64
563.197	932.13
563.4	967.01
563.603	955.58
563.806	992.39
564.009	863.74
564.212	940.47
564.416	830.22
564.619	887.18
564.822	859.29
565.025	959.65
565.228	887.96
565.431	897.26
565.634	794.38
565.837	824.8
566.04	844.37
566.243	852.5
566.446	773.07
566.649	894.16
566.852	800.58
567.055	834.1
567.258	887.77
567.461	918.38
567.664	887.96
567.867	785.66
568.07	852.5
568.273	839.91
568.475	917.41
568.678	828.87
568.881	797.29
569.084	834.1
569.287	755.82
569.489	784.3
569.692	861.8
569.895	845.53
570.098	762.8
570.3	746.33
570.503	720.17
570.706	754.47
570.909	713.97
571.111	722.5
571.314	728.12
571.516	729.47
571.719	745.75
571.922	762.99
572.124	725.79
572.327	761.25
572.529	687.43
572.732	716.88
572.935	737.42
573.137	764.93
573.34	712.62
573.542	733.54
573.745	744.59
573.947	755.82
574.15	687.63
574.352	690.34
574.554	766.29
574.757	694.79
574.959	692.66
575.162	673.68
575.364	701.19
575.566	812.59
575.769	710.29
575.971	701.77
576.173	637.06
576.376	684.33
576.578	715.52
576.78	733.93
576.982	635.51
577.185	671.54
577.387	635.31
577.589	631.63
577.791	727.73
577.993	678.13
578.196	682.2
578.398	681.81
578.6	719.79
578.802	633.18
579.004	628.14
579.206	658.95
579.408	680.07
579.61	634.34
579.812	691.89
580.014	657.4
580.216	650.43
580.418	635.7
580.62	623.11
580.822	604.12
581.024	667.48
581.226	690.53
581.428	661.86
581.63	703.9
581.832	623.69
582.034	701.77
582.236	636.67
582.438	696.15
582.64	705.84
582.841	719.79
583.043	720.17
583.245	646.16
583.447	672.51
583.649	657.21
583.85	644.81
584.052	714.56
584.254	616.52
584.456	681.81
584.657	632.6
584.859	681.23
585.061	645
585.262	620.59
585.464	617.68
585.666	663.79
585.867	635.12
586.069	694.41
586.27	643.06
586.472	666.51
586.674	617.88
586.875	654.49
587.077	583.39
587.278	653.14
587.48	641.71
587.681	715.72
587.883	609.93
588.084	593.85
588.285	613.23
588.487	590.36
588.688	602.18
588.89	567.11
589.091	558.59
589.292	586.3
589.494	579.32
589.695	568.86
589.896	502.21
590.098	513.25
590.299	561.69
590.5	523.13
590.702	508.99
590.903	566.15
591.104	623.3
591.305	589.98
591.507	636.09
591.708	614.58
591.909	585.52
592.11	637.25
592.311	578.74
592.512	575.64
592.714	533.01
592.915	559.75
593.116	544.25
593.317	575.83
593.518	572.73
593.719	548.32
593.92	596.18
594.121	619.81
594.322	572.73
594.523	565.56
594.724	541.93
594.925	553.36
595.126	575.06
595.327	578.35
595.528	560.53
595.729	579.32
595.929	562.46
596.13	562.46
596.331	561.3
596.532	565.76
596.733	645
596.934	598.5
597.135	609.93
597.335	578.55
597.536	559.56
597.737	603.54
597.938	561.69
598.138	574.48
598.339	564.01
598.54	571.38
598.74	527.01
598.941	583.97
599.142	604.51
599.342	603.35
599.543	549.29
599.744	550.65
599.944	570.21
600.145	580.48
600.345	544.06
600.546	633.57
600.746	619.81
600.947	639.96
601.147	570.8
601.348	576.61
601.548	549.1
601.749	568.28
601.949	552.78
602.15	536.11
602.35	552.39
602.551	591.14
602.751	527.01
602.951	556.46
603.152	514.03
603.352	597.34
603.552	547.74
603.753	577.77
603.953	570.99
604.153	551.81
604.354	539.21
604.554	550.06
604.754	554.91
604.954	526.43
605.155	576.03
605.355	560.53
605.555	597.92
605.755	605.48
605.955	560.53
606.155	600.83
606.356	587.26
606.556	580.29
606.756	587.46
606.956	523.91
607.156	607.03
607.356	543.86
607.556	549.48
607.756	562.46
607.956	596.95
608.156	557.04
608.356	515
608.556	570.6
608.756	562.85
608.956	503.37
609.156	540.57
609.356	535.53
609.556	524.3
609.755	510.93
609.955	483.8
610.155	518.1
610.355	510.73
610.555	521
610.755	542.12
610.954	492.13
611.154	544.64
611.354	566.73
611.554	504.53
611.753	520.23
611.953	457.26
612.153	542.51
612.352	531.66
612.552	491.94
612.752	466.75
612.951	520.81
613.151	509.18
613.351	489.81
613.55	503.95
613.75	538.44
613.949	498.33
614.149	514.03
614.348	488.45
614.548	489.42
614.747	453.19
614.947	474.7
615.146	456.48
615.346	517.71
615.545	496.01
615.745	476.83
615.944	516.55
616.144	494.85
616.343	515.19
616.542	491.36
616.742	490.78
616.941	481.48
617.14	413.67
617.34	483.22
617.539	476.44
617.738	454.35
617.938	522.94
618.137	484.97
618.336	434.78
618.535	493.3
618.734	462.3
618.934	459.97
619.133	462.68
619.332	483.03
619.531	440.98
619.73	457.07
619.929	499.88
620.128	495.82
620.328	505.31
620.527	460.75
620.726	468.11
620.925	475.08
621.124	439.63
621.323	489.42
621.522	420.25
621.721	423.35
621.92	404.56
622.119	468.5
622.318	444.67
622.517	423.16
622.715	462.88
622.914	406.69
623.113	431.1
623.312	391.39
623.511	472.37
623.71	429.94
623.909	411.92
624.107	482.25
624.306	392.35
624.505	401.65
624.704	433.43
624.902	428.59
625.101	472.18
625.3	440.98
625.499	406.69
625.697	420.06
625.896	405.14
626.095	456.1
626.293	383.64
626.492	400.49
626.69	448.35
626.889	397.97
627.088	415.22
627.286	403.4
