Data from oakcork_FLMT105791__269__17-34-15-053.txt Node

Date: Mon Mar 20 17:34:15 GMT 2023
User: antho
Spectrometer: FLMT10579
Trigger mode: 0
Integration Time (sec): 1.000000E-1
Scans to average: 10
Electric dark correction enabled: true
Nonlinearity correction enabled: false
Boxcar width: 0
XAxis mode: Wavelengths
Number of Pixels in Spectrum: 3648
>>>>>Begin Spectral Data<<<<<
345.248	-150.95
345.464	-150.95
345.681	-150.95
345.898	-144.75
346.114	-157.15
346.331	-20.55
346.548	15.68
346.764	5.8
346.981	9.48
347.197	-15.71
347.414	25.36
347.631	-12.8
347.847	44.55
348.064	-2.73
348.28	9.28
348.497	-39.35
348.713	-19
348.93	9.48
349.146	6.38
349.363	5.41
349.579	2.7
349.796	18
350.012	7.54
350.229	34.86
350.445	1.73
350.661	2.89
350.878	24.59
351.094	28.08
351.311	22.07
351.527	-4.08
351.743	8.31
351.96	47.26
352.176	55.59
352.392	50.16
352.609	28.85
352.825	-17.26
353.041	15.48
353.257	-6.02
353.474	-4.28
353.69	6.77
353.906	30.6
354.122	-21.72
354.339	64.89
354.555	16.26
354.771	13.35
354.987	33.7
355.203	46.87
355.42	11.61
355.636	-16.87
355.852	-18.23
356.068	28.85
356.284	-23.65
356.5	82.13
356.716	37.96
356.932	-1.57
357.148	29.05
357.364	11.41
357.58	70.12
357.796	73.41
358.012	48.03
358.228	28.85
358.444	-50.97
358.66	63.34
358.876	23.23
359.092	16.65
359.308	7.73
359.524	22.65
359.74	11.03
359.956	3.08
360.172	23.04
360.388	38.54
360.604	20.13
360.819	98.99
361.035	16.84
361.251	11.61
361.467	-20.36
361.683	63.15
361.898	23.23
362.114	42.41
362.33	26.33
362.546	63.73
362.762	28.85
362.977	26.91
363.193	2.31
363.409	45.13
363.624	-36.63
363.84	-8.73
364.056	11.03
364.271	29.24
364.487	19.94
364.703	30.21
364.918	-31.79
365.134	-0.79
365.35	30.98
365.565	98.02
365.781	33.7
365.996	34.86
366.212	71.28
366.427	39.31
366.643	-12.8
366.858	23.62
367.074	-8.54
367.289	76.9
367.505	117.39
367.72	0.57
367.936	4.44
368.151	58.88
368.367	15.1
368.582	40.09
368.798	24.4
369.013	63.92
369.228	3.47
369.444	21.49
369.659	85.04
369.874	48.61
370.09	71.67
370.305	-32.18
370.52	-0.4
370.736	41.83
370.951	37.18
371.166	61.4
371.381	91.43
371.597	54.23
371.812	-15.32
372.027	-4.86
372.242	18.58
372.458	78.84
372.673	3.47
372.888	-4.28
373.103	38.93
373.318	95.31
373.533	32.92
373.749	32.92
373.964	-17.26
374.179	55.2
374.394	-6.02
374.609	67.6
374.824	6.38
375.039	60.63
375.254	-0.6
375.469	80.2
375.684	44.55
375.899	60.24
376.114	27.88
376.329	31.76
376.544	58.5
376.759	61.01
376.974	21.68
377.189	30.21
377.404	7.54
377.619	65.47
377.834	-19.39
378.049	-16.68
378.264	3.08
378.478	28.08
378.693	13.35
378.908	56.36
379.123	14.9
379.338	70.12
379.553	36.02
379.767	29.82
379.982	53.85
380.197	62.95
380.412	29.24
380.626	57.33
380.841	115.84
381.056	49.2
381.271	79.23
381.485	34.66
381.7	0.76
381.915	40.67
382.129	6.57
382.344	25.56
382.559	27.11
382.773	85.81
382.988	0.76
383.202	40.48
383.417	4.83
383.632	108.68
383.846	18.58
384.061	36.21
384.275	18.78
384.49	43.19
384.704	40.67
384.919	48.61
385.133	37.76
385.348	54.23
385.562	4.05
385.777	72.25
385.991	40.86
386.206	18.78
386.42	6.96
386.634	72.25
386.849	49
387.063	24.4
387.277	-6.6
387.492	1.73
387.706	5.41
387.92	12.19
388.135	53.46
388.349	45.13
388.563	58.69
388.778	27.88
388.992	54.62
389.206	44.74
389.42	93.18
389.635	25.56
389.849	72.06
390.063	85.62
390.277	53.46
390.491	88.72
390.706	60.24
390.92	36.41
391.134	49
391.348	48.03
391.562	5.02
391.776	29.82
391.99	-2.53
392.205	34.86
392.419	2.7
392.633	36.99
392.847	72.25
393.061	12.96
393.275	111.58
393.489	39.51
393.703	42.8
393.917	84.07
394.131	37.76
394.345	56.95
394.559	62.56
394.773	12.19
394.986	52.68
395.2	42.22
395.414	82.33
395.628	20.52
395.842	35.83
396.056	21.88
396.27	-19.78
396.484	66.44
396.697	45.13
396.911	65.86
397.125	65.08
397.339	71.67
397.553	63.34
397.766	95.11
397.98	63.73
398.194	88.53
398.408	34.08
398.621	69.35
398.835	54.81
399.049	70.7
399.262	98.99
399.476	60.05
399.69	62.76
399.903	119.14
400.117	59.66
400.331	84.85
400.544	35.44
400.758	150.72
400.971	40.67
401.185	95.31
401.398	32.92
401.612	125.53
401.826	91.24
402.039	90.08
402.253	64.5
402.466	101.31
402.68	74.19
402.893	98.02
403.106	61.79
403.32	69.93
403.533	57.33
403.747	93.18
403.96	88.14
404.174	92.01
404.387	43.58
404.6	74.77
404.814	104.99
405.027	91.43
405.24	61.98
405.454	41.06
405.667	99.96
405.88	33.89
406.094	68.18
406.307	98.79
406.52	106.74
406.733	56.36
406.947	38.54
407.16	106.16
407.373	94.92
407.586	64.11
407.799	58.88
408.012	125.53
408.226	79.03
408.439	123.21
408.652	36.41
408.865	73.41
409.078	79.81
409.291	101.31
409.504	25.75
409.717	85.81
409.93	87.56
410.143	62.37
410.357	39.12
410.57	59.85
410.783	80.2
410.996	87.56
411.209	80.58
411.421	100.15
411.634	87.75
411.847	43.96
412.06	88.14
412.273	88.72
412.486	75.55
412.699	159.63
412.912	71.09
413.125	68.57
413.338	97.24
413.55	142.39
413.763	92.98
413.976	73.41
414.189	46.87
414.402	67.21
414.615	112.16
414.827	47.45
415.04	110.23
415.253	89.3
415.466	123.21
415.678	175.52
415.891	88.91
416.104	81.55
416.316	85.43
416.529	65.66
416.742	100.34
416.954	102.86
417.167	84.26
417.38	78.84
417.592	127.28
417.805	46.48
418.017	37.57
418.23	118.56
418.442	46.48
418.655	90.85
418.868	102.86
419.08	111
419.293	134.06
419.505	112.16
419.718	111.19
419.93	124.37
420.142	86.2
420.355	137.74
420.567	155.76
420.78	144.71
420.992	81.16
421.205	133.28
421.417	60.63
421.629	72.45
421.842	56.56
422.054	35.44
422.266	110.03
422.479	102.09
422.691	70.31
422.903	92.79
423.115	90.66
423.328	91.24
423.54	117.2
423.752	94.73
423.964	70.31
424.177	100.34
424.389	102.09
424.601	194.12
424.813	115.84
425.025	116.04
425.238	136.77
425.45	85.23
425.662	75.93
425.874	339.43
426.086	120.49
426.298	137.35
426.51	108.09
426.722	86.01
426.934	75.55
427.146	111
427.358	50.36
427.57	142
427.782	117.98
427.994	115.07
428.206	89.11
428.418	44.74
428.63	123.59
428.842	128.83
429.054	109.26
429.266	125.73
429.478	89.11
429.69	94.53
429.902	62.37
430.114	117.39
430.325	92.01
430.537	101.89
430.749	92.6
430.961	62.18
431.173	85.23
431.384	110.42
431.596	40.86
431.808	97.05
432.02	107.71
432.231	134.64
432.443	150.72
432.655	99.18
432.867	87.36
433.078	102.67
433.29	170.87
433.502	120.69
433.713	154.4
433.925	118.75
434.136	166.03
434.348	107.71
434.56	52.1
434.771	198.38
434.983	70.31
435.194	94.15
435.406	116.62
435.617	135.61
435.829	187.14
436.04	122.04
436.252	137.16
436.463	164.09
436.675	155.76
436.886	127.47
437.098	129.21
437.309	177.07
437.521	125.92
437.732	140.26
437.943	116.62
438.155	143.36
438.366	92.79
438.578	158.28
438.789	153.82
439	148.98
439.211	124.76
439.423	157.5
439.634	156.34
439.845	152.46
440.057	160.02
440.268	145.88
440.479	106.93
440.69	147.23
440.902	143.36
441.113	121.08
441.324	105.77
441.535	146.84
441.746	181.72
441.957	107.32
442.168	115.07
442.38	142.39
442.591	133.28
442.802	108.09
443.013	126.5
443.224	152.46
443.435	135.61
443.646	111.19
443.857	112.94
444.068	137.74
444.279	130.18
444.49	186.17
444.701	128.83
444.912	228.22
445.123	152.46
445.334	143.74
445.545	172.23
445.756	163.7
445.967	132.89
446.178	159.63
446.388	171.06
446.599	173.19
446.81	168.16
447.021	134.25
447.232	167.77
447.443	198.77
447.653	132.51
447.864	190.82
448.075	145.68
448.286	181.91
448.496	171.64
448.707	169.51
448.918	148.39
449.129	236.36
449.339	130.96
449.55	191.02
449.761	146.46
449.971	190.05
450.182	143.55
450.393	200.71
450.603	137.16
450.814	209.42
451.024	191.41
451.235	188.69
451.446	226.28
451.656	222.41
451.867	145.68
452.077	184.04
452.288	243.52
452.498	213.3
452.709	156.14
452.919	210.59
453.13	130.76
453.34	184.62
453.55	139.68
453.761	216.59
453.971	176.88
454.182	207.68
454.392	192.96
454.602	254.37
454.813	207.49
455.023	214.27
455.233	147.81
455.444	181.72
455.654	113.52
455.864	170.48
456.075	164.86
456.285	132.89
456.495	158.08
456.705	208.84
456.916	221.44
457.126	232.29
457.336	162.73
457.546	126.69
457.756	153.04
457.967	204.39
458.177	171.64
458.387	176.88
458.597	159.63
458.807	169.9
459.017	154.59
459.227	181.33
459.437	191.21
459.647	191.79
459.857	196.44
460.068	152.85
460.278	217.76
460.488	176.88
460.698	259.8
460.908	183.66
461.117	176.29
461.327	188.5
461.537	197.8
461.747	198.19
461.957	197.61
462.167	298.55
462.377	226.86
462.587	190.82
462.797	218.14
463.007	212.91
463.216	206.71
463.426	224.15
463.636	222.99
463.846	142.58
464.056	158.86
464.265	226.28
464.475	179.78
464.685	201.48
464.895	229.77
465.104	202.06
465.314	243.33
465.524	171.64
465.733	182.3
465.943	258.06
466.153	262.12
466.362	241.97
466.572	208.26
466.782	200.71
466.991	197.99
467.201	248.56
467.41	171.45
467.62	238.29
467.829	194.51
468.039	218.34
468.249	224.73
468.458	231.51
468.668	206.32
468.877	217.56
469.086	233.64
469.296	215.82
469.505	205.36
469.715	284.21
469.924	210.78
470.134	261.93
470.343	274.33
470.552	222.02
470.762	206.32
470.971	186.37
471.18	254.37
471.39	214.46
471.599	219.11
471.808	231.71
472.018	228.41
472.227	223.96
472.436	259.02
472.645	242.56
472.855	221.63
473.064	278.79
473.273	265.81
473.482	231.12
473.691	264.06
473.901	265.61
474.11	202.84
474.319	334.59
474.528	239.84
474.737	278.2
474.946	260.57
475.155	287.5
475.364	277.24
475.573	276.27
475.783	278.4
475.992	266.58
476.201	283.82
476.41	229.96
476.619	243.33
476.828	243.52
477.037	244.69
477.245	260.57
477.454	282.47
477.663	258.44
477.872	239.07
478.081	309.01
478.29	234.03
478.499	329.16
478.708	279.37
478.917	360.35
479.125	274.52
479.334	289.25
479.543	264.26
479.752	306.49
479.961	283.44
480.169	292.35
480.378	250.89
480.587	387.67
480.796	322.57
481.004	288.28
481.213	312.69
481.422	304.94
481.63	316.18
481.839	319.86
482.048	341.17
482.256	284.6
482.465	308.62
482.674	328.39
482.882	330.52
483.091	378.76
483.299	316.76
483.508	341.75
483.716	298.74
483.925	336.52
484.134	308.82
484.342	298.94
484.551	349.5
484.759	319.09
484.967	336.52
485.176	366.17
485.384	346.4
485.593	371.4
485.801	336.14
486.01	322.57
486.218	332.84
486.426	275.3
486.635	305.52
486.843	295.84
487.051	318.5
487.26	311.53
487.468	344.27
487.676	348.34
487.885	317.34
488.093	313.47
488.301	339.62
488.509	339.82
488.717	370.43
488.926	343.11
489.134	310.56
489.342	326.06
489.55	313.85
489.758	356.09
489.967	283.82
490.175	426.62
490.383	321.8
490.591	400.85
490.799	330.71
491.007	402.59
491.215	336.33
491.423	354.35
491.631	363.65
491.839	377.21
492.047	376.24
492.255	328.58
492.463	304.17
492.671	342.72
492.879	405.11
493.087	358.42
493.295	407.63
493.503	376.24
493.711	385.73
493.919	418.67
494.127	400.07
494.334	431.85
494.542	359.58
494.75	355.32
494.958	380.7
495.166	409.95
495.374	393.1
495.581	387.28
495.789	398.52
495.997	424.29
496.205	381.86
496.412	381.08
496.62	380.7
496.828	410.92
497.035	383.8
497.243	415.57
497.451	398.91
497.658	414.22
497.866	403.95
498.074	438.82
498.281	396.97
498.489	460.13
498.696	422.16
498.904	389.42
499.112	411.31
499.319	450.45
499.527	393.68
499.734	443.28
499.942	371.4
500.149	393.68
500.357	407.43
500.564	368.3
500.771	438.24
500.979	383.22
501.186	384.57
501.394	421.58
501.601	394.07
501.808	427.39
502.016	410.73
502.223	398.91
502.43	402.59
502.638	401.82
502.845	373.33
503.052	451.8
503.26	409.95
503.467	474.08
503.674	402.98
503.881	423.13
504.089	499.46
504.296	459.36
504.503	392.52
504.71	430.88
504.917	395.03
505.125	450.64
505.332	417.7
505.539	452
505.746	477.38
505.953	454.13
506.16	447.15
506.367	490.75
506.574	475.05
506.781	504.31
506.988	412.28
507.195	460.33
507.402	421.97
507.609	459.55
507.816	451.03
508.023	423.52
508.23	433.98
508.437	402.98
508.644	479.12
508.851	495.78
509.058	470.4
509.265	478.93
509.472	484.35
509.679	535.5
509.885	471.18
510.092	490.55
510.299	470.79
510.506	449.48
510.713	480.67
510.92	489.2
511.126	488.23
511.333	512.06
511.54	503.53
511.746	505.66
511.953	533.37
512.16	524.65
512.367	466.91
512.573	487.45
512.78	487.06
512.987	473.89
513.193	496.17
513.4	428.36
513.606	492.1
513.813	519.03
514.02	498.5
514.226	561.46
514.433	553.33
514.639	457.61
514.846	477.38
515.052	463.43
515.259	467.88
515.465	502.76
515.672	494.43
515.878	553.71
516.085	514.58
516.291	489.39
516.497	471.18
516.704	481.83
516.91	463.81
517.117	448.51
517.323	425.45
517.529	499.46
517.736	485.71
517.942	494.62
518.148	463.81
518.354	506.44
518.561	520
518.767	504.11
518.973	530.27
519.179	508.18
519.386	509.54
519.592	475.05
519.798	491.91
520.004	559.72
520.21	514.19
520.417	532.59
520.623	558.17
520.829	562.24
521.035	544.8
521.241	564.37
521.447	567.66
521.653	626.76
521.859	560.88
522.065	564.95
522.271	620.75
522.477	603.12
522.683	607.58
522.889	577.54
523.095	603.89
523.301	598.28
523.507	541.51
523.713	569.79
523.919	559.91
524.125	608.54
524.331	533.56
524.537	648.07
524.742	609.9
524.948	641.67
525.154	611.45
525.36	709.1
525.566	633.73
525.772	672.29
525.977	592.85
526.183	618.62
526.389	688.56
526.595	606.41
526.8	606.61
527.006	579.68
527.212	566.89
527.417	574.44
527.623	585.88
527.829	626.95
528.034	604.09
528.24	644.39
528.446	598.66
528.651	669.19
528.857	641.48
529.062	655.43
529.268	630.24
529.473	648.65
529.679	641.87
529.884	724.99
530.09	690.69
530.295	691.66
530.501	697.47
530.706	648.65
530.912	641.67
531.117	673.06
531.323	660.27
531.528	688.95
531.733	671.51
531.939	665.31
532.144	704.45
532.35	673.45
532.555	728.28
532.76	724.21
532.966	726.15
533.171	669.19
533.376	682.17
533.581	641.48
533.787	674.42
533.992	696.51
534.197	758.31
534.402	689.14
534.607	702.71
534.813	786.79
535.018	695.92
535.223	709.68
535.428	694.76
535.633	752.11
535.838	749.4
536.043	716.07
536.249	760.25
536.454	706.77
536.659	730.41
536.864	690.5
537.069	728.67
537.274	721.11
537.479	757.92
537.684	767.42
537.889	687.98
538.094	783.69
538.299	728.67
538.504	749.4
538.708	739.52
538.913	762.57
539.118	722.27
539.323	739.52
539.528	727.5
539.733	724.21
539.938	734.09
540.142	771.87
540.347	737.97
540.552	705.22
540.757	784.66
540.962	750.95
541.166	706
541.371	721.5
541.576	733.32
541.781	630.44
541.985	737
542.19	728.47
542.395	755.79
542.599	822.83
542.804	791.64
543.008	829.03
543.213	740.49
543.418	715.88
543.622	779.24
543.827	725.37
544.031	803.07
544.236	807.13
544.44	754.82
544.645	849.95
544.849	725.57
545.054	819.34
545.258	841.23
545.463	789.12
545.667	771.49
545.872	797.83
546.076	778.65
546.281	807.13
546.485	745.14
546.689	801.13
546.894	799.19
547.098	763.15
547.302	758.7
547.507	783.89
547.711	771.29
547.915	827.48
548.119	708.13
548.324	778.07
548.528	818.37
548.732	770.32
548.936	790.09
549.141	823.41
549.345	754.63
549.549	803.07
549.753	764.32
549.957	862.93
550.161	837.17
550.366	794.35
550.57	778.85
550.774	786.6
550.978	786.99
551.182	809.07
551.386	786.79
551.59	776.72
551.794	758.89
551.998	805
552.202	818.37
552.406	737.19
552.61	777.49
552.814	768.58
553.018	848.79
553.222	782.53
553.426	809.46
553.63	890.83
553.833	778.27
554.037	748.82
554.241	829.03
554.445	776.72
554.649	778.46
554.853	759.67
555.056	828.06
555.26	829.03
555.464	818.76
555.668	805.97
555.871	834.84
556.075	823.6
556.279	768.58
556.483	750.56
556.686	808.49
556.89	797.83
557.094	809.46
557.297	757.73
557.501	822.63
557.704	764.51
557.908	820.5
558.112	729.44
558.315	840.46
558.519	782.53
558.722	772.07
558.926	748.62
559.129	755.4
559.333	707.94
559.536	731.38
559.74	723.24
559.943	720.53
560.147	725.37
560.35	740.49
560.553	737.19
560.757	665.51
560.96	813.53
561.164	729.64
561.367	786.79
561.57	764.51
561.774	737.77
561.977	728.09
562.18	737.77
562.384	806.36
562.587	740.29
562.79	719.17
562.993	726.54
563.197	775.36
563.4	783.11
563.603	783.5
563.806	819.34
564.009	742.23
564.212	751.72
564.416	713.94
564.619	740.68
564.822	690.31
565.025	787.76
565.228	722.08
565.431	781.75
565.634	641.87
565.837	690.11
566.04	687.21
566.243	700.96
566.446	652.33
566.649	721.11
566.852	671.9
567.055	682.17
567.258	714.91
567.461	774.2
567.664	743
567.867	650.59
568.07	730.41
568.273	698.44
568.475	718.98
568.678	675.77
568.881	690.5
569.084	671.9
569.287	615.52
569.489	633.34
569.692	709.49
569.895	692.44
570.098	661.24
570.3	624.82
570.503	578.9
570.706	625.98
570.909	614.74
571.111	592.66
571.314	594.79
571.516	589.75
571.719	638.19
571.922	626.56
572.124	623.85
572.327	635.47
572.529	583.94
572.732	596.73
572.935	605.83
573.137	653.69
573.34	584.52
573.542	639.54
573.745	637.99
573.947	635.67
574.15	606.03
574.352	622.88
574.554	661.82
574.757	567.47
574.959	608.74
575.162	571.15
575.364	621.14
575.566	664.73
575.769	584.13
575.971	603.51
576.173	525.23
576.376	580.45
576.578	625.79
576.78	639.35
576.982	537.83
577.185	579.68
577.387	575.61
577.589	551.78
577.791	587.23
577.993	626.56
578.196	588.01
578.398	573.48
578.6	621.72
578.802	534.34
579.004	537.24
579.206	549.64
579.408	598.86
579.61	541.7
579.812	579.09
580.014	543.44
580.216	577.16
580.418	558.56
580.62	565.34
580.822	507.8
581.024	570.96
581.226	581.03
581.428	557.59
581.63	623.85
581.832	519.81
582.034	606.8
582.236	604.67
582.438	580.64
582.64	600.02
582.841	640.71
583.043	653.11
583.245	585.68
583.447	595.76
583.649	574.64
583.85	586.07
584.052	641.87
584.254	559.53
584.456	618.04
584.657	546.54
584.859	566.5
585.061	565.53
585.262	528.14
585.464	513.8
585.666	589.94
585.867	540.34
586.069	601.57
586.27	583.55
586.472	554.88
586.674	543.06
586.875	540.93
587.077	570.57
587.278	564.56
587.48	548.68
587.681	652.14
587.883	571.54
588.084	511.28
588.285	516.9
588.487	527.36
588.688	556.81
588.89	495.78
589.091	495.98
589.292	516.9
589.494	521.75
589.695	498.5
589.896	432.04
590.098	450.25
590.299	461.3
590.5	462.46
590.702	470.6
590.903	498.88
591.104	548.29
591.305	502.95
591.507	551.97
591.708	558.56
591.909	492.88
592.11	555.46
592.311	545.19
592.512	515.93
592.714	484.35
592.915	456.84
593.116	511.28
593.317	515.55
593.518	504.89
593.719	514.58
593.92	542.48
594.121	515.55
594.322	514.96
594.523	508.18
594.724	479.7
594.925	501.21
595.126	517.1
595.327	509.54
595.528	531.82
595.729	517.1
595.929	520.39
596.13	501.21
596.331	525.81
596.532	502.95
596.733	545.38
596.934	531.82
597.135	565.53
597.335	531.63
597.536	518.45
597.737	503.53
597.938	482.8
598.138	505.86
598.339	510.12
598.54	519.42
598.74	476.6
598.941	518.65
599.142	577.54
599.342	501.98
599.543	459.16
599.744	480.86
599.944	484.35
600.145	486.29
600.345	504.11
600.546	556.43
600.746	538.41
600.947	564.56
601.147	536.28
601.348	557.78
601.548	452.77
601.749	499.27
601.949	462.85
602.15	468.85
602.35	490.16
602.551	525.23
602.751	489.78
602.951	482.22
603.152	451.22
603.352	493.65
603.552	502.18
603.753	517.1
603.953	517.48
604.153	481.45
604.354	480.67
604.554	485.13
604.754	496.75
604.954	459.94
605.155	522.52
605.355	486.68
605.555	540.54
605.755	573.09
605.955	509.73
606.155	516.32
606.356	505.66
606.556	515.93
606.756	532.98
606.956	466.53
607.156	531.24
607.356	444.25
607.556	509.54
607.756	474.28
607.956	546.93
608.156	529.69
608.356	462.46
608.556	544.99
608.756	487.45
608.956	461.3
609.156	509.73
609.356	453.55
609.556	498.11
609.755	537.44
609.955	458.78
610.155	524.85
610.355	487.26
610.555	489.2
610.755	484.35
610.954	393.29
611.154	485.13
611.354	533.18
611.554	452.38
611.753	449.48
611.953	461.1
612.153	478.15
612.352	501.01
612.552	437.47
612.752	407.82
612.951	455.68
613.151	476.21
613.351	449.86
613.55	463.43
613.75	472.92
613.949	454.51
614.149	479.12
614.348	455.87
614.548	413.44
614.747	421.77
614.947	438.05
615.146	395.42
615.346	465.95
615.545	419.06
615.745	431.27
615.944	486.48
616.144	456.45
616.343	439.4
616.542	422.93
616.742	466.53
616.941	425.07
617.14	408.6
617.34	458.39
617.539	458
617.738	423.32
617.938	492.1
618.137	452
618.336	421.97
618.535	480.67
618.734	440.18
618.934	460.71
619.133	466.91
619.332	440.18
619.531	426.03
619.73	437.47
619.929	466.14
620.128	443.47
620.328	503.73
620.527	426.03
620.726	420.42
620.925	437.08
621.124	435.14
621.323	439.4
621.522	415.38
621.721	387.87
621.92	431.27
622.119	467.3
622.318	393.29
622.517	424.1
622.715	407.82
622.914	351.64
623.113	415.18
623.312	370.43
623.511	421.77
623.71	398.72
623.909	391.55
624.107	462.26
624.306	352.6
624.505	406.85
624.704	380.89
624.902	415.18
625.101	432.23
625.3	415.77
625.499	416.35
625.697	376.63
625.896	361.52
626.095	388.25
