Data from oakcork_FLMT105791__241__17-33-12-055.txt Node

Date: Mon Mar 20 17:33:12 GMT 2023
User: antho
Spectrometer: FLMT10579
Trigger mode: 0
Integration Time (sec): 1.000000E-1
Scans to average: 10
Electric dark correction enabled: true
Nonlinearity correction enabled: false
Boxcar width: 0
XAxis mode: Wavelengths
Number of Pixels in Spectrum: 3648
>>>>>Begin Spectral Data<<<<<
345.248	-158.15
345.464	-158.15
345.681	-158.15
345.898	-155.63
346.114	-158.15
346.331	-40.93
346.548	37.54
346.764	-2.37
346.981	-17.1
347.197	-5.67
347.414	25.33
347.631	-18.84
347.847	48.19
348.064	0.73
348.28	29.59
348.497	-44.8
348.713	-11.67
348.93	33.86
349.146	3.05
349.363	-19.04
349.579	17.97
349.796	-0.44
350.012	0.53
350.229	3.44
350.445	15.26
350.661	-12.06
350.878	3.83
351.094	16.42
351.311	23.01
351.527	25.14
351.743	-13.03
351.96	41.61
352.176	48.19
352.392	50.13
352.609	26.69
352.825	-42.87
353.041	8.09
353.257	-6.25
353.474	-0.44
353.69	17.39
353.906	-7.6
354.122	-38.02
354.339	45.68
354.555	-5.47
354.771	6.73
354.987	15.65
355.203	77.26
355.42	-13.8
355.636	21.26
355.852	0.34
356.068	3.63
356.284	-8.57
356.5	63.11
356.716	18.94
356.932	3.63
357.148	37.54
357.364	16.03
357.58	47.23
357.796	54.01
358.012	57.69
358.228	21.84
358.444	-58.17
358.66	54.39
358.876	47.61
359.092	-31.05
359.308	18.36
359.524	43.54
359.74	-5.67
359.956	-13.03
360.172	-12.06
360.388	50.91
360.604	-6.83
360.819	87.14
361.035	13.13
361.251	35.6
361.467	5.57
361.683	34.24
361.898	46.06
362.114	47.42
362.33	23.01
362.546	43.54
362.762	32.31
362.977	4.02
363.193	-9.15
363.409	57.88
363.624	-20
363.84	14.68
364.056	3.83
364.271	26.49
364.487	26.88
364.703	5.38
364.918	-19.62
365.134	11.19
365.35	-3.54
365.565	94.11
365.781	11.77
365.996	28.43
366.212	79.97
366.427	38.12
366.643	12.35
366.858	9.25
367.074	-21.75
367.289	83.46
367.505	124.72
367.72	-7.8
367.936	16.61
368.151	35.99
368.367	56.14
368.582	26.49
368.798	10.22
369.013	67.38
369.228	29.98
369.444	41.03
369.659	68.93
369.874	47.42
370.09	81.71
370.305	-18.45
370.52	-3.73
370.736	67.57
370.951	61.37
371.166	75.9
371.381	74.54
371.597	57.88
371.812	-7.99
372.027	11.77
372.242	13.9
372.458	96.05
372.673	23.01
372.888	21.65
373.103	39.48
373.318	97.41
373.533	66.02
373.749	32.89
373.964	-22.91
374.179	67.96
374.394	21.26
374.609	91.79
374.824	-19.81
375.039	64.47
375.254	23.2
375.469	83.84
375.684	34.44
375.899	74.16
376.114	29.4
376.329	55.75
376.544	72.61
376.759	51.88
376.974	13.71
377.189	51.68
377.404	34.44
377.619	45.68
377.834	-41.12
378.049	-5.86
378.264	-2.57
378.478	57.3
378.693	7.51
378.908	57.69
379.123	39.86
379.338	92.95
379.553	52.84
379.767	38.12
379.982	71.64
380.197	58.66
380.412	38.89
380.626	69.12
380.841	125.31
381.056	54.2
381.271	101.09
381.485	17
381.7	33.86
381.915	56.91
382.129	13.13
382.344	50.52
382.559	61.37
382.773	72.03
382.988	-7.99
383.202	72.8
383.417	25.33
383.632	110.97
383.846	50.33
384.061	37.73
384.275	36.96
384.49	53.62
384.704	68.93
384.919	55.75
385.133	62.73
385.348	56.72
385.562	23.59
385.777	77.64
385.991	42.77
386.206	36.57
386.42	6.73
386.634	80.94
386.849	55.75
387.063	63.89
387.277	18.75
387.492	32.89
387.706	13.9
387.92	-11.87
388.135	74.93
388.349	58.08
388.563	59.24
388.778	70.48
388.992	68.15
389.206	65.63
389.42	124.14
389.635	64.08
389.849	86.56
390.063	116.01
390.277	69.31
390.491	95.47
390.706	59.63
390.92	94.69
391.134	54.98
391.348	91.98
391.562	30.76
391.776	71.06
391.99	77.64
392.205	89.85
392.419	36.38
392.633	37.54
392.847	107.87
393.061	29.79
393.275	95.08
393.489	48.97
393.703	43.74
393.917	89.27
394.131	47.81
394.345	69.51
394.559	87.91
394.773	49.94
394.986	103.22
395.2	61.18
395.414	109.03
395.628	53.62
395.842	81.52
396.056	77.64
396.27	47.23
396.484	85.01
396.697	89.85
396.911	119.49
397.125	75.71
397.339	100.12
397.553	83.84
397.766	118.91
397.98	114.46
398.194	126.66
398.408	114.65
398.621	96.05
398.835	136.35
399.049	119.49
399.262	176.46
399.476	143.13
399.69	137.12
399.903	196.8
400.117	128.02
400.331	122.4
400.544	105.93
400.758	225.09
400.971	142.36
401.185	138.67
401.398	83.84
401.612	147.01
401.826	168.12
402.039	146.23
402.253	120.07
402.466	172.58
402.68	142.16
402.893	150.11
403.106	149.14
403.32	122.98
403.533	123.56
403.747	133.44
403.96	141.19
404.174	155.14
404.387	107.87
404.6	145.84
404.814	175.1
405.027	159.21
405.24	130.73
405.454	160.18
405.667	157.47
405.88	90.04
406.094	124.14
406.307	183.62
406.52	166.19
406.733	117.75
406.947	98.57
407.16	161.34
407.373	179.56
407.586	107.48
407.799	106.32
408.012	189.63
408.226	152.82
408.439	189.63
408.652	118.91
408.865	140.03
409.078	194.09
409.291	149.91
409.504	137.32
409.717	170.26
409.93	180.52
410.143	159.79
410.357	123.76
410.57	103.03
410.783	150.69
410.996	176.07
411.209	181.88
411.421	182.66
411.634	157.47
411.847	157.86
412.06	183.43
412.273	161.54
412.486	154.56
412.699	241.36
412.912	163.09
413.125	195.25
413.338	164.06
413.55	187.11
413.763	171.03
413.976	178.97
414.189	155.72
414.402	159.02
414.615	239.42
414.827	165.8
415.04	223.54
415.253	206.1
415.466	213.27
415.678	230.12
415.891	160.57
416.104	172.97
416.316	177.04
416.529	144.1
416.742	213.46
416.954	214.04
417.167	174.52
417.38	186.92
417.592	196.8
417.805	167.35
418.017	126.08
418.23	208.04
418.442	161.34
418.655	185.76
418.868	180.91
419.08	237.1
419.293	215.01
419.505	185.56
419.718	193.12
419.93	224.7
420.142	169.87
420.355	230.51
420.567	257.44
420.78	227.8
420.992	194.09
421.205	256.67
421.417	179.94
421.629	167.93
421.842	175.29
422.054	172.19
422.266	193.51
422.479	250.85
422.691	200.67
422.903	240.2
423.115	179.56
423.328	193.31
423.54	228.57
423.752	222.95
423.964	203.19
424.177	209.97
424.389	211.72
424.601	347.15
424.813	219.08
425.025	236.52
425.238	215.59
425.45	191.96
425.662	184.01
425.874	487.03
426.086	219.47
426.298	250.08
426.51	233.22
426.722	220.05
426.934	230.9
427.146	252.99
427.358	220.63
427.57	261.7
427.782	220.05
427.994	216.56
428.206	220.44
428.418	189.05
428.63	233.03
428.842	237.87
429.054	234.77
429.266	260.54
429.478	194.67
429.69	252.6
429.902	170.64
430.114	229.74
430.325	245.43
430.537	171.03
430.749	203.39
430.961	144.68
431.173	164.25
431.384	205.13
431.596	141.19
431.808	213.85
432.02	240
432.231	272.17
432.443	259.96
432.655	262.09
432.867	244.65
433.078	263.84
433.29	292.7
433.502	295.22
433.713	291.35
433.925	243.69
434.136	295.03
434.348	238.26
434.56	211.52
434.771	349.67
434.983	213.65
435.194	254.15
435.406	260.74
435.617	281.27
435.829	325.64
436.04	307.82
436.252	298.71
436.463	340.56
436.675	323.9
436.886	319.25
437.098	330.48
437.309	342.5
437.521	325.83
437.732	294.83
437.943	314.98
438.155	303.55
438.366	245.62
438.578	341.14
438.789	298.13
439	337.07
439.211	280.89
439.423	310.33
439.634	320.22
439.845	339.78
440.057	320.22
440.268	329.52
440.479	281.85
440.69	307.04
440.902	303.36
441.113	298.52
441.324	318.67
441.535	328.93
441.746	361.87
441.957	311.11
442.168	309.56
442.38	334.36
442.591	378.15
442.802	294.25
443.013	330.87
443.224	358.97
443.435	332.81
443.646	322.35
443.857	345.4
444.068	333.78
444.279	340.75
444.49	378.53
444.701	392.68
444.912	439.37
445.123	388.03
445.334	376.21
445.545	350.83
445.756	339.01
445.967	324.67
446.178	351.8
446.388	400.43
446.599	388.8
446.81	392.48
447.021	332.03
447.232	384.35
447.443	429.49
447.653	358.38
447.864	400.81
448.075	415.54
448.286	373.88
448.496	405.66
448.707	425.23
448.918	355.09
449.129	455.84
449.339	387.06
449.55	398.1
449.761	388.41
449.971	422.9
450.182	399.65
450.393	411.28
450.603	395.58
450.814	425.61
451.024	427.94
451.235	436.85
451.446	433.56
451.656	478.31
451.867	401.2
452.077	429.88
452.288	469.98
452.498	475.99
452.709	420
452.919	432.4
453.13	395.78
453.34	445.96
453.55	369.43
453.761	454.29
453.971	454.29
454.182	444.41
454.392	426.97
454.602	465.14
454.813	468.04
455.023	444.8
455.233	366.72
455.444	443.25
455.654	361.87
455.864	432.59
456.075	405.85
456.285	424.26
456.495	406.82
456.705	424.84
456.916	472.89
457.126	498.66
457.336	444.6
457.546	384.73
457.756	437.43
457.967	468.82
458.177	429.1
458.387	443.63
458.597	415.93
458.807	436.46
459.017	441.11
459.227	413.8
459.437	452.93
459.647	469.21
459.857	504.86
460.068	436.27
460.278	503.31
460.488	476.57
460.698	505.05
460.908	461.84
461.117	431.04
461.327	439.37
461.537	477.54
461.747	495.94
461.957	500.21
462.167	586.81
462.377	500.59
462.587	484.13
462.797	532.95
463.007	476.96
463.216	542.25
463.426	523.46
463.636	522.88
463.846	436.85
464.056	477.15
464.265	546.51
464.475	435.5
464.685	497.49
464.895	521.52
465.104	481.61
465.314	535.28
465.524	481.99
465.733	464.75
465.943	572.47
466.153	591.85
466.362	544.19
466.572	552.52
466.782	507.18
466.991	518.81
467.201	553.87
467.41	476.18
467.62	516.87
467.829	533.53
468.039	544.58
468.249	542.25
468.458	503.69
468.668	562.4
468.877	570.34
469.086	584.49
469.296	587.2
469.505	558.14
469.715	600.57
469.924	563.95
470.134	592.04
470.343	592.62
470.552	533.92
470.762	551.94
470.971	533.14
471.18	549.61
471.39	554.65
471.599	532.18
471.808	587.2
472.018	530.43
472.227	628.86
472.436	623.24
472.645	562.01
472.855	567.82
473.064	637.77
473.273	639.32
473.482	631.37
473.691	652.3
473.901	655.98
474.11	586.04
474.319	696.86
474.528	623.82
474.737	689.5
474.946	692.21
475.155	672.06
475.364	687.95
475.573	651.52
475.783	679.04
475.992	698.22
476.201	698.8
476.41	662.95
476.619	633.7
476.828	686.01
477.037	662.18
477.245	671.67
477.454	692.6
477.663	683.3
477.872	680.97
478.081	758.67
478.29	669.74
478.499	789.28
478.708	735.8
478.917	787.34
479.125	702.09
479.334	747.04
479.543	764.48
479.752	739.87
479.961	746.27
480.169	774.55
480.378	750.92
480.587	862.32
480.796	820.28
481.004	779.78
481.213	787.15
481.422	795.48
481.63	814.85
481.839	841.2
482.048	858.25
482.256	812.72
482.465	816.4
482.674	822.8
482.882	852.44
483.091	887.9
483.299	847.4
483.508	872.4
483.716	845.08
483.925	889.25
484.134	844.69
484.342	835.97
484.551	857.86
484.759	878.01
484.967	894.48
485.176	896.03
485.384	894.29
485.593	927.81
485.801	859.41
486.01	836.55
486.218	856.9
486.426	736.38
486.635	779.98
486.843	767.38
487.051	796.25
487.26	816.98
487.468	837.91
487.676	872.4
487.885	830.16
488.093	903.39
488.301	913.47
488.509	889.64
488.717	925.87
488.926	920.44
489.134	890.03
489.342	936.53
489.55	901.65
489.758	941.76
489.967	945.05
490.175	1013.25
490.383	939.43
490.591	1035.34
490.799	942.34
491.007	1013.06
491.215	990
491.423	976.44
491.631	978.57
491.839	1011.89
492.047	998.52
492.255	942.14
492.463	912.5
492.671	923.74
492.879	1031.07
493.087	991.74
493.295	996.97
493.503	1030.3
493.711	1023.32
493.919	1066.14
494.127	1070.79
494.334	1070.02
494.542	1017.12
494.75	1055.1
494.958	1036.11
495.166	1113.22
495.374	1100.44
495.581	1097.72
495.789	1066.72
495.997	1150.42
496.205	1071.76
496.412	1060.72
496.62	1067.5
496.828	1054.32
497.035	1077.77
497.243	1115.16
497.451	1107.22
497.658	1099.08
497.866	1079.9
498.074	1134.54
498.281	1085.9
498.489	1147.52
498.696	1095.98
498.904	1052.19
499.112	1061.49
499.319	1139.38
499.527	1097.92
499.734	1115.94
499.942	1067.11
500.149	1090.75
500.357	1108.19
500.564	1059.75
500.771	1099.27
500.979	1088.23
501.186	1049.67
501.394	1095.4
501.601	1091.52
501.808	1083.39
502.016	1082.42
502.223	1041.92
502.43	1096.17
502.638	1064.21
502.845	1056.65
503.052	1137.44
503.26	1091.72
503.467	1203.9
503.674	1155.85
503.881	1122.14
504.089	1201.57
504.296	1133.57
504.503	1091.33
504.71	1107.99
504.917	1096.56
505.125	1143.45
505.332	1130.27
505.539	1169.99
505.746	1219.01
505.953	1189.95
506.16	1211.45
506.367	1211.65
506.574	1220.75
506.781	1229.47
506.988	1203.51
507.195	1211.65
507.402	1189.17
507.609	1208.74
507.816	1168.63
508.023	1171.35
508.23	1163.79
508.437	1145.97
508.644	1185.68
508.851	1243.23
509.058	1235.09
509.265	1227.34
509.472	1225.4
509.679	1295.54
509.885	1245.16
510.092	1200.99
510.299	1210.48
510.506	1228.31
510.713	1233.73
510.92	1232.18
511.126	1243.23
511.333	1277.71
511.54	1266.28
511.746	1310.65
511.953	1294.18
512.16	1288.95
512.367	1290.31
512.573	1265.12
512.78	1273.26
512.987	1260.66
513.193	1247.3
513.4	1167.86
513.606	1210.87
513.813	1305.23
514.02	1281.4
514.226	1329.45
514.433	1309.68
514.639	1218.23
514.846	1256.4
515.052	1233.54
515.259	1246.33
515.465	1278.3
515.672	1278.88
515.878	1368
516.085	1310.07
516.291	1305.42
516.497	1256.79
516.704	1269.19
516.91	1177.35
517.117	1157.4
517.323	1144.8
517.529	1160.3
517.736	1168.25
517.942	1182.97
518.148	1175.03
518.354	1219.59
518.561	1222.11
518.767	1221.72
518.973	1291.28
519.179	1277.52
519.386	1252.53
519.592	1266.86
519.798	1281.98
520.004	1355.21
520.21	1302.71
520.417	1343.01
520.623	1398.03
520.829	1402.88
521.035	1370.52
521.241	1375.75
521.447	1365.68
521.653	1500.52
521.859	1403.84
522.065	1427.09
522.271	1490.64
522.477	1455.19
522.683	1492.97
522.889	1446.27
523.095	1445.69
523.301	1436.2
523.507	1399.19
523.713	1448.02
523.919	1386.21
524.125	1474.76
524.331	1444.34
524.537	1555.74
524.742	1514.86
524.948	1546.25
525.154	1513.31
525.36	1593.52
525.566	1516.99
525.772	1607.47
525.977	1487.93
526.183	1529.2
526.389	1584.22
526.595	1471.07
526.8	1466.81
527.006	1416.44
527.212	1399.58
527.417	1413.73
527.623	1388.15
527.829	1474.95
528.034	1499.75
528.24	1490.64
528.446	1502.66
528.651	1562.72
528.857	1595.07
529.062	1630.72
529.268	1607.86
529.473	1628.98
529.679	1593.91
529.884	1652.23
530.09	1654.75
530.295	1649.52
530.501	1652.03
530.706	1623.75
530.912	1589.84
531.117	1636.15
531.323	1656.49
531.528	1687.1
531.733	1695.82
531.939	1639.83
532.144	1702.99
532.35	1660.95
532.555	1694.85
532.76	1650.1
532.966	1688.85
533.171	1666.76
533.376	1616
533.581	1582.29
533.787	1635.76
533.992	1672.57
534.197	1673.54
534.402	1666.76
534.607	1679.55
534.813	1780.68
535.018	1640.02
535.223	1716.55
535.428	1721.98
535.633	1773.13
535.838	1753.17
536.043	1732.44
536.249	1843.26
536.454	1735.15
536.659	1737.86
536.864	1723.91
537.069	1701.44
537.274	1779.52
537.479	1770.41
537.684	1753.17
537.889	1751.43
538.094	1851.79
538.299	1773.13
538.504	1834.35
538.708	1816.72
538.913	1818.85
539.118	1769.64
539.323	1801.61
539.528	1766.54
539.733	1766.73
539.938	1783.39
540.142	1792.69
540.347	1765.57
540.552	1738.64
540.757	1757.63
540.962	1761.31
541.166	1730.89
541.371	1691.75
541.576	1752.98
541.781	1681.87
541.985	1763.44
542.19	1800.06
542.395	1853.14
542.599	1882.79
542.804	1832.22
543.008	1844.04
543.213	1828.73
543.418	1746.78
543.622	1831.25
543.827	1758.4
544.031	1871.16
544.236	1857.79
544.44	1854.5
544.645	1938.78
544.849	1826.6
545.054	1881.82
545.258	1952.34
545.463	1891.31
545.667	1824.28
545.872	1883.95
546.076	1888.41
546.281	1879.88
546.485	1837.84
546.689	1909.72
546.894	1931.22
547.098	1877.75
547.302	1850.63
547.507	1883.37
547.711	1899.64
547.915	1934.52
548.119	1816.91
548.324	1848.88
548.528	1915.72
548.732	1860.51
548.936	1903.71
549.141	1915.53
549.345	1877.56
549.549	1926.38
549.753	1897.51
549.957	1973.07
550.161	1931.81
550.366	1909.72
550.57	1857.02
550.774	1872.91
550.978	1928.9
551.182	1926.57
551.386	1908.17
551.59	1882.01
551.794	1897.71
551.998	1948.47
552.202	1875.62
552.406	1881.04
552.61	1945.75
552.814	1934.71
553.018	1946.14
553.222	1879.49
553.426	1887.24
553.63	1955.44
553.833	1911.85
554.037	1845.39
554.241	1908.94
554.445	1935.68
554.649	1910.69
554.853	1867.87
555.056	1969
555.26	1949.44
555.464	1932.19
555.668	1945.75
555.871	1948.66
556.075	1974.24
556.279	1916.69
556.483	1905.26
556.686	1879.49
556.89	1890.92
557.094	1931.61
557.297	1839.58
557.501	1946.34
557.704	1815.75
557.908	1877.17
558.112	1870.77
558.315	1944.59
558.519	1895.19
558.722	1823.5
558.926	1839.58
559.129	1784.94
559.333	1742.51
559.536	1783.2
559.74	1762.66
559.943	1765.38
560.147	1779.71
560.35	1775.45
560.553	1788.43
560.757	1741.35
560.96	1876.97
561.164	1786.88
561.367	1840.74
561.57	1803.74
561.774	1856.82
561.977	1786.69
562.18	1818.08
562.384	1882.4
562.587	1778.16
562.79	1801.22
562.993	1784.56
563.197	1829.31
563.4	1871.16
563.603	1829.12
563.806	1868.06
564.009	1807.03
564.212	1784.17
564.416	1756.08
564.619	1783.59
564.822	1708.03
565.025	1835.71
565.228	1790.95
565.431	1813.81
565.634	1658.43
565.837	1746.58
566.04	1704.93
566.243	1687.3
566.446	1611.73
566.649	1752.2
566.852	1674.32
567.055	1700.66
567.258	1701.25
567.461	1749.3
567.664	1750.65
567.867	1644.28
568.07	1681.29
568.273	1675.87
568.475	1727.21
568.678	1658.04
568.881	1649.13
569.084	1671.8
569.287	1550.9
569.489	1639.63
569.692	1628.59
569.895	1659.2
570.098	1595.07
570.3	1601.27
570.503	1554.58
570.706	1526.87
570.909	1559.23
571.111	1479.02
571.314	1499.75
571.516	1538.5
571.719	1535.79
571.922	1533.07
572.124	1563.88
572.327	1559.62
572.529	1524.94
572.732	1535.59
572.935	1589.07
573.137	1582.48
573.34	1530.17
573.542	1621.23
573.745	1550.51
573.947	1585
574.15	1531.91
574.352	1508.66
574.554	1574.73
574.757	1513.31
574.959	1463.52
575.162	1486.38
575.364	1479.6
575.566	1560
575.769	1488.71
575.971	1483.09
576.173	1432.71
576.376	1514.28
576.578	1513.31
576.78	1531.14
576.982	1436.01
577.185	1448.02
577.387	1410.43
577.589	1467.2
577.791	1466.23
577.993	1477.08
578.196	1448.21
578.398	1457.12
578.6	1489.29
578.802	1389.89
579.004	1423.02
579.206	1419.34
579.408	1454.8
579.61	1437.56
579.812	1505.76
580.014	1431.36
580.216	1401.52
580.418	1450.73
580.62	1430
580.822	1401.91
581.024	1428.64
581.226	1483.67
581.428	1443.76
581.63	1521.84
581.832	1433.87
582.034	1509.44
582.236	1496.46
582.438	1484.83
582.64	1518.15
582.841	1528.81
583.043	1567.17
583.245	1487.35
583.447	1487.54
583.649	1484.64
583.85	1483.09
584.052	1487.74
584.254	1448.02
584.456	1523.77
584.657	1440.66
584.859	1497.23
585.061	1440.46
585.262	1449.57
585.464	1411.59
585.666	1496.26
585.867	1450.34
586.069	1508.27
586.27	1476.11
586.472	1469.52
586.674	1426.12
586.875	1444.72
587.077	1429.61
587.278	1460.61
587.48	1437.36
587.681	1496.26
587.883	1482.31
588.084	1375.17
588.285	1394.93
588.487	1397.06
588.688	1421.09
588.89	1350.76
589.091	1308.33
589.292	1307.36
589.494	1289.15
589.695	1257.76
589.896	1196.92
590.098	1218.62
590.299	1277.13
590.5	1258.34
590.702	1260.08
590.903	1288.56
591.104	1353.47
591.305	1335.64
591.507	1330.61
591.708	1354.24
591.909	1297.67
592.11	1387.96
592.311	1374.01
592.512	1273.06
592.714	1326.93
592.915	1339.52
593.116	1289.73
593.317	1327.51
593.518	1335.26
593.719	1343.98
593.92	1372.07
594.121	1368.78
594.322	1301.93
594.523	1340.68
594.724	1269.77
594.925	1322.28
595.126	1313.56
595.327	1339.33
595.528	1306.39
595.729	1316.66
595.929	1287.01
596.13	1324.41
596.331	1344.17
596.532	1319.37
596.733	1404.62
596.934	1366.84
597.135	1380.79
597.335	1363.93
597.536	1318.6
597.737	1361.41
597.938	1310.07
598.138	1344.94
598.339	1331.77
598.54	1352.5
598.74	1331.19
598.941	1358.51
599.142	1350.18
599.342	1368.78
599.543	1324.41
599.744	1342.43
599.944	1352.31
600.145	1339.13
600.345	1366.64
600.546	1399
600.746	1404.23
600.947	1413.34
601.147	1368.19
601.348	1385.83
601.548	1301.35
601.749	1345.33
601.949	1275
602.15	1308.91
602.35	1322.08
602.551	1339.91
602.751	1302.51
602.951	1321.89
603.152	1245.55
603.352	1337.97
603.552	1335.26
603.753	1375.17
603.953	1350.76
604.153	1327.9
604.354	1350.18
604.554	1314.33
604.754	1355.99
604.954	1296.31
605.155	1336.81
605.355	1304.06
605.555	1364.13
605.755	1385.44
605.955	1324.8
606.155	1353.08
606.356	1331.38
606.556	1354.05
606.756	1353.08
606.956	1302.9
607.156	1398.23
607.356	1279.65
607.556	1369.55
607.756	1344.36
607.956	1385.44
608.156	1332.35
608.356	1299.61
608.556	1331.38
608.756	1335.84
608.956	1275.58
609.156	1292.83
609.356	1320.53
609.556	1286.05
609.755	1291.86
609.955	1274.42
610.155	1316.85
610.355	1329.25
610.555	1257.56
610.755	1261.05
610.954	1221.92
611.154	1275.2
611.354	1323.05
611.554	1281.78
611.753	1232.38
611.953	1248.85
612.153	1302.32
612.352	1289.15
612.552	1231.41
612.752	1206.8
612.951	1250.98
613.151	1262.41
613.351	1239.16
613.55	1225.4
613.75	1271.51
613.949	1273.26
614.149	1258.34
614.348	1250.4
614.548	1200.99
614.747	1173.87
614.947	1206.42
615.146	1215.52
615.346	1248.85
615.545	1244.78
615.745	1250.4
615.944	1294.38
616.144	1209.52
