Data from oakcork_FLMT105791__159__17-31-32-058.txt Node

Date: Mon Mar 20 17:31:32 GMT 2023
User: antho
Spectrometer: FLMT10579
Trigger mode: 0
Integration Time (sec): 1.000000E-1
Scans to average: 10
Electric dark correction enabled: true
Nonlinearity correction enabled: false
Boxcar width: 0
XAxis mode: Wavelengths
Number of Pixels in Spectrum: 3648
>>>>>Begin Spectral Data<<<<<
345.248	-154.58
345.464	-154.58
345.681	-154.58
345.898	-156.32
346.114	-173.18
346.331	-17.79
346.548	22.12
346.764	5.65
346.981	-14.5
347.197	17.28
347.414	26.58
347.631	-31.16
347.847	49.44
348.064	-11.01
348.28	6.81
348.497	-48.4
348.713	-5.01
348.93	12.04
349.146	12.24
349.363	-27.29
349.579	11.66
349.796	1.78
350.012	-16.05
350.229	36.65
350.445	7.98
350.661	-24.38
350.878	-22.44
351.094	11.46
351.311	5.46
351.527	22.51
351.743	-25.93
351.96	10.49
352.176	43.63
352.392	-3.65
352.609	16.89
352.825	-6.36
353.041	-4.42
353.257	1.58
353.474	-3.84
353.69	8.17
353.906	-13.53
354.122	-26.7
354.339	47.5
354.555	-0.55
354.771	7.59
354.987	56.99
355.203	56.8
355.42	7.78
355.636	-9.66
355.852	-24.57
356.068	16.11
356.284	-20.7
356.5	49.24
356.716	11.85
356.932	1.97
357.148	11.27
357.364	8.56
357.58	21.93
357.796	84.31
358.012	50.41
358.228	15.92
358.444	-53.44
358.66	46.34
358.876	18.83
359.092	-18.95
359.308	24.83
359.524	8.94
359.74	7.01
359.956	4.49
360.172	32.58
360.388	48.66
360.604	-9.85
360.819	72.11
361.035	3.13
361.251	31.81
361.467	-36.2
361.683	39.94
361.898	11.08
362.114	34.91
362.33	-0.74
362.546	52.73
362.762	26.58
362.977	6.62
363.193	-15.47
363.409	40.33
363.624	-19.34
363.84	-23.41
364.056	-25.93
364.271	22.89
364.487	16.89
364.703	-8.88
364.918	-9.85
365.134	-8.11
365.35	7.2
365.565	92.84
365.781	30.26
365.996	11.27
366.212	58.93
366.427	5.26
366.643	-3.84
366.858	1.97
367.074	-31.55
367.289	29.87
367.505	122.48
367.72	-40.07
367.936	16.89
368.151	34.91
368.367	33.16
368.582	5.84
368.798	-8.3
369.013	31.23
369.228	17.28
369.444	-1.71
369.659	73.66
369.874	4.29
370.09	28.32
370.305	-51.31
370.52	-4.42
370.736	65.91
370.951	28.32
371.166	64.36
371.381	81.21
371.597	49.05
371.812	3.71
372.027	1.39
372.242	-7.14
372.458	83.92
372.673	-5.78
372.888	13.79
373.103	11.08
373.318	87.22
373.533	32.97
373.749	35.1
373.964	-35.62
374.179	66.49
374.394	-1.13
374.609	47.69
374.824	0.03
375.039	56.99
375.254	9.72
375.469	34.71
375.684	39.94
375.899	65.13
376.114	-6.17
376.329	19.02
376.544	49.63
376.759	47.11
376.974	-14.5
377.189	3.33
377.404	10.88
377.619	66.1
377.834	-44.72
378.049	-45.89
378.264	-35.23
378.478	-4.42
378.693	-23.8
378.908	22.51
379.123	-3.46
379.338	39.75
379.553	47.31
379.767	20.38
379.982	30.06
380.197	28.32
380.412	19.6
380.626	32
380.841	68.23
381.056	35.49
381.271	71.53
381.485	-0.36
381.7	3.13
381.915	29.48
382.129	5.84
382.344	33.94
382.559	28.13
382.773	38.01
382.988	-22.44
383.202	49.83
383.417	10.3
383.632	110.66
383.846	31.42
384.061	21.15
384.275	16.89
384.49	21.34
384.704	37.04
384.919	6.81
385.133	12.63
385.348	46.34
385.562	-5.2
385.777	59.13
385.991	23.09
386.206	21.93
386.42	1.97
386.634	53.12
386.849	55.64
387.063	63.58
387.277	0.42
387.492	-17.6
387.706	-0.36
387.92	-2.87
388.135	48.08
388.349	68.62
388.563	0.81
388.778	30.45
388.992	45.18
389.206	56.41
389.42	111.44
389.635	27.35
389.849	77.53
390.063	45.56
390.277	43.63
390.491	88.96
390.706	41.69
390.92	51.38
391.134	18.24
391.348	32.97
391.562	-24.96
391.776	20.76
391.99	-11.79
392.205	48.28
392.419	12.24
392.633	11.27
392.847	36.07
393.061	1.39
393.275	63.19
393.489	21.73
393.703	29.87
393.917	66.29
394.131	30.45
394.345	44.79
394.559	49.63
394.773	28.51
394.986	46.73
395.2	31.03
395.414	68.04
395.628	14.95
395.842	29.09
396.056	22.51
396.27	-5.59
396.484	50.02
396.697	30.64
396.911	64.94
397.125	69.98
397.339	43.82
397.553	65.52
397.766	114.15
397.98	41.3
398.194	75.79
398.408	36.46
398.621	65.33
398.835	64.74
399.049	50.02
399.262	78.11
399.476	49.83
399.69	69.2
399.903	100.59
400.117	9.91
400.331	34.33
400.544	13.79
400.758	136.43
400.971	70.75
401.185	64.94
401.398	15.34
401.612	75.01
401.826	25.22
402.039	69.2
402.253	32.58
402.466	61.45
402.68	19.79
402.893	65.52
403.106	64.36
403.32	42.46
403.533	89.93
403.747	42.46
403.96	57.58
404.174	42.66
404.387	6.62
404.6	48.66
404.814	88.96
405.027	43.63
405.24	44.01
405.454	44.59
405.667	76.17
405.88	-11.01
406.094	42.27
406.307	76.95
406.52	64.36
406.733	26.19
406.947	7.39
407.16	95.74
407.373	94.97
407.586	39.75
407.799	31.81
408.012	89.54
408.226	51.38
408.439	96.13
408.652	25.41
408.865	55.25
409.078	74.43
409.291	74.62
409.504	22.89
409.717	55.83
409.93	75.01
410.143	52.73
410.357	10.69
410.57	3.33
410.783	40.14
410.996	62.61
411.209	42.27
411.421	107.76
411.634	41.49
411.847	13.79
412.06	43.82
412.273	53.12
412.486	51.76
412.699	137.01
412.912	56.41
413.125	93.61
413.338	71.33
413.55	71.14
413.763	73.07
413.976	69.59
414.189	28.71
414.402	41.3
414.615	113.37
414.827	17.28
415.04	83.34
415.253	77.72
415.466	76.76
415.678	137.4
415.891	62.81
416.104	39.94
416.316	44.98
416.529	38.01
416.742	84.7
416.954	109.5
417.167	39.75
417.38	60.48
417.592	78.69
417.805	49.05
418.017	16.31
418.23	98.26
418.442	71.91
418.655	29.48
418.868	67.84
419.08	113.37
419.293	83.92
419.505	70.94
419.718	111.24
419.93	118.02
420.142	57.38
420.355	131.78
420.567	124.03
420.78	98.65
420.992	86.44
421.205	120.74
421.417	23.28
421.629	53.89
421.842	38.78
422.054	17.47
422.266	87.61
422.479	106.4
422.691	59.13
422.903	115.89
423.115	54.86
423.328	51.38
423.54	91.48
423.752	95.94
423.964	42.66
424.177	79.27
424.389	68.62
424.601	173.44
424.813	86.25
425.025	124.22
425.238	98.46
425.45	60.87
425.662	67.65
425.874	370.48
426.086	58.16
426.298	113.76
426.51	91.48
426.722	66.88
426.934	71.53
427.146	79.86
427.358	40.33
427.57	130.04
427.782	99.42
427.994	99.42
428.206	46.34
428.418	26.19
428.63	81.41
428.842	101.56
429.054	79.08
429.266	88.38
429.478	62.61
429.69	55.06
429.902	60.48
430.114	128.68
430.325	96.71
430.537	61.06
430.749	71.91
430.961	35.88
431.173	72.3
431.384	117.06
431.596	13.4
431.808	96.71
432.02	82.57
432.231	106.79
432.443	114.73
432.655	105.04
432.867	69.59
433.078	87.41
433.29	143.79
433.502	101.17
433.713	117.83
433.925	94.77
434.136	113.57
434.348	82.76
434.56	38.2
434.771	175.57
434.983	37.62
435.194	62.81
435.406	90.71
435.617	159.49
435.829	169.17
436.04	145.34
436.252	115.31
436.463	141.66
436.675	103.3
436.886	124.22
437.098	105.04
437.309	161.04
437.521	109.5
437.732	112.79
437.943	97.1
438.155	111.24
438.366	85.67
438.578	147.28
438.789	121.51
439	118.99
439.211	80.05
439.423	133.14
439.634	112.79
439.845	107.37
440.057	112.6
440.268	151.93
440.479	78.69
440.69	94.77
440.902	108.34
441.113	121.9
441.324	130.62
441.535	130.04
441.746	181.38
441.957	106.4
442.168	118.02
442.38	118.8
442.591	173.05
442.802	110.08
443.013	106.79
443.224	141.86
443.435	129.07
443.646	128.49
443.857	121.71
444.068	132.75
444.279	112.99
444.49	179.05
444.701	141.27
444.912	188.55
445.123	160.65
445.334	159.87
445.545	136.43
445.756	149.61
445.967	104.66
446.178	154.45
446.388	188.74
446.599	170.53
446.81	150.19
447.021	149.99
447.232	176.92
447.443	163.17
447.653	83.54
447.864	184.48
448.075	138.95
448.286	187.39
448.496	151.35
448.707	191.45
448.918	153.67
449.129	241.25
449.339	142.44
449.55	157.16
449.761	151.16
449.971	205.6
450.182	141.47
450.393	160.84
450.603	142.24
450.814	188.35
451.024	162.2
451.235	188.94
451.446	220.71
451.656	226.52
451.867	145.73
452.077	190.68
452.288	201.14
452.498	196.49
452.709	196.49
452.919	177.7
453.13	153.09
453.34	206.95
453.55	141.66
453.761	220.71
453.971	184.87
454.182	212.96
454.392	180.6
454.602	246.67
454.813	195.72
455.023	224.97
455.233	141.86
455.444	181.19
455.654	125.19
455.864	163.55
456.075	154.26
456.285	183.9
456.495	165.1
456.705	186.8
456.916	212.77
457.126	217.22
457.336	172.27
457.546	113.57
457.756	173.82
457.967	220.32
458.177	166.07
458.387	194.55
458.597	137.4
458.807	181.57
459.017	174.79
459.227	191.45
459.437	176.73
459.647	219.35
459.857	218.19
460.068	174.02
460.278	219.35
460.488	200.95
460.698	232.14
460.908	205.4
461.117	167.62
461.327	193.97
461.537	187.58
461.747	183.32
461.957	186.03
462.167	287.36
462.377	261.78
462.587	179.64
462.797	225.17
463.007	203.08
463.216	199.79
463.426	210.64
463.636	224.97
463.846	168.2
464.056	192.23
464.265	245.51
464.475	162.97
464.685	218.77
464.895	224.2
465.104	195.72
465.314	220.71
465.524	189.32
465.733	186.22
465.943	264.69
466.153	250.55
466.362	246.09
466.572	210.83
466.782	198.43
466.991	202.3
467.201	268.18
467.41	179.44
467.62	225.94
467.829	216.06
468.039	239.89
468.249	218.58
468.458	218.58
468.668	259.65
468.877	230.4
469.086	259.65
469.296	261.59
469.505	214.51
469.715	278.25
469.924	231.56
470.134	259.46
470.343	280.19
470.552	246.09
470.762	228.46
470.971	181.38
471.18	245.9
471.39	222.45
471.599	178.86
471.808	246.67
472.018	197.46
472.227	269.15
472.436	283.29
472.645	228.46
472.855	206.37
473.064	296.47
473.273	262.95
473.482	268.57
473.691	249
473.901	301.31
474.11	259.46
474.319	359.43
474.528	278.25
474.737	294.72
474.946	283.48
475.155	265.47
475.364	288.13
475.573	285.03
475.783	293.75
475.992	282.9
476.201	321.27
476.41	274.57
476.619	246.48
476.828	273.8
477.037	266.24
477.245	286.58
477.454	303.63
477.663	281.16
477.872	271.86
478.081	333.28
478.29	267.02
478.499	357.5
478.708	290.27
478.917	351.3
479.125	331.34
479.334	320.3
479.543	267.6
479.752	311
479.961	305.18
480.169	347.81
480.378	293.95
480.587	406.51
480.796	321.65
481.004	334.05
481.213	375.32
481.422	310.42
481.63	316.62
481.839	368.54
482.048	400.9
482.256	324.75
482.465	345.87
482.674	356.53
482.882	363.5
483.091	434.22
483.299	357.11
483.508	358.85
483.716	342.96
483.925	381.71
484.134	347.03
484.342	372.41
484.551	382.68
484.759	394.7
484.967	381.52
485.176	370.48
485.384	374.35
485.593	401.86
485.801	398.38
486.01	371.45
486.218	369.9
486.426	302.67
486.635	348
486.843	356.33
487.051	358.46
487.26	339.86
487.468	366.8
487.676	396.63
487.885	344.51
488.093	362.15
488.301	394.89
488.509	382.1
488.717	408.45
488.926	404.38
489.134	346.84
489.342	384.23
489.55	384.81
489.758	391.01
489.967	375.9
490.175	473.16
490.383	390.05
490.591	453.79
490.799	382.1
491.007	427.24
491.215	405.35
491.423	420.27
491.631	399.35
491.839	405.55
492.047	453.98
492.255	398.76
492.463	371.06
492.671	409.81
492.879	459.21
493.087	395.08
493.295	463.09
493.503	473.16
493.711	458.24
493.919	474.71
494.127	482.46
494.334	485.37
494.542	418.14
494.75	454.37
494.958	444.88
495.166	478.39
495.374	462.51
495.581	451.27
495.789	480.33
495.997	472.78
496.205	447.78
496.412	459.6
496.62	440.81
496.828	487.11
497.035	439.64
497.243	495.44
497.451	465.22
497.658	497.77
497.866	494.09
498.074	528.77
498.281	443.13
498.489	536.91
498.696	488.47
498.904	459.79
499.112	476.07
499.319	560.74
499.527	461.54
499.734	521.21
499.942	457.86
500.149	458.05
500.357	505.13
500.564	484.79
500.771	532.26
500.979	454.95
501.186	472
501.394	515.4
501.601	473.55
501.808	524.12
502.016	479.75
502.223	503.58
502.43	482.85
502.638	489.24
502.845	468.71
503.052	564.61
503.26	497.38
503.467	531.48
503.674	519.86
503.881	508.04
504.089	560.35
504.296	535.16
504.503	480.53
504.71	514.04
504.917	473.16
505.125	524.7
505.332	503
505.539	530.9
505.746	591.54
505.953	567.71
506.16	546.21
506.367	573.14
506.574	601.23
506.781	590.96
506.988	521.21
507.195	550.27
507.402	533.03
507.609	574.11
507.816	549.69
508.023	531.09
508.23	548.72
508.437	517.34
508.644	577.01
508.851	596.77
509.058	599.68
509.265	561.12
509.472	586.51
509.679	671.75
509.885	596.77
510.092	587.28
510.299	587.47
510.506	606.65
510.713	601.42
510.92	619.25
511.126	631.65
511.333	654.51
511.54	632.23
511.746	678.92
511.953	634.36
512.16	685.9
512.367	629.32
512.573	614.79
512.78	625.06
512.987	639.4
513.193	661.87
513.4	583.02
513.606	600.65
513.813	660.52
514.02	616.15
514.226	700.04
514.433	692.68
514.639	593.09
514.846	630.1
515.052	619.25
515.259	650.25
515.465	641.53
515.672	637.85
515.878	732.98
516.085	654.12
516.291	701.2
516.497	660.52
516.704	647.92
516.91	602
517.117	586.7
517.323	583.79
517.529	614.4
517.736	639.4
517.942	626.61
518.148	637.27
518.354	655.29
518.561	638.62
518.767	681.25
518.973	700.43
519.179	716.51
519.386	660.32
519.592	613.05
519.798	660.32
520.004	739.37
520.21	703.53
520.417	723.48
520.623	766.5
520.829	773.08
521.035	756.62
521.241	767.85
521.447	787.61
521.653	864.53
521.859	746.73
522.065	794.98
522.271	832.95
522.477	818.81
522.683	860.85
522.889	797.69
523.095	815.51
523.301	811.45
523.507	783.55
523.713	817.45
523.919	775.21
524.125	863.37
524.331	817.45
524.537	889.91
524.742	880.03
524.948	903.86
525.154	875.58
525.36	976.13
525.566	881.97
525.772	918.39
525.977	858.33
526.183	890.49
526.389	921.11
526.595	865.11
526.8	871.51
527.006	850
527.212	829.46
527.417	805.83
527.623	811.45
527.829	871.51
528.034	909.48
528.24	892.24
528.446	860.66
528.651	958.5
528.857	931.38
529.062	986.79
529.268	964.31
529.473	956.56
529.679	946.1
529.884	989.11
530.09	981.94
530.295	977.68
530.501	990.27
530.706	969.35
530.912	936.41
531.117	1005.58
531.323	986.79
531.528	1014.88
531.733	1009.65
531.939	983.11
532.144	1034.64
532.35	1007.13
532.555	1047.82
532.76	1013.72
532.966	1033.67
533.171	1023.02
533.376	990.66
533.581	957.53
533.787	991.82
533.992	1041.81
534.197	1066.61
534.402	1037.16
534.607	1035.03
534.813	1104.39
535.018	1028.25
535.223	1005.19
535.428	1058.28
535.633	1075.72
535.838	1061.57
536.043	1077.27
536.249	1143.14
536.454	1078.43
536.659	1080.56
536.864	1067.97
537.069	1065.84
537.274	1092.96
537.479	1084.63
537.684	1101.87
537.889	1055.95
538.094	1149.34
538.299	1061.38
538.504	1131.32
538.708	1083.08
538.913	1129
539.118	1118.73
539.323	1104.39
539.528	1061.57
539.733	1082.11
539.938	1082.89
540.142	1090.44
540.347	1090.83
540.552	1050.72
540.757	1068.16
540.962	1068.74
541.166	1049.75
541.371	1045.69
541.576	1083.08
541.781	1026.31
541.985	1099.16
542.19	1078.62
542.395	1164.84
542.599	1175.88
542.804	1121.05
543.008	1169.88
543.213	1083.27
543.418	1035.42
543.622	1146.63
543.827	1101.87
544.031	1181.31
544.236	1147.79
544.44	1145.47
544.645	1219.09
544.849	1121.44
545.054	1205.33
545.258	1249.31
545.463	1225.87
545.667	1109.43
545.872	1184.8
546.076	1197.58
546.281	1148.57
546.485	1142.95
546.689	1197.78
546.894	1191.58
547.098	1180.15
547.302	1128.03
547.507	1156.12
547.711	1149.15
547.915	1192.55
548.119	1120.09
548.324	1160.38
548.528	1196.23
548.732	1197.58
548.936	1214.44
549.141	1207.47
549.345	1166.2
549.549	1179.18
549.753	1177.43
549.957	1266.36
550.161	1205.14
550.366	1157.09
550.57	1175.5
550.774	1182.86
550.978	1180.15
551.182	1224.9
551.386	1174.33
551.59	1176.66
551.794	1187.9
551.998	1202.43
552.202	1163.48
552.406	1138.1
552.61	1216.57
552.814	1161.16
553.018	1236.53
553.222	1185.57
553.426	1165.23
553.63	1267.72
553.833	1195.26
554.037	1124.35
554.241	1205.92
554.445	1195.84
554.649	1194.87
554.853	1195.45
555.056	1197
555.26	1232.65
555.464	1198.94
555.668	1227.23
555.871	1245.25
556.075	1259.58
556.279	1173.37
556.483	1152.05
556.686	1178.6
556.89	1193.52
557.094	1167.94
557.297	1139.46
557.501	1225.48
557.704	1135.97
557.908	1218.7
558.112	1144.69
558.315	1202.23
558.519	1143.92
558.722	1184.99
558.926	1138.88
559.129	1086.37
559.333	1091.8
559.536	1116.99
559.74	1104.39
559.943	1092.96
560.147	1097.22
560.35	1137.72
560.553	1131.52
560.757	1067.39
560.96	1180.34
561.164	1108.46
561.367	1146.82
561.57	1115.82
561.774	1110.4
561.977	1153.6
562.18	1101.29
562.384	1191.58
562.587	1117.95
562.79	1073.2
562.993	1098.39
563.197	1133.65
563.4	1193.13
563.603	1181.89
563.806	1206.3
564.009	1099.74
564.212	1109.43
564.416	1066.22
564.619	1142.17
564.822	1091.02
565.025	1137.33
565.228	1103.04
565.431	1079.79
565.634	1019.92
565.837	1068.16
566.04	1041.62
566.243	1063.51
566.446	1011.39
566.649	1046.65
566.852	1030.77
567.055	1054.6
567.258	1051.3
567.461	1112.92
567.664	1134.23
567.867	975.36
568.07	1075.33
568.273	1054.4
568.475	1109.62
568.678	1052.27
568.881	1050.92
569.084	1049.37
569.287	977.68
569.489	963.34
569.692	1034.45
569.895	1018.56
570.098	941.84
570.3	969.35
570.503	888.56
570.706	939.71
570.909	928.47
571.111	886.81
571.314	883.13
571.516	917.23
571.719	956.17
571.922	896.89
572.124	912.19
572.327	934.09
572.529	892.63
572.732	903.09
572.935	947.84
573.137	955.98
573.34	920.91
573.542	943.19
573.745	956.76
573.947	935.64
574.15	940.48
574.352	858.72
574.554	955.21
574.757	864.73
574.959	874.99
575.162	872.28
575.364	853.68
575.566	949.78
575.769	846.9
575.971	897.66
576.173	799.63
576.376	866.86
576.578	917.43
576.78	936.41
576.982	788.39
577.185	826.17
577.387	833.15
577.589	819.58
577.791	877.9
577.993	887.98
578.196	833.34
578.398	881.39
578.6	937.96
578.802	788.39
579.004	823.85
579.206	791.3
579.408	868.99
579.61	812.8
579.812	881.97
580.014	819
580.216	827.72
580.418	817.65
580.62	815.71
580.822	786.26
581.024	851.94
581.226	856.59
581.428	820.75
581.63	905.61
581.832	825.78
582.034	875.77
582.236	866.47
582.438	894.37
582.64	882.74
582.841	910.84
583.043	931.76
583.245	875.58
583.447	867.24
583.649	850.97
583.85	853.49
584.052	910.64
584.254	805.05
584.456	889.14
584.657	796.72
584.859	831.4
585.061	816.87
585.262	796.91
585.464	787.03
585.666	862.98
585.867	825.2
586.069	884.68
586.27	802.15
586.472	832.95
586.674	778.31
586.875	824.04
587.077	800.4
587.278	814.93
587.48	830.43
587.681	904.44
587.883	814.16
588.084	769.21
588.285	798.46
588.487	770.95
588.688	774.25
588.89	736.08
589.091	748.87
589.292	728.72
589.494	700.62
589.695	712.25
589.896	648.7
590.098	647.73
590.299	724.45
590.5	685.7
590.702	689.19
590.903	698.88
591.104	797.11
591.305	738.6
591.507	796.14
591.708	750.61
591.909	724.65
592.11	783.55
592.311	773.66
592.512	758.17
592.714	690.55
592.915	704.11
593.116	748.87
593.317	741.5
593.518	733.75
593.719	725.42
593.92	779.67
594.121	794.78
594.322	767.27
594.523	745.18
594.724	690.93
594.925	722.71
595.126	747.7
595.327	757.78
595.528	759.52
595.729	749.06
595.929	751.19
596.13	745.77
596.331	751.19
596.532	722.32
596.733	807.57
596.934	777.35
597.135	763.59
597.335	735.88
597.536	719.8
597.737	760.68
597.938	737.43
598.138	758.75
598.339	755.65
598.54	763.78
598.74	738.4
598.941	752.35
599.142	793.43
599.342	770.18
599.543	721.16
599.744	709.15
599.944	746.93
600.145	722.32
600.345	735.3
600.546	794.01
600.746	797.5
600.947	794.01
601.147	747.51
601.348	783.55
601.548	725.81
601.749	737.24
601.949	721.93
602.15	707.21
602.35	740.34
602.551	760.68
602.751	693.84
602.951	744.99
603.152	663.81
603.352	712.63
603.552	724.26
603.753	772.11
603.953	752.93
604.153	745.57
604.354	734.14
604.554	724.07
604.754	720.77
604.954	697.52
605.155	769.79
605.355	740.53
605.555	770.95
605.755	789.55
605.955	745.38
606.155	760.68
606.356	707.4
606.556	768.24
606.756	750.42
606.956	678.73
607.156	768.05
607.356	714.77
607.556	709.73
607.756	714.57
607.956	768.82
608.156	741.31
608.356	707.02
608.556	754.68
608.756	704.69
608.956	692.48
609.156	731.43
609.356	651.02
609.556	674.85
609.755	711.28
609.955	678.92
610.155	714.77
610.355	702.95
610.555	683.57
610.755	722.52
610.954	659.74
611.154	704.88
611.354	746.93
611.554	665.75
611.753	692.29
611.953	662.84
612.153	715.93
612.352	704.11
612.552	625.45
612.752	633.2
612.951	688.22
613.151	681.64
613.351	631.65
613.55	700.04
613.75	713.8
613.949	628.55
614.149	667.49
614.348	655.87
614.548	628.74
614.747	614.6
614.947	639.98
615.146	598.52
615.346	692.1
615.545	657.42
615.745	671.37
615.944	693.26
616.144	640.17
616.343	676.79
616.542	631.26
616.742	649.09
616.941	618.47
617.14	607.24
617.34	640.75
617.539	630.29
617.738	619.44
617.938	685.51
618.137	637.27
618.336	622.54
618.535	664.78
618.734	645.99
618.934	662.65
619.133	639.01
619.332	622.54
619.531	617.12
619.73	643.08
619.929	666.33
620.128	635.72
620.328	690.35
620.527	595.22
620.726	612.47
620.925	632.62
621.124	627.58
621.323	651.8
621.522	587.28
621.721	592.9
621.92	578.17
622.119	621.96
622.318	571.97
622.517	597.35
622.715	598.13
622.914	551.44
623.113	609.17
623.312	553.76
623.511	618.86
623.71	585.54
623.909	584.37
624.107	630.49
