Data from oakcork_FLMT105791__196__17-32-09-057.txt Node

Date: Mon Mar 20 17:32:09 GMT 2023
User: antho
Spectrometer: FLMT10579
Trigger mode: 0
Integration Time (sec): 1.000000E-1
Scans to average: 10
Electric dark correction enabled: true
Nonlinearity correction enabled: false
Boxcar width: 0
XAxis mode: Wavelengths
Number of Pixels in Spectrum: 3648
>>>>>Begin Spectral Data<<<<<
345.248	-167.77
345.464	-167.77
345.681	-167.77
345.898	-131.34
346.114	-125.14
346.331	-20.71
346.548	23.85
346.764	-20.13
346.981	-9.28
347.197	-5.22
347.414	20.75
347.631	-4.05
347.847	44.19
348.064	18.62
348.28	-3.08
348.497	-43.19
348.713	-1.73
348.93	15.52
349.146	18.81
349.363	-13.16
349.579	20.94
349.796	16.1
350.012	-2.5
350.229	9.32
350.445	4.28
350.661	-5.02
350.878	-14.51
351.094	18.03
351.311	33.92
351.527	24.43
351.743	-28.46
351.96	22.88
352.176	34.7
352.392	52.52
352.609	47.48
352.825	18.03
353.041	22.3
353.257	19.2
353.474	-1.73
353.69	12.42
353.906	4.67
354.122	-15.29
354.339	62.02
354.555	19.78
354.771	-8.7
354.987	41.09
355.203	62.21
355.42	-30.4
355.636	-4.44
355.852	-21.1
356.068	11.06
356.284	-34.28
356.5	43.03
356.716	26.17
356.932	-2.89
357.148	18.23
357.364	-4.44
357.58	57.75
357.796	61.63
358.012	68.6
358.228	24.04
358.444	-35.44
358.66	61.82
358.876	19
359.092	-10.45
359.308	32.57
359.524	29.08
359.74	-5.02
359.956	-7.54
360.172	33.34
360.388	46.32
360.604	-1.15
360.819	90.3
361.035	21.72
361.251	19.97
361.467	-19.75
361.683	50.78
361.898	13.58
362.114	44.19
362.33	20.75
362.546	41.09
362.762	12.22
362.977	27.92
363.193	-35.83
363.409	32.37
363.624	-20.91
363.84	11.83
364.056	-11.41
364.271	30.24
364.487	19.78
364.703	14.55
364.918	-27.88
365.134	33.92
365.35	27.33
365.565	79.84
365.781	14.93
365.996	50.2
366.212	89.14
366.427	2.73
366.643	28.88
366.858	1.18
367.074	-1.34
367.289	24.43
367.505	102.9
367.72	-14.13
367.936	5.63
368.151	69.38
368.367	36.83
368.582	30.63
368.798	-14.71
369.013	58.92
369.228	25.78
369.444	12.42
369.659	67.05
369.874	36.63
370.09	72.87
370.305	-13.16
370.52	13.19
370.736	84.88
370.951	11.64
371.166	62.6
371.381	94.56
371.597	64.73
371.812	-15.68
372.027	7.96
372.242	20.36
372.458	79.45
372.673	7.57
372.888	1.76
373.103	37.41
373.318	113.75
373.533	48.07
373.749	21.33
373.964	-19.94
374.179	69.38
374.394	-13.93
374.609	76.35
374.824	-2.31
375.039	43.8
375.254	20.75
375.469	74.42
375.684	40.7
375.899	69.57
376.114	10.09
376.329	39.54
376.544	41.09
376.759	51.75
376.974	-18.39
377.189	32.76
377.404	26.75
377.619	60.85
377.834	-24.98
378.049	-3.47
378.264	-20.71
378.478	32.37
378.693	18.23
378.908	39.54
379.123	5.44
379.338	67.25
379.553	41.09
379.767	39.15
379.982	51.36
380.197	46.9
380.412	30.24
380.626	29.47
380.841	105.41
381.056	53.88
381.271	85.85
381.485	13
381.7	4.47
381.915	-2.89
382.129	28.88
382.344	54.85
382.559	22.1
382.773	48.84
382.988	-5.6
383.202	30.63
383.417	-7.35
383.632	112.58
383.846	32.76
384.061	34.7
384.275	31.79
384.49	31.02
384.704	40.32
384.919	43.42
385.133	29.08
385.348	54.07
385.562	-7.73
385.777	70.93
385.991	29.66
386.206	37.8
386.42	22.3
386.634	66.28
386.849	53.88
387.063	45.35
387.277	-0.95
387.492	16.48
387.706	15.13
387.92	24.82
388.135	56.2
388.349	56.2
388.563	33.15
388.778	76.55
388.992	19.97
389.206	69.96
389.42	107.16
389.635	13.58
389.849	67.44
390.063	83.52
390.277	57.37
390.491	74.03
390.706	55.82
390.92	54.46
391.134	31.6
391.348	47.87
391.562	-8.31
391.776	31.98
391.99	6.41
392.205	83.52
392.419	3.5
392.633	28.88
392.847	91.27
393.061	37.22
393.275	106
393.489	34.7
393.703	56.4
393.917	71.7
394.131	13.19
394.345	59.5
394.559	52.91
394.773	32.57
394.986	43.03
395.2	34.12
395.414	45.93
395.628	19.58
395.842	39.35
396.056	37.41
396.27	-19.36
396.484	65.89
396.697	59.69
396.911	93.4
397.125	48.65
397.339	91.08
397.553	53.88
397.766	86.04
397.98	65.89
398.194	90.3
398.408	26.56
398.621	55.62
398.835	87.01
399.049	53.49
399.262	109.87
399.476	62.02
399.69	72.67
399.903	127.7
400.117	59.88
400.331	79.65
400.544	26.56
400.758	172.06
400.971	66.86
401.185	92.43
401.398	29.27
401.612	114.33
401.826	101.73
402.039	99.6
402.253	25.59
402.466	100.96
402.68	72.48
402.893	87.98
403.106	69.57
403.32	77.71
403.533	76.93
403.747	53.68
403.96	72.87
404.174	59.11
404.387	31.6
404.6	55.04
404.814	115.3
405.027	72.87
405.24	73.64
405.454	69.96
405.667	88.36
405.88	19.39
406.094	39.35
406.307	104.45
406.52	78.68
406.733	47.87
406.947	28.69
407.16	132.93
407.373	109.29
407.586	39.93
407.799	7.38
408.012	106
408.226	102.9
408.439	92.63
408.652	12.61
408.865	62.79
409.078	136.8
409.291	66.28
409.504	31.79
409.717	88.95
409.93	98.83
410.143	75.58
410.357	4.67
410.57	24.04
410.783	56.59
410.996	67.25
411.209	68.99
411.421	116.26
411.634	80.81
411.847	42.64
412.06	95.53
412.273	70.93
412.486	60.47
412.699	166.45
412.912	57.95
413.125	94.95
413.338	111.61
413.55	100.96
413.763	86.43
413.976	99.8
414.189	58.14
414.402	54.07
414.615	125.95
414.827	51.94
415.04	104.45
415.253	96.5
415.466	128.66
415.678	149.78
415.891	86.43
416.104	112
416.316	95.34
416.529	55.82
416.742	99.8
416.954	112.97
417.167	65.89
417.38	71.7
417.592	128.47
417.805	68.6
418.017	45.93
418.23	85.26
418.442	77.52
418.655	71.9
418.868	61.82
419.08	101.73
419.293	116.46
419.505	96.5
419.718	91.85
419.93	139.51
420.142	75.19
420.355	125.18
420.567	151.53
420.78	113.16
420.992	99.02
421.205	135.64
421.417	76.16
421.629	67.63
421.842	75.97
422.054	45.93
422.266	100.76
422.479	118.98
422.691	78.87
422.903	131.57
423.115	73.64
423.328	93.01
423.54	92.43
423.752	105.22
423.964	89.91
424.177	93.98
424.389	79.26
424.601	196.67
424.813	106.19
425.025	124.01
425.238	101.54
425.45	74.03
425.662	83.13
425.874	363.49
426.086	81.97
426.298	120.14
426.51	95.34
426.722	115.88
426.934	74.61
427.146	131.76
427.358	53.88
427.57	142.42
427.782	93.79
427.994	102.51
428.206	77.13
428.418	41.28
428.63	136.41
428.842	101.93
429.054	85.26
429.266	109.48
429.478	62.98
429.69	119.17
429.902	51.75
430.114	87.59
430.325	128.47
430.537	43.03
430.749	97.86
430.961	58.72
431.173	92.63
431.384	114.91
431.596	47.1
431.808	60.47
432.02	98.44
432.231	113.94
432.443	146.49
432.655	107.93
432.867	80.81
433.078	139.71
433.29	160.25
433.502	125.56
433.713	108.71
433.925	120.33
434.136	145.52
434.348	71.12
434.56	55.04
434.771	187.76
434.983	82.94
435.194	106.38
435.406	98.63
435.617	148.43
435.829	170.9
436.04	153.46
436.252	154.63
436.463	170.9
436.675	157.15
436.886	105.22
437.098	124.01
437.309	190.47
437.521	129.25
437.732	118.4
437.943	132.54
438.155	131.57
438.366	70.15
438.578	167.8
438.789	150.17
439	148.04
439.211	113.75
439.423	115.49
439.634	153.27
439.845	147.07
440.057	139.51
440.268	158.11
440.479	104.06
440.69	130.8
440.902	123.24
441.113	154.63
441.324	122.27
441.535	152.11
441.746	168.58
441.957	99.6
442.168	132.15
442.38	153.66
442.591	175.36
442.802	107.74
443.013	102.51
443.224	142.23
443.435	114.33
443.646	141.06
443.857	118.01
444.068	126.53
444.279	119.17
444.49	184.46
444.701	163.15
444.912	240.07
445.123	165.48
445.334	172.64
445.545	148.43
445.756	124.21
445.967	137.58
446.178	160.63
446.388	179.04
446.599	161.8
446.81	158.7
447.021	147.07
447.232	172.64
447.443	202.68
447.653	141.45
447.864	202.87
448.075	158.89
448.286	183.11
448.496	170.32
448.707	196.67
448.918	167.61
449.129	229.99
449.339	142.42
449.55	172.84
449.761	147.65
449.971	195.12
450.182	149.78
450.393	205.97
450.603	135.06
450.814	186.21
451.024	184.66
451.235	179.62
451.446	225.15
451.656	221.86
451.867	125.56
452.077	188.14
452.288	202.48
452.498	238.33
452.709	148.04
452.919	192.02
453.13	155.01
453.34	198.99
453.55	141.06
453.761	198.8
453.971	206.94
454.182	214.49
454.392	178.46
454.602	242.59
454.813	175.36
455.023	207.13
455.233	142.23
455.444	172.45
455.654	133.31
455.864	203.45
456.075	160.63
456.285	154.63
456.495	137.77
456.705	185.43
456.916	206.16
457.126	235.61
457.336	181.56
457.546	134.86
457.756	148.04
457.967	246.27
458.177	163.73
458.387	180.59
458.597	174.19
458.807	166.06
459.017	155.98
459.227	159.66
459.437	160.83
459.647	228.64
459.857	214.69
460.068	152.88
460.278	223.41
460.488	165.48
460.698	254.41
460.908	208.49
461.117	155.21
461.327	147.65
461.537	180.98
461.747	178.46
461.957	177.1
462.167	280.17
462.377	224.38
462.587	189.11
462.797	216.82
463.007	206.55
463.216	207.33
463.426	219.73
463.636	200.16
463.846	169.54
464.056	203.26
464.265	229.22
464.475	175.55
464.685	193.96
464.895	216.04
465.104	185.24
465.314	215.46
465.524	195.51
465.733	171.87
465.943	261.77
466.153	259.25
466.362	254.6
466.572	207.71
466.782	188.34
466.991	220.31
467.201	260.02
467.41	167.22
467.62	222.05
467.829	206.94
468.039	219.53
468.249	234.26
468.458	186.59
468.668	232.71
468.877	223.99
469.086	264.87
469.296	232.51
469.505	206.94
469.715	279.79
469.924	238.52
470.134	285.99
470.343	276.49
470.552	197.83
470.762	232.71
470.971	206.74
471.18	221.47
471.39	212.36
471.599	185.04
471.808	248.01
472.018	209.84
472.227	249.76
472.436	275.52
472.645	220.11
472.855	206.36
473.064	262.16
473.273	247.63
473.482	266.42
473.691	268.16
473.901	280.37
474.11	230.19
474.319	326.09
474.528	233.87
474.737	276.3
474.946	281.14
475.155	246.85
475.364	292.77
475.573	260.8
475.783	264.29
475.992	284.63
476.201	283.27
476.41	233.87
476.619	250.92
476.828	259.64
477.037	259.64
477.245	247.43
477.454	263.51
477.663	238.52
477.872	249.56
478.081	320.86
478.29	216.82
478.499	345.85
478.708	283.86
478.917	349.73
479.125	272.42
479.334	300.71
479.543	258.09
479.752	285.02
479.961	291.99
480.169	283.08
480.378	291.8
480.587	392.16
480.796	295.67
481.004	274.17
481.213	344.89
481.422	309.24
481.63	290.06
481.839	327.84
482.048	356.51
482.256	310.98
482.465	322.22
482.674	327.06
482.882	311.95
483.091	375.69
483.299	311.37
483.508	343.72
483.716	294.71
483.925	322.61
484.134	303.62
484.342	320.28
484.551	355.93
484.759	342.75
484.967	310.98
485.176	345.85
485.384	352.44
485.593	377.24
485.801	347.6
486.01	332.1
486.218	323.57
486.426	292.19
486.635	300.71
486.843	309.24
487.051	310.98
487.26	289.86
487.468	317.96
487.676	363.1
487.885	314.08
488.093	340.62
488.301	344.11
488.509	364.26
488.717	374.14
488.926	345.27
489.134	352.64
489.342	360.77
489.55	306.52
489.758	324.74
489.967	332.87
490.175	444.47
490.383	315.63
490.591	408.63
490.799	330.36
491.007	380.15
491.215	374.34
491.423	361.55
491.631	377.24
491.839	404.95
492.047	403.98
492.255	363.68
492.463	317.57
492.671	358.25
492.879	406.5
493.087	348.18
493.295	382.28
493.503	415.8
493.711	427.04
493.919	439.63
494.127	441.76
494.334	447.96
494.542	386.35
494.75	382.47
494.958	377.24
495.166	445.44
495.374	443.12
495.581	399.72
495.789	431.88
495.997	448.54
496.205	401.65
496.412	380.92
496.62	402.04
496.828	404.56
497.035	411.73
497.243	414.64
497.451	394.68
497.658	420.84
497.866	430.52
498.074	466.56
498.281	395.07
498.489	468.88
498.696	424.71
498.904	413.86
499.112	412.12
499.319	473.53
499.527	404.75
499.734	478.38
499.942	398.55
500.149	427.42
500.357	450.28
500.564	384.02
500.771	448.35
500.979	404.75
501.186	410.37
501.394	435.37
501.601	448.15
501.808	464.82
502.016	452.03
502.223	440.02
502.43	443.31
502.638	436.14
502.845	402.82
503.052	498.33
503.26	403.01
503.467	521
503.674	439.24
503.881	455.71
504.089	513.64
504.296	474.31
504.503	413.28
504.71	486.52
504.917	431.49
505.125	442.34
505.332	465.01
505.539	472.95
505.746	501.43
505.953	481.09
506.16	485.55
506.367	533.4
506.574	514.22
506.781	533.6
506.988	460.94
507.195	497.56
507.402	501.82
507.609	514.22
507.816	472.18
508.023	480.9
508.23	474.89
508.437	430.52
508.644	502.98
508.851	538.05
509.058	540.76
509.265	497.56
509.472	507.05
509.679	583.58
509.885	502.4
510.092	529.33
510.299	482.64
510.506	526.04
510.713	521.78
510.92	510.15
511.126	542.31
511.333	549.1
511.54	536.7
511.746	597.92
511.953	584.36
512.16	567.5
512.367	527.59
512.573	521.58
512.78	569.83
512.987	564.79
513.193	546.38
513.4	488.65
513.606	507.83
513.813	571.18
514.02	553.36
514.226	629.11
514.433	621.36
514.639	517.51
514.846	591.91
515.052	564.98
515.259	575.25
515.465	559.56
515.672	548.71
515.878	663.21
516.085	558.59
516.291	602.76
516.497	542.9
516.704	546.58
516.91	528.75
517.117	518.48
517.323	509.57
517.529	547.16
517.736	559.56
517.942	584.94
518.148	547.93
518.354	573.12
518.561	569.63
518.767	576.61
518.973	596.18
519.179	627.18
519.386	564.21
519.592	592.69
519.798	580.87
520.004	646.55
520.21	616.13
520.417	642.48
520.623	679.1
520.829	669.8
521.035	654.3
521.241	664.96
521.447	697.12
521.653	768.03
521.859	670.58
522.065	708.94
522.271	745.94
522.477	712.81
522.683	733.16
522.889	749.43
523.095	744.59
523.301	714.94
523.507	691.89
523.713	746.91
523.919	678.52
524.125	752.92
524.331	715.91
524.537	794.96
524.742	734.51
524.948	790.5
525.154	788.18
525.36	869.36
525.566	774.04
525.772	823.25
525.977	738.39
526.183	788.37
526.389	814.72
526.595	779.07
526.8	767.64
527.006	716.49
527.212	724.44
527.417	724.24
527.623	728.12
527.829	775.39
528.034	785.66
528.24	789.34
528.446	765.32
528.651	851.92
528.857	818.79
529.062	895.71
529.268	844.56
529.473	822.86
529.679	821.31
529.884	905.59
530.09	880.21
530.295	887.18
530.501	891.25
530.706	869.55
530.912	838.55
531.117	858.7
531.323	875.17
531.528	949.57
531.733	910.63
531.939	854.44
532.144	942.02
532.35	908.5
532.555	941.82
532.76	909.08
532.966	905.2
533.171	898.62
533.376	895.13
533.581	871.68
533.787	902.49
533.992	906.17
534.197	912.57
534.402	891.06
534.607	923.8
534.813	1017.58
535.018	897.07
535.223	908.5
535.428	926.71
535.633	954.41
535.838	967.01
536.043	963.52
536.249	1048.58
536.454	939.5
536.659	977.47
536.864	921.28
537.069	963.52
537.274	953.25
537.479	991.81
537.684	968.17
537.889	955.58
538.094	1038.7
538.299	992.39
538.504	958.87
538.708	1002.27
538.913	1016.61
539.118	999.56
539.323	1002.08
539.528	965.07
539.733	959.26
539.938	980.96
540.142	1040.05
540.347	1004.01
540.552	985.03
540.757	974.56
540.962	1009.44
541.166	957.13
541.371	964.3
541.576	967.2
541.781	895.71
541.985	993.55
542.19	1010.99
542.395	1055.94
542.599	1055.94
542.804	1019.32
543.008	1048.77
543.213	996.26
543.418	945.7
543.622	1014.48
543.827	968.56
544.031	1072.6
544.236	1047.41
544.44	1010.8
544.645	1084.03
544.849	1002.66
545.054	1044.89
545.258	1117.55
545.463	1078.8
545.667	1016.03
545.872	1058.46
546.076	1069.89
546.281	1048.77
546.485	995.3
546.689	1063.69
546.894	1087.13
547.098	1062.53
547.302	994.52
547.507	1053.03
547.711	1062.53
547.915	1106.31
548.119	1046.06
548.324	1031.33
548.528	1151.46
548.732	1091.59
548.936	1070.28
549.141	1112.71
549.345	1067.76
549.549	1050.51
549.753	1080.54
549.957	1148.36
550.161	1152.62
550.366	1101.08
550.57	1069.89
550.774	1071.24
550.978	1059.04
551.182	1083.06
551.386	1067.95
551.59	1094.88
551.794	1026.3
551.998	1081.9
552.202	1051.29
552.406	1030.95
552.61	1090.81
552.814	1076.28
553.018	1176.64
553.222	1091.78
553.426	1068.53
553.63	1127.24
553.833	1051.87
554.037	1027.26
554.241	1114.45
554.445	1089.26
554.649	1064.66
554.853	1011.76
555.056	1112.32
555.26	1116.39
555.464	1095.66
555.668	1076.48
555.871	1097.59
556.075	1097.59
556.279	1068.92
556.483	1059.04
556.686	1088.68
556.89	1068.34
557.094	1101.66
557.297	1030.17
557.501	1123.36
557.704	997.23
557.908	1086.55
558.112	1018.55
558.315	1113.68
558.519	1060.39
558.722	1054.78
558.926	1038.7
559.129	988.32
559.333	978.83
559.536	1025.91
559.74	972.05
559.943	971.27
560.147	958.1
560.35	970.88
560.553	980.76
560.757	954.22
560.96	1046.06
561.164	1003.63
561.367	1072.41
561.57	986.96
561.774	1007.11
561.977	1008.66
562.18	958.1
562.384	1032.11
562.587	1017.38
562.79	952.67
562.993	971.66
563.197	1006.92
563.4	1039.47
563.603	1021.45
563.806	1076.09
564.009	974.95
564.212	986.58
564.416	934.07
564.619	978.05
564.822	914.12
565.025	979.02
565.228	961
565.431	967.59
565.634	904.82
565.837	937.37
566.04	962.36
566.243	926.52
566.446	866.65
566.649	941.82
566.852	893
567.055	914.31
567.258	944.34
567.461	968.75
567.664	954.41
567.867	857.93
568.07	941.82
568.273	914.7
568.475	934.07
568.678	911.79
568.881	881.76
569.084	907.14
569.287	827.7
569.489	847.08
569.692	889.7
569.895	925.74
570.098	837.97
570.3	832.74
570.503	786.05
570.706	804.84
570.909	791.47
571.111	797.87
571.314	771.32
571.516	813.37
571.719	822.86
571.922	806.59
572.124	791.86
572.327	832.74
572.529	762.02
572.732	765.51
572.935	804.26
573.137	833.32
573.34	786.63
573.542	822.09
573.745	819.95
573.947	798.45
574.15	815.3
574.352	755.63
574.554	859.67
574.757	775.01
574.959	751.95
575.162	765.9
575.364	756.6
575.566	849.6
575.769	741.1
575.971	767.45
576.173	682.98
576.376	778.49
576.578	776.75
576.78	803.87
576.982	699.44
577.185	758.73
577.387	731.02
577.589	693.63
577.791	726.76
577.993	751.76
578.196	726.76
578.398	737.22
578.6	768.61
578.802	700.61
579.004	718.04
579.206	716.49
579.408	750.4
579.61	723.86
579.812	767.84
580.014	695.96
580.216	700.99
580.418	699.83
580.62	680.84
580.822	678.33
581.024	725.02
581.226	771.52
581.428	718.43
581.63	764.74
581.832	670.77
582.034	763.77
582.236	717.85
582.438	731.8
582.64	750.4
582.841	753.31
583.043	787.99
583.245	744.2
583.447	749.24
583.649	720.95
583.85	717.46
584.052	744.01
584.254	690.73
584.456	759.7
584.657	662.63
584.859	694.6
585.061	714.56
585.262	688.4
585.464	647.52
585.666	733.93
585.867	713.59
586.069	753.5
586.27	713.39
586.472	679.68
586.674	690.14
586.875	681.81
587.077	694.21
587.278	703.51
587.48	659.14
587.681	755.24
587.883	678.71
588.084	653.33
588.285	676.97
588.487	667.48
588.688	686.66
588.89	635.89
589.091	611.09
589.292	641.71
589.494	603.54
589.695	607.8
589.896	540.38
590.098	570.8
590.299	628.92
590.5	589.2
590.702	604.51
590.903	613.23
591.104	665.93
591.305	625.63
591.507	698.86
591.708	640.35
591.909	614.78
592.11	701.96
592.311	640.93
592.512	642.09
592.714	592.5
592.915	610.71
593.116	593.66
593.317	632.41
593.518	610.51
593.719	630.08
593.92	638.8
594.121	655.85
594.322	641.13
594.523	619.43
594.724	610.9
594.925	610.71
595.126	618.07
595.327	643.06
595.528	636.28
595.729	655.46
595.929	609.54
596.13	637.44
596.331	620.01
596.532	607.99
596.733	694.6
596.934	639.96
597.135	653.14
597.335	649.84
597.536	618.46
597.737	636.28
597.938	599.28
598.138	635.89
598.339	604.7
598.54	622.33
598.74	618.26
598.941	630.08
599.142	684.33
599.342	639.19
599.543	588.43
599.744	613.81
599.944	645.19
600.145	608.19
600.345	608.96
600.546	678.13
600.746	677.55
600.947	694.02
601.147	635.31
601.348	638.41
601.548	598.11
601.749	626.79
601.949	589.98
602.15	567.89
602.35	621.36
602.551	669.22
602.751	601.99
602.951	608.96
603.152	560.91
603.352	637.64
603.552	609.93
603.753	644.81
603.953	621.36
604.153	620.78
604.354	608.58
604.554	625.04
604.754	601.21
604.954	581.65
605.155	595.98
605.355	592.69
605.555	650.43
605.755	666.89
605.955	619.04
606.155	661.08
606.356	602.18
606.556	636.28
606.756	631.24
606.956	550.06
607.156	626.98
607.356	571.57
607.556	607.03
607.756	617.29
607.956	661.66
608.156	632.21
608.356	564.98
608.556	617.68
608.756	606.64
608.956	569.44
609.156	611.29
609.356	580.68
609.556	553.75
609.755	580.87
609.955	579.9
610.155	589.4
610.355	590.95
610.555	551.23
610.755	585.52
610.954	536.5
611.154	584.75
611.354	613.23
611.554	527.01
611.753	576.22
611.953	511.12
612.153	603.35
612.352	585.71
612.552	519.26
612.752	506.86
612.951	545.8
613.151	581.65
613.351	507.05
613.55	545.03
613.75	551.81
613.949	571.76
614.149	520.23
614.348	542.9
614.548	511.12
614.747	487.1
614.947	497.17
615.146	503.37
615.346	581.45
615.545	519.45
615.745	545.03
615.944	576.03
616.144	527.01
616.343	548.9
616.542	515
616.742	520.23
616.941	539.8
617.14	479.73
617.34	551.81
617.539	522.36
617.738	499.69
617.938	547.93
618.137	534.76
618.336	487.48
618.535	527.4
618.734	525.07
618.934	534.95
619.133	494.65
619.332	535.15
619.531	484.38
619.73	521
619.929	532.24
620.128	545.03
620.328	569.63
620.527	495.43
620.726	505.31
620.925	517.51
621.124	495.82
621.323	521.39
621.522	490.97
621.721	480.32
621.92	451.06
622.119	493.88
622.318	484
622.517	484.38
622.715	487.29
622.914	450.67
623.113	483.22
623.312	435.37
623.511	508.22
623.71	488.65
623.909	464.43
624.107	513.45
624.306	451.64
624.505	448.54
624.704	435.75
