Data from oakcork_FLMT105791__18__17-26-53-056.txt Node

Date: Mon Mar 20 17:26:53 GMT 2023
User: antho
Spectrometer: FLMT10579
Trigger mode: 0
Integration Time (sec): 1.000000E-1
Scans to average: 10
Electric dark correction enabled: true
Nonlinearity correction enabled: false
Boxcar width: 0
XAxis mode: Wavelengths
Number of Pixels in Spectrum: 3648
>>>>>Begin Spectral Data<<<<<
345.248	-146.84
345.464	-146.84
345.681	-146.84
345.898	-170.68
346.114	-138.9
346.331	-30.01
346.548	16.87
346.764	-15.48
346.981	-6.38
347.197	-15.29
347.414	17.07
347.631	-29.43
347.847	68.02
348.064	0.02
348.28	30.82
348.497	-42.03
348.713	5.83
348.93	36.44
349.146	31.21
349.363	1.95
349.579	13.77
349.796	-9.09
350.012	14.55
350.229	33.15
350.445	13.38
350.661	-20.33
350.878	25.2
351.094	15.9
351.311	33.92
351.527	38.77
351.743	-0.18
351.96	31.21
352.176	43.22
352.392	16.68
352.609	36.63
352.825	12.22
353.041	22.88
353.257	7.96
353.474	7.18
353.69	16.68
353.906	44
354.122	-12.19
354.339	70.15
354.555	11.83
354.771	-5.02
354.987	52.52
355.203	59.88
355.42	7.18
355.636	14.74
355.852	-3.08
356.068	12.22
356.284	-18.39
356.5	59.69
356.716	-1.34
356.932	8.93
357.148	48.45
357.364	18.42
357.58	53.68
357.796	63.76
358.012	60.66
358.228	27.72
358.444	-54.81
358.66	44
358.876	-0.57
359.092	7.18
359.308	6.8
359.524	17.07
359.74	12.03
359.956	-38.54
360.172	-5.02
360.388	49.62
360.604	3.89
360.819	75
361.035	7.38
361.251	47.87
361.467	-5.22
361.683	50.39
361.898	24.62
362.114	61.82
362.33	26.75
362.546	66.67
362.762	15.71
362.977	36.63
363.193	-0.57
363.409	25.01
363.624	3.7
363.84	-5.22
364.056	6.8
364.271	51.55
364.487	41.48
364.703	25.78
364.918	17.65
365.134	-10.64
365.35	15.9
365.565	108.51
365.781	39.35
365.996	51.94
366.212	67.63
366.427	38.96
366.643	9.51
366.858	12.22
367.074	-9.86
367.289	58.53
367.505	109.87
367.72	-18.58
367.936	27.92
368.151	59.5
368.367	31.21
368.582	25.01
368.798	3.31
369.013	63.57
369.228	35.28
369.444	18.42
369.659	79.07
369.874	51.17
370.09	96.5
370.305	-28.27
370.52	9.9
370.736	70.73
370.951	46.52
371.166	64.92
371.381	110.45
371.597	43.22
371.812	8.35
372.027	3.12
372.242	22.68
372.458	78.68
372.673	30.43
372.888	20.36
373.103	76.74
373.318	119.36
373.533	54.07
373.749	41.48
373.964	-17.42
374.179	46.32
374.394	16.48
374.609	66.08
374.824	7.38
375.039	81.58
375.254	12.42
375.469	100.76
375.684	35.47
375.899	69.57
376.114	52.33
376.329	29.47
376.544	88.56
376.759	65.31
376.974	26.56
377.189	27.92
377.404	16.29
377.619	68.02
377.834	-34.28
378.049	-23.62
378.264	12.22
378.478	57.95
378.693	2.92
378.908	27.33
379.123	19
379.338	78.68
379.553	43.42
379.767	43.61
379.982	31.02
380.197	64.92
380.412	21.13
380.626	55.82
380.841	116.85
381.056	36.44
381.271	101.35
381.485	2.34
381.7	25.59
381.915	39.15
382.129	23.27
382.344	45.16
382.559	2.73
382.773	68.8
382.988	-24.2
383.202	42.06
383.417	-9.67
383.632	98.63
383.846	43.42
384.061	38.77
384.275	37.22
384.49	41.87
384.704	72.28
384.919	57.37
385.133	66.08
385.348	58.33
385.562	3.7
385.777	73.64
385.991	36.44
386.206	9.32
386.42	15.71
386.634	78.29
386.849	54.46
387.063	53.88
387.277	13
387.492	31.02
387.706	15.71
387.92	15.9
388.135	83.71
388.349	62.21
388.563	62.4
388.778	51.75
388.992	42.64
389.206	67.25
389.42	120.53
389.635	50.97
389.849	84.88
390.063	75.77
390.277	59.3
390.491	134.48
390.706	58.53
390.92	65.12
391.134	39.93
391.348	73.45
391.562	2.34
391.776	42.25
391.99	29.47
392.205	61.24
392.419	24.04
392.633	46.52
392.847	81.58
393.061	34.7
393.275	97.86
393.489	53.88
393.703	37.99
393.917	74.42
394.131	17.07
394.345	60.47
394.559	79.84
394.773	44.97
394.986	86.43
395.2	49.81
395.414	90.3
395.628	28.5
395.842	55.23
396.056	20.17
396.27	19.2
396.484	57.56
396.697	65.5
396.911	101.35
397.125	95.53
397.339	84.68
397.553	59.3
397.766	118.2
397.98	97.28
398.194	120.14
398.408	51.55
398.621	96.89
398.835	98.63
399.049	96.31
399.262	110.65
399.476	92.82
399.69	95.15
399.903	162.76
400.117	103.67
400.331	112.39
400.544	68.41
400.758	179.23
400.971	103.67
401.185	135.06
401.398	45.55
401.612	157.92
401.826	124.21
402.039	103.86
402.253	84.1
402.466	96.89
402.68	92.63
402.893	98.63
403.106	108.71
403.32	100.57
403.533	111.61
403.747	104.25
403.96	98.83
404.174	108.32
404.387	56.4
404.6	117.81
404.814	133.12
405.027	121.3
405.24	87.59
405.454	86.62
405.667	135.64
405.88	38.57
406.094	98.63
406.307	138.93
406.52	114.52
406.733	63.57
406.947	48.45
407.16	165.86
407.373	138.16
407.586	91.08
407.799	70.54
408.012	139.13
408.226	127.89
408.439	178.65
408.652	45.74
408.865	148.04
409.078	141.45
409.291	131.18
409.504	72.28
409.717	100.38
409.93	118.78
410.143	117.23
410.357	50.58
410.57	59.3
410.783	105.22
410.996	121.3
411.209	123.43
411.421	160.05
411.634	126.73
411.847	121.69
412.06	124.79
412.273	100.57
412.486	122.66
412.699	192.6
412.912	141.26
413.125	143.58
413.338	126.53
413.55	150.56
413.763	127.7
413.976	130.6
414.189	108.51
414.402	113.75
414.615	167.99
414.827	106
415.04	179.43
415.253	146.1
415.466	154.43
415.678	182.14
415.891	146.1
416.104	133.7
416.316	126.92
416.529	122.46
416.742	168.77
416.954	177.1
417.167	142.23
417.38	140.48
417.592	170.32
417.805	81.58
418.017	113.16
418.23	151.33
418.442	129.25
418.655	125.95
418.868	136.41
419.08	174.19
419.293	165.86
419.505	161.21
419.718	151.91
419.93	181.36
420.142	98.63
420.355	182.72
420.567	144.36
420.78	175.55
420.992	143
421.205	203.64
421.417	110.06
421.629	119.36
421.842	106.77
422.054	86.62
422.266	156.18
422.479	184.46
422.691	122.46
422.903	190.08
423.115	145.91
423.328	122.27
423.54	144.94
423.752	144.75
423.964	124.21
424.177	150.56
424.389	146.49
424.601	236.19
424.813	125.56
425.025	189.89
425.238	166.64
425.45	152.3
425.662	142.23
425.874	424.13
426.086	167.22
426.298	188.14
426.51	157.92
426.722	157.34
426.934	149.78
427.146	199.58
427.358	109.29
427.57	173.61
427.782	160.44
427.994	161.21
428.206	129.05
428.418	113.75
428.63	196.28
428.842	211.59
429.054	176.33
429.266	185.43
429.478	118.59
429.69	140.87
429.902	112
430.114	204.03
430.325	154.43
430.537	139.13
430.749	138.74
430.961	100.76
431.173	123.05
431.384	177.88
431.596	62.98
431.808	143.78
432.02	158.31
432.231	191.05
432.443	195.89
432.655	173.03
432.867	141.26
433.078	211.2
433.29	249.56
433.502	219.53
433.713	211.98
433.925	191.63
434.136	190.47
434.348	130.99
434.56	127.89
434.771	291.41
434.983	128.47
435.194	167.61
435.406	161.21
435.617	240.65
435.829	259.25
436.04	233.09
436.252	238.71
436.463	232.13
436.675	240.65
436.886	206.94
437.098	217.01
437.309	269.13
437.521	178.65
437.732	222.44
437.943	210.04
438.155	196.67
438.366	145.52
438.578	265.06
438.789	208.29
439	229.99
439.211	194.54
439.423	196.09
439.634	223.21
439.845	249.56
440.057	197.06
440.268	233.29
440.479	206.55
440.69	222.83
440.902	229.61
441.113	221.47
441.324	165.09
441.535	253.63
441.746	282.31
441.957	196.09
442.168	217.59
442.38	266.81
442.591	244.53
442.802	233.29
443.013	219.73
443.224	241.23
443.435	248.21
443.646	226.89
443.857	233.87
444.068	227.48
444.279	192.99
444.49	282.31
444.701	256.15
444.912	322.99
445.123	286.96
445.334	246.85
445.545	258.86
445.756	249.56
445.967	215.27
446.178	269.91
446.388	309.82
446.599	269.13
446.81	285.41
447.021	229.99
447.232	297.81
447.443	315.05
447.653	250.73
447.864	266.61
448.075	255.76
448.286	299.16
448.496	241.62
448.707	324.35
448.918	257.31
449.129	355.54
449.339	248.21
449.55	291.8
449.761	238.52
449.971	321.06
450.182	241.43
450.393	298.39
450.603	253.05
450.814	294.12
451.024	285.21
451.235	309.82
451.446	321.06
451.656	308.66
451.867	288.51
452.077	298.39
452.288	333.26
452.498	308.85
452.709	290.06
452.919	295.09
453.13	256.15
453.34	301.68
453.55	239.29
453.761	319.12
453.971	273.59
454.182	315.63
454.392	293.16
454.602	362.52
454.813	298.97
455.023	335.59
455.233	270.1
455.444	298.97
455.654	238.91
455.864	245.69
456.075	311.56
456.285	266.61
456.495	298.58
456.705	322.41
456.916	344.89
457.126	351.86
457.336	310.01
457.546	234.45
457.756	290.83
457.967	340.82
458.177	294.71
458.387	316.99
458.597	273.59
458.807	331.91
459.017	276.88
459.227	301.49
459.437	278.04
459.647	332.87
459.857	316.6
460.068	288.51
460.278	326.29
460.488	348.95
460.698	379.37
460.908	322.02
461.117	251.5
461.327	272.62
461.537	314.08
461.747	323.57
461.957	340.82
462.167	410.18
462.377	337.14
462.587	329
462.797	340.62
463.007	315.05
463.216	347.6
463.426	355.15
463.636	394.1
463.846	276.11
464.056	330.36
464.265	372.4
464.475	291.61
464.685	327.64
464.895	329.19
465.104	304.2
465.314	368.52
465.524	313.31
465.733	301.87
465.943	379.37
466.153	422.77
466.362	383.05
466.572	343.14
466.782	333.07
466.991	339.66
467.201	397.97
467.41	274.36
467.62	352.05
467.829	338.11
468.039	364.26
468.249	333.84
468.458	347.6
468.668	374.92
468.877	389.64
469.086	422.19
469.296	410.18
469.505	344.11
469.715	406.89
469.924	388.29
470.134	419.09
470.343	408.63
470.552	380.73
470.762	375.11
470.971	359.22
471.18	390.22
471.39	380.92
471.599	347.79
471.808	413.09
472.018	367.75
472.227	405.14
472.436	421.22
472.645	390.03
472.855	386.15
473.064	446.02
473.273	411.92
473.482	406.69
473.691	465.01
473.901	429.94
474.11	419.29
474.319	490.97
474.528	416.19
474.737	485.16
474.946	432.07
475.155	450.28
475.364	470.82
475.573	452.61
475.783	453
475.992	476.05
476.201	482.83
476.41	426.07
476.619	409.4
476.828	445.83
477.037	429.94
477.245	425.1
477.454	479.93
477.663	453.19
477.872	451.45
478.081	529.14
478.29	430.33
478.499	551.03
478.708	467.33
478.917	554.71
479.125	465.01
479.334	472.95
479.543	473.34
479.752	480.32
479.961	485.35
480.169	521.78
480.378	464.82
480.587	623.88
480.796	531.85
481.004	513.45
481.213	555.49
481.422	547.93
481.63	531.08
481.839	533.6
482.048	595.4
482.256	534.18
482.465	547.35
482.674	557.81
482.882	555.1
483.091	620.2
483.299	571.18
483.508	612.84
483.716	561.69
483.925	565.37
484.134	558.59
484.342	535.92
484.551	585.33
484.759	571.76
484.967	594.24
485.176	603.35
485.384	583.78
485.593	614.97
485.801	589.4
486.01	559.95
486.218	544.45
486.426	529.33
486.635	549.1
486.843	511.7
487.051	542.12
487.26	539.99
487.468	572.15
487.676	593.08
487.885	545.22
488.093	581.45
488.301	598.5
488.509	612.84
488.717	644.61
488.926	599.08
489.134	581.26
489.342	598.89
489.55	587.85
489.758	606.83
489.967	619.04
490.175	678.13
490.383	610.13
490.591	733.16
490.799	606.25
491.007	681.81
491.215	635.31
491.423	621.94
491.631	652.36
491.839	652.94
492.047	677.94
492.255	612.26
492.463	588.62
492.671	617.1
492.879	656.63
493.087	638.61
493.295	662.83
493.503	688.59
493.711	704.87
493.919	694.6
494.127	722.11
494.334	720.95
494.542	640.35
494.75	692.27
494.958	666.51
495.166	731.61
495.374	695.18
495.581	725.99
495.789	696.73
495.997	750.98
496.205	698.09
496.412	686.27
496.62	699.83
496.828	724.63
497.035	703.9
497.243	748.85
497.451	699.06
497.658	724.82
497.866	712.81
498.074	757.18
498.281	668.64
498.489	775.97
498.696	718.43
498.904	680.07
499.112	719.79
499.319	794.19
499.527	697.12
499.734	738.19
499.942	677.74
500.149	696.34
500.357	736.45
500.564	701.19
500.771	739.94
500.979	667.09
501.186	702.74
501.394	723.86
501.601	712.23
501.808	747.49
502.016	721.72
502.223	662.05
502.43	700.02
502.638	711.65
502.845	691.5
503.052	769
503.26	721.72
503.467	788.95
503.674	731.8
503.881	742.46
504.089	834.49
504.296	762.99
504.503	689.76
504.71	736.45
504.917	686.27
505.125	771.52
505.332	776.17
505.539	747.69
505.746	808.52
505.953	782.75
506.16	770.36
506.367	797.09
506.574	841.27
506.781	840.1
506.988	741.29
507.195	791.86
507.402	723.66
507.609	781.4
507.816	737.61
508.023	754.08
508.23	772.1
508.437	733.93
508.644	775.01
508.851	841.65
509.058	801.94
509.265	805.81
509.472	776.36
509.679	901.91
509.885	788.18
510.092	797.48
510.299	776.56
510.506	801.94
510.713	801.74
510.92	794.77
511.126	801.55
511.333	834.1
511.54	835.26
511.746	862.97
511.953	866.45
512.16	871.88
512.367	823.25
512.573	814.14
512.78	841.07
512.987	793.22
513.193	803.49
513.4	752.92
513.606	804.45
513.813	815.69
514.02	821.12
514.226	882.92
514.433	893.19
514.639	800.97
514.846	830.42
515.052	795.93
515.259	815.89
515.465	830.22
515.672	788.37
515.878	915.67
516.085	821.89
516.291	842.43
516.497	788.18
516.704	823.83
516.91	796.32
517.117	730.64
517.323	721.14
517.529	787.79
517.736	778.11
517.942	780.82
518.148	791.47
518.354	813.75
518.561	798.84
518.767	833.52
518.973	832.94
519.179	860.45
519.386	793.22
519.592	780.62
519.798	798.25
520.004	883.89
520.21	856.38
520.417	896.68
520.623	892.42
520.829	898.23
521.035	888.73
521.241	865.87
521.447	881.76
521.653	1014.09
521.859	915.47
522.065	932.13
522.271	1000.53
522.477	948.02
522.683	974.18
522.889	932.91
523.095	940.47
523.301	933.49
523.507	898.23
523.713	950.35
523.919	880.98
524.125	963.91
524.331	955.19
524.537	1008.86
524.742	992
524.948	1007.7
525.154	978.25
525.36	1084.42
525.566	992.78
525.772	1059.04
525.977	964.1
526.183	1005.56
526.389	1044.89
526.595	988.32
526.8	956.55
527.006	919.35
527.212	902.1
527.417	908.69
527.623	869.55
527.829	977.08
528.034	962.94
528.24	968.36
528.446	948.99
528.651	1004.4
528.857	1045.09
529.062	1027.07
529.268	1023.78
529.473	1049.74
529.679	1024.36
529.884	1079.96
530.09	1059.81
530.295	1116.78
530.501	1090.81
530.706	1058.46
530.912	1030.75
531.117	1079.58
531.323	1066.79
531.528	1101.86
531.733	1089.65
531.939	1032.3
532.144	1087.71
532.35	1058.26
532.555	1088.29
532.76	1098.76
532.966	1109.03
533.171	1093.33
533.376	1051.09
533.581	1013.7
533.787	1054.97
533.992	1086.36
534.197	1118.52
534.402	1067.37
534.607	1091.01
534.813	1174.9
535.018	1095.27
535.223	1081.9
535.428	1107.28
535.633	1148.36
535.838	1129.95
536.043	1090.04
536.249	1239.42
536.454	1108.06
536.659	1132.27
536.864	1089.84
537.069	1117.55
537.274	1123.75
537.479	1134.02
537.684	1116.58
537.889	1090.23
538.094	1165.79
538.299	1122.78
538.504	1155.72
538.708	1173.35
538.913	1148.36
539.118	1127.82
539.323	1162.11
539.528	1124.33
539.733	1150.1
539.938	1155.91
540.142	1141.77
540.347	1109.99
540.552	1113.29
540.757	1122.01
540.962	1097.01
541.166	1070.86
541.371	1100.69
541.576	1131.5
541.781	1032.11
541.985	1116.19
542.19	1159.4
542.395	1182.26
542.599	1179.74
542.804	1161.92
543.008	1193.69
543.213	1122.2
543.418	1113.09
543.622	1166.96
543.827	1075.12
544.031	1194.08
544.236	1215.97
544.44	1177.03
544.645	1226.63
544.849	1166.37
545.054	1197.18
545.258	1266.15
545.463	1211.32
545.667	1172.57
545.872	1206.09
546.076	1189.82
546.281	1198.73
546.485	1204.16
546.689	1207.64
546.894	1236.9
547.098	1176.64
547.302	1151.26
547.507	1185.75
547.711	1215.2
547.915	1258.02
548.119	1156.88
548.324	1164.05
548.528	1240.19
548.732	1193.5
548.936	1215.01
549.141	1227.02
549.345	1149.52
549.549	1187.88
549.753	1202.22
549.957	1268.87
550.161	1273.71
550.366	1198.73
550.57	1167.15
550.774	1164.05
550.978	1172.77
551.182	1223.53
551.386	1200.09
551.59	1199.89
551.794	1181.49
551.998	1202.61
552.202	1211.71
552.406	1159.4
552.61	1231.86
552.814	1212.29
553.018	1262.67
553.222	1181.49
553.426	1170.25
553.63	1272.35
553.833	1197.76
554.037	1113.09
554.241	1230.12
554.445	1208.03
554.649	1184.2
554.853	1166.96
555.056	1243.87
555.26	1216.55
555.464	1219.27
555.668	1204.74
555.871	1240.97
556.075	1245.23
556.279	1162.5
556.483	1178
556.686	1174.51
556.89	1211.13
557.094	1183.42
557.297	1115.23
557.501	1223.34
557.704	1158.04
557.908	1227.21
558.112	1151.84
558.315	1206.48
558.519	1167.92
558.722	1164.24
558.926	1151.26
559.129	1085.78
559.333	1096.43
559.536	1111.74
559.74	1098.95
559.943	1117.36
560.147	1108.06
560.35	1108.44
560.553	1101.86
560.757	1089.84
560.96	1196.6
561.164	1069.89
561.367	1188.85
561.57	1126.66
561.774	1146.42
561.977	1110.58
562.18	1119.49
562.384	1205.32
562.587	1119.49
562.79	1111.16
562.993	1077.83
563.197	1159.98
563.4	1188.46
563.603	1160.37
563.806	1208.42
564.009	1084.42
564.212	1142.54
564.416	1058.84
564.619	1148.55
564.822	1059.43
565.025	1125.88
565.228	1069.31
565.431	1109.8
565.634	999.75
565.837	1076.09
566.04	1063.3
566.243	1048.96
566.446	960.42
566.649	1098.18
566.852	1022.03
567.055	1056.52
567.258	1079.58
567.461	1112.32
567.664	1119.49
567.867	997.43
568.07	1103.02
568.273	1082.87
568.475	1098.95
568.678	1061.17
568.881	1040.25
569.084	1048.58
569.287	960.61
569.489	996.85
569.692	1082.68
569.895	1025.52
570.098	998.98
570.3	985.03
570.503	932.91
570.706	952.67
570.909	962.94
571.111	944.15
571.314	921.48
571.516	976.31
571.719	966.23
571.922	956.16
572.124	951.7
572.327	973.98
572.529	908.11
572.732	921.48
572.935	979.8
573.137	1010.8
573.34	949.18
573.542	1011.57
573.745	998.98
573.947	987.55
574.15	945.7
574.352	930
574.554	991.61
574.757	954.22
574.959	919.35
575.162	936.98
575.364	899.2
575.566	1016.61
575.769	890.09
575.971	893.97
576.173	828.67
576.376	935.04
576.578	942.4
576.78	969.33
576.982	863.16
577.185	907.72
577.387	886.02
577.589	865.49
577.791	937.75
577.993	917.02
578.196	864.13
578.398	949.57
578.6	918.96
578.802	846.11
579.004	846.69
579.206	854.25
579.408	892.8
579.61	873.62
579.812	916.25
580.014	872.46
580.216	882.92
580.418	896.29
580.62	862.39
580.822	834.87
581.024	873.62
581.226	929.03
581.428	904.04
581.63	955.96
581.832	878.27
582.034	953.45
582.236	888.93
582.438	894.55
582.64	930.39
582.841	976.5
583.043	997.23
583.245	918.77
583.447	927.29
583.649	878.66
583.85	902.88
584.052	932.72
584.254	899.97
584.456	957.51
584.657	860.45
584.859	883.12
585.061	873.23
585.262	866.65
585.464	836.62
585.666	932.91
585.867	835.45
586.069	899.78
586.27	892.22
586.472	848.24
586.674	874.4
586.875	856.19
587.077	845.14
587.278	873.62
587.48	854.64
587.681	973.6
587.883	896.87
588.084	811.62
588.285	825.96
588.487	853.47
588.688	866.65
588.89	802.71
589.091	781.98
589.292	814.14
589.494	761.83
589.695	763.19
589.896	685.69
590.098	707.77
590.299	799.03
590.5	737.61
590.702	770.55
590.903	779.07
591.104	809.1
591.305	804.26
591.507	850.76
591.708	808.91
591.909	794.96
592.11	823.44
592.311	806.2
592.512	801.55
592.714	739.94
592.915	765.51
593.116	755.44
593.317	791.86
593.518	783.92
593.719	778.49
593.92	823.05
594.121	817.63
594.322	807.94
594.523	809.1
594.724	742.84
594.925	773.26
595.126	797.67
595.327	832.74
595.528	770.74
595.729	769.77
595.929	796.51
596.13	779.65
596.331	809.3
596.532	786.24
596.733	861.22
596.934	837.97
597.135	797.87
597.335	820.92
597.536	776.36
597.737	796.12
597.938	786.24
598.138	835.84
598.339	764.93
598.54	805.04
598.74	766.67
598.941	763.19
599.142	852.7
599.342	789.34
599.543	745.56
599.744	767.45
599.944	795.15
600.145	772.49
600.345	802.13
600.546	849.21
600.746	836.42
600.947	864.52
601.147	792.83
601.348	825.96
601.548	754.66
601.749	770.16
601.949	758.54
602.15	791.67
602.35	768.03
602.551	847.85
602.751	726.96
602.951	772.29
603.152	697.51
603.352	804.45
603.552	787.6
603.753	844.37
603.953	778.11
604.153	787.6
604.354	790.31
604.554	794.77
604.754	781.2
604.954	763.77
605.155	808.91
605.355	776.75
605.555	849.02
605.755	840.69
605.955	786.24
606.155	838.94
606.356	788.76
606.556	824.6
606.756	824.22
606.956	724.24
607.156	838.75
607.356	774.42
607.556	803.1
607.756	775.2
607.956	813.75
608.156	783.34
608.356	759.7
608.556	803.49
608.756	792.05
608.956	728.31
609.156	774.62
609.356	731.61
609.556	747.11
609.755	780.04
609.955	720.56
610.155	787.21
610.355	798.25
610.555	760.47
610.755	759.7
610.954	699.64
611.154	772.49
611.354	770.74
611.554	747.88
611.753	737.42
611.953	714.56
612.153	765.12
612.352	763.38
612.552	713.59
612.752	688.4
612.951	731.22
613.151	741.68
613.351	713.2
613.55	712.62
613.75	726.76
613.949	744.39
614.149	729.86
614.348	716.11
614.548	694.02
614.747	668.64
614.947	724.05
615.146	648.1
615.346	746.72
615.545	743.42
615.745	730.06
615.944	753.31
616.144	734.71
616.343	735.29
616.542	685.49
616.742	713.2
616.941	691.69
617.14	669.41
617.34	698.86
617.539	717.27
617.738	682.2
617.938	756.6
618.137	725.41
618.336	656.43
618.535	733.54
618.734	705.26
618.934	752.34
619.133	703.9
619.332	731.22
619.531	685.88
619.73	702.54
619.929	737.61
620.128	703.32
620.328	765.12
620.527	670.77
620.726	682.01
620.925	721.72
621.124	682.78
621.323	715.33
621.522	659.14
621.721	670.58
621.92	652.75
622.119	674.84
622.318	687.24
