Data from oakcork_FLMT105791__8__17-26-43-056.txt Node

Date: Mon Mar 20 17:26:43 GMT 2023
User: antho
Spectrometer: FLMT10579
Trigger mode: 0
Integration Time (sec): 1.000000E-1
Scans to average: 10
Electric dark correction enabled: true
Nonlinearity correction enabled: false
Boxcar width: 0
XAxis mode: Wavelengths
Number of Pixels in Spectrum: 3648
>>>>>Begin Spectral Data<<<<<
345.248	-158.95
345.464	-158.95
345.681	-158.95
345.898	-170.97
346.114	-166.32
346.331	-34.76
346.548	0.5
346.764	-7.83
346.981	9.41
347.197	-11.51
347.414	22.98
347.631	3.21
347.847	54.56
348.064	-16.36
348.28	27.04
348.497	-31.27
348.713	-15.97
348.93	51.65
349.146	36.34
349.363	-8.61
349.579	-4.92
349.796	-21.97
350.012	-2.79
350.229	37.31
350.445	6.12
350.661	-12.67
350.878	3.21
351.094	9.61
351.311	10.77
351.527	7.48
351.743	5.93
351.96	18.33
352.176	32.47
352.392	14.45
352.609	20.07
352.825	-1.63
353.041	12.71
353.257	-0.86
353.474	-8.8
353.69	21.62
353.906	17.74
354.122	-25.46
354.339	46.22
354.555	27.04
354.771	1.66
354.987	64.82
355.203	56.88
355.42	10.77
355.636	16.39
355.852	-6.47
356.068	4.18
356.284	-14.61
356.5	66.96
356.716	18.91
356.932	6.12
357.148	34.99
357.364	10.77
357.58	66.76
357.796	58.82
358.012	42.35
358.228	20.84
358.444	-36.7
358.66	38.86
358.876	24.53
359.092	-24.11
359.308	10.19
359.524	36.92
359.74	17.16
359.956	19.49
360.172	17.36
360.388	57.46
360.604	6.89
360.819	58.24
361.035	8.25
361.251	2.24
361.467	6.31
361.683	46.42
361.898	33.24
362.114	25.69
362.33	32.08
362.546	54.17
362.762	-4.73
362.977	8.06
363.193	-27.59
363.409	36.54
363.624	11.16
363.84	-0.86
364.056	-3.37
364.271	17.16
364.487	41.38
364.703	27.24
364.918	6.12
365.134	-3.37
365.35	5.34
365.565	107.64
365.781	18.71
365.996	36.92
366.212	81.87
366.427	33.63
366.643	17.16
366.858	43.12
367.074	-25.46
367.289	45.84
367.505	118.49
367.72	-38.64
367.936	16.39
368.151	20.07
368.367	38.09
368.582	24.53
368.798	50.87
369.013	51.84
369.228	28.4
369.444	49.32
369.659	56.49
369.874	42.54
370.09	78.19
370.305	-51.42
370.52	3.21
370.736	42.54
370.951	52.23
371.166	92.14
371.381	59.4
371.597	42.35
371.812	-20.62
372.027	-18.1
372.242	18.52
372.458	93.11
372.673	10.19
372.888	23.36
373.103	47
373.318	93.5
373.533	37.51
373.749	20.84
373.964	-28.56
374.179	81.49
374.394	-2.99
374.609	77.81
374.824	-17.91
375.039	57.66
375.254	-6.28
375.469	76.06
375.684	29.37
375.899	50.68
376.114	65.02
376.329	56.88
376.544	50.87
376.759	47.39
376.974	13.87
377.189	11.93
377.404	27.63
377.619	61.53
377.834	-6.47
378.049	-4.92
378.264	1.86
378.478	33.24
378.693	34.21
378.908	73.93
379.123	38.28
379.338	48.36
379.553	60.37
379.767	44.48
379.982	56.3
380.197	59.21
380.412	33.44
380.626	52.81
380.841	76.26
381.056	65.99
381.271	109.58
381.485	2.63
381.7	-7.64
381.915	30.53
382.129	33.05
382.344	47
382.559	32.86
382.773	49.32
382.988	-8.02
383.202	33.63
383.417	0.89
383.632	130.31
383.846	29.95
384.061	55.72
384.275	31.11
384.49	33.44
384.704	75.87
384.919	65.6
385.133	25.11
385.348	57.85
385.562	7.86
385.777	74.9
385.991	11.93
386.206	46.61
386.42	2.83
386.634	83.81
386.849	49.52
387.063	67.15
387.277	-9.57
387.492	35.76
387.706	14.06
387.92	-7.64
388.135	71.8
388.349	59.79
388.563	67.73
388.778	56.11
388.992	84.2
389.206	57.85
389.42	127.21
389.635	51.65
389.849	89.43
390.063	103.38
390.277	56.69
390.491	97.57
390.706	78.97
390.92	76.06
391.134	53.97
391.348	46.42
391.562	3.41
391.776	34.6
391.99	39.25
392.205	94.47
392.419	30.73
392.633	53.59
392.847	122.95
393.061	32.28
393.275	106.09
393.489	51.46
393.703	60.56
393.917	90.21
394.131	39.83
394.345	55.91
394.559	79.74
394.773	32.47
394.986	60.17
395.2	24.91
395.414	78.77
395.628	12.51
395.842	59.59
396.056	49.71
396.27	-8.99
396.484	89.24
396.697	47.19
396.911	81.1
397.125	75.67
397.339	92.34
397.553	65.41
397.766	118.69
397.98	80.13
398.194	82.84
398.408	50.49
398.621	97.76
398.835	90.79
399.049	88.46
399.262	114.81
399.476	148.91
399.69	126.05
399.903	143.29
400.117	77.81
400.331	98.54
400.544	59.21
400.758	200.45
400.971	120.82
401.185	122.37
401.398	54.94
401.612	145.62
401.826	108.22
402.039	120.43
402.253	87.88
402.466	129.92
402.68	90.98
402.893	119.07
403.106	102.41
403.32	94.47
403.533	80.13
403.747	102.41
403.96	118.3
404.174	126.44
404.387	58.24
404.6	96.79
404.814	126.24
405.027	110.55
405.24	92.34
405.454	94.86
405.667	150.65
405.88	55.91
406.094	102.99
406.307	124.11
406.52	100.28
406.733	87.3
406.947	85.75
407.16	188.82
407.373	173.71
407.586	91.76
407.799	72.57
408.012	143.49
408.226	113.07
408.439	149.3
408.652	67.73
408.865	121.21
409.078	165.96
409.291	139.03
409.504	85.56
409.717	150.46
409.93	136.32
410.143	114.04
410.357	59.21
410.57	75.29
410.783	102.02
410.996	138.64
411.209	113.84
411.421	170.03
411.634	134.19
411.847	90.59
412.06	107.84
412.273	105.32
412.486	124.5
412.699	189.99
412.912	123.72
413.125	143.87
413.338	125.47
413.55	143.49
413.763	110.55
413.976	155.89
414.189	83.42
414.402	145.04
414.615	174.1
414.827	123.14
415.04	143.29
415.253	150.27
415.466	149.69
415.678	196.19
415.891	151.82
416.104	146.78
416.316	118.88
416.529	118.3
416.742	131.28
416.954	168.87
417.167	141.74
417.38	145.04
417.592	178.17
417.805	114.42
418.017	85.17
418.23	156.66
418.442	128.37
418.655	117.33
418.868	144.65
419.08	167.51
419.293	176.04
419.505	168.09
419.718	143.29
419.93	175.45
420.142	132.44
420.355	181.27
420.567	201.61
420.78	168.87
420.992	130.89
421.205	193.28
421.417	109.39
421.629	129.54
421.842	112.68
422.054	100.67
422.266	162.09
422.479	180.1
422.691	133.6
422.903	181.65
423.115	114.81
423.328	143.87
423.54	158.99
423.752	157.82
423.964	128.18
424.177	158.02
424.389	161.5
424.601	241.72
424.813	171
425.025	186.5
425.238	166.93
425.45	155.11
425.662	127.21
425.874	461.04
426.086	169.64
426.298	205.68
426.51	162.09
426.722	173.9
426.934	140.77
427.146	198.51
427.358	130.31
427.57	200.64
427.782	155.3
427.994	140.19
428.206	177
428.418	134.57
428.63	184.75
428.842	221.18
429.054	210.72
429.266	174.1
429.478	149.49
429.69	146.78
429.902	122.95
430.114	204.71
430.325	189.99
430.537	130.7
430.749	143.29
430.961	104.16
431.173	122.76
431.384	182.24
431.596	64.63
431.808	139.22
432.02	187.08
432.231	203.35
432.443	242.88
432.655	211.88
432.867	146.97
433.078	194.05
433.29	252.37
433.502	203.16
433.713	240.55
433.925	203.74
434.136	191.15
434.348	145.81
434.56	119.46
434.771	290.93
434.983	147.17
435.194	193.86
435.406	186.3
435.617	242.88
435.829	274.27
436.04	226.22
436.252	234.93
436.463	266.13
436.675	257.6
436.886	232.22
437.098	257.22
437.309	277.56
437.521	199.09
437.732	259.35
437.943	228.15
438.155	230.67
438.366	160.15
438.578	256.05
438.789	231.83
439	234.35
439.211	218.08
439.423	255.28
439.634	251.02
439.845	243.85
440.057	233
440.268	246.56
440.479	197.15
440.69	220.98
440.902	229.32
441.113	233
441.324	209.75
441.535	268.26
441.746	281.82
441.957	201.8
442.168	234.35
442.38	260.32
442.591	284.73
442.802	231.64
443.013	243.85
443.224	270.97
443.435	234.16
443.646	256.83
443.857	241.52
444.068	217.3
444.279	218.66
444.49	290.54
444.701	249.08
444.912	365.33
445.123	314.56
445.334	295.77
445.545	290.15
445.756	253.34
445.967	221.37
446.178	273.88
446.388	279.5
446.599	296.35
446.81	313.01
447.021	246.75
447.232	281.05
447.443	331.81
447.653	264.97
447.864	297.52
448.075	248.3
448.286	280.85
448.496	319.8
448.707	330.06
448.918	276.98
449.129	384.7
449.339	249.27
449.55	292.87
449.761	271.36
449.971	325.8
450.182	282.21
450.393	324.45
450.603	277.56
450.814	324.45
451.024	326.58
451.235	325.41
451.446	354.28
451.656	405.24
451.867	276.2
452.077	346.34
452.288	355.45
452.498	366.88
452.709	301.39
452.919	335.68
453.13	288.99
453.34	344.98
453.55	264.77
453.761	332
453.971	326.58
454.182	335.3
454.392	326.96
454.602	384.7
454.813	330.06
455.023	372.5
455.233	273.88
455.444	322.12
455.654	269.62
455.864	315.34
456.075	279.5
456.285	316.31
456.495	310.11
456.705	331.61
456.916	371.91
457.126	398.46
457.336	332.58
457.546	273.68
457.756	296.93
457.967	356.41
458.177	323.28
458.387	334.91
458.597	326.96
458.807	339.17
459.017	320.57
459.227	323.28
459.437	319.21
459.647	370.36
459.857	376.76
460.068	321.93
460.278	385.09
460.488	365.13
460.698	392.64
460.908	336.26
461.117	310.3
461.327	322.31
461.537	339.36
461.747	378.31
461.957	338.59
462.167	435.46
462.377	377.92
462.587	352.93
462.797	379.47
463.007	350.41
463.216	365.13
463.426	406.98
463.636	440.69
463.846	324.64
464.056	340.91
464.265	382.76
464.475	336.46
464.685	365.52
464.895	370.95
465.104	357.77
465.314	387.8
465.524	365.13
465.733	339.36
465.943	440.11
466.153	448.06
466.362	412.21
466.572	383.35
466.782	383.73
466.991	380.25
467.201	419.77
467.41	326.58
467.62	398.84
467.829	386.25
468.039	404.66
468.249	368.62
468.458	387.41
468.668	397.49
468.877	407.95
469.086	440.89
469.296	445.93
469.505	412.6
469.715	472.08
469.924	416.09
470.134	458.91
470.343	444.76
470.552	365.91
470.762	434.49
470.971	394.97
471.18	420.35
471.39	389.16
471.599	402.53
471.808	442.24
472.018	401.36
472.227	480.61
472.436	468.01
472.645	406.4
472.855	390.71
473.064	484.87
473.273	467.24
473.482	444.76
473.691	488.36
473.901	455.81
474.11	452.71
474.319	502.5
474.528	459.68
474.737	521.87
474.946	487.77
475.155	471.5
475.364	498.04
475.573	475.76
475.783	509.09
475.992	507.73
476.201	514.9
476.41	479.25
476.619	447.09
476.828	489.32
477.037	459.49
477.245	484.09
477.454	520.13
477.663	514.12
477.872	480.22
478.081	568.76
478.29	473.63
478.499	604.41
478.708	533.5
478.917	579.22
479.125	515.09
479.334	535.05
479.543	509.28
479.752	556.75
479.961	554.81
480.169	565.47
480.378	529.04
480.587	656.53
480.796	607.7
481.004	572.83
481.213	571.47
481.422	591.43
481.63	593.75
481.839	624.56
482.048	649.36
482.256	590.65
482.465	612.35
482.674	628.44
482.882	612.16
483.091	679.58
483.299	637.15
483.508	642.77
483.716	651.68
483.925	617
484.134	593.17
484.342	598.99
484.551	645.29
484.759	646.07
484.967	623.4
485.176	662.92
485.384	667.77
485.593	654.2
485.801	655.95
486.01	647.23
486.218	625.53
486.426	529.82
486.635	585.81
486.843	545.71
487.051	584.26
487.26	587.55
487.468	633.47
487.676	629.6
487.885	610.22
488.093	637.93
488.301	646.07
488.509	649.55
488.717	701.87
488.926	658.08
489.134	655.75
489.342	716.01
489.55	634.44
489.758	701.28
489.967	646.45
490.175	773.36
490.383	696.44
490.591	750.3
490.799	684.43
491.007	746.23
491.215	727.63
491.423	700.32
491.631	707.48
491.839	719.88
492.047	772.2
492.255	668.15
492.463	668.35
492.671	684.23
492.879	747.4
493.087	733.45
493.295	727.83
493.503	765.03
493.711	779.75
493.919	778.4
494.127	770.84
494.334	779.95
494.542	678.42
494.75	734.61
494.958	739.26
495.166	834
495.374	775.3
495.581	776.07
495.789	766.38
495.997	828.19
496.205	780.91
496.412	713.49
496.62	745.46
496.828	796.22
497.035	760.76
497.243	814.24
497.451	795.83
497.658	769.29
497.866	767.55
498.074	821.41
498.281	774.91
498.489	871.78
498.696	797.19
498.904	766.38
499.112	803
499.319	860.16
499.527	770.45
499.734	832.64
499.942	753.01
500.149	774.33
500.357	805.52
500.564	743.52
500.771	803.2
500.979	777.23
501.186	775.3
501.394	785.37
501.601	799.9
501.808	791.57
502.016	770.84
502.223	795.25
502.43	793.12
502.638	797.58
502.845	765.22
503.052	859.58
503.26	797
503.467	863.06
503.674	810.56
503.881	844.27
504.089	893.48
504.296	854.73
504.503	774.52
504.71	813.08
504.917	781.3
505.125	841.17
505.332	841.56
505.539	840.2
505.746	923.12
505.953	869.65
506.16	861.32
506.367	905.69
506.574	923.71
506.781	909.95
506.988	877.01
507.195	868.49
507.402	862.48
507.609	902.39
507.816	845.04
508.023	817.15
508.23	836.52
508.437	822.76
508.644	880.69
508.851	926.61
509.058	913.82
509.265	883.79
509.472	906.66
509.679	995.2
509.885	872.56
510.092	891.74
510.299	880.31
510.506	882.63
510.713	896.97
510.92	919.25
511.126	926.42
511.333	948.51
511.54	952.57
511.746	984.16
511.953	968.66
512.16	970.98
512.367	922.54
512.573	913.44
512.78	917.7
512.987	918.67
513.193	928.16
513.4	874.49
513.606	913.05
513.813	939.01
514.02	912.08
514.226	956.84
514.433	977.76
514.639	877.21
514.846	943.86
515.052	931.26
515.259	926.81
515.465	951.22
515.672	923.51
515.878	1011.47
516.085	948.31
516.291	991.71
516.497	934.75
516.704	927.58
516.91	885.54
517.117	846.98
517.323	826.06
517.529	881.66
517.736	885.54
517.942	867.91
518.148	866.36
518.354	908.79
518.561	921.19
518.767	905.69
518.973	932.04
519.179	953.35
519.386	926.81
519.592	935.91
519.798	923.9
520.004	1016.9
520.21	961.87
520.417	1010.89
520.623	1025.62
520.829	1017.29
521.035	1029.3
521.241	1026
521.447	1066.89
521.653	1130.63
521.859	1031.24
522.065	1058.75
522.271	1152.33
522.477	1075.8
522.683	1115.52
522.889	1068.82
523.095	1099.24
523.301	1068.63
523.507	1035.11
523.713	1061.85
523.919	1039.57
524.125	1114.55
524.331	1092.46
524.537	1179.84
524.742	1135.86
524.948	1153.49
525.154	1154.65
525.36	1263.34
525.566	1144.58
525.772	1213.75
525.977	1091.3
526.183	1171.7
526.389	1174.8
526.595	1088.2
526.8	1127.33
527.006	1094.01
527.212	1022.52
527.417	1049.25
527.623	1049.64
527.829	1117.26
528.034	1102.15
528.24	1125.2
528.446	1086.65
528.651	1219.95
528.857	1206
529.062	1218.4
529.268	1157.56
529.473	1184.1
529.679	1211.81
529.884	1264.51
530.09	1219.17
530.295	1279.04
530.501	1242.81
530.706	1251.72
530.912	1220.91
531.117	1263.73
531.323	1222.46
531.528	1257.34
531.733	1272.84
531.939	1249.2
532.144	1267.03
532.35	1271.68
532.555	1310.04
532.76	1278.46
532.966	1282.33
533.171	1249.4
533.376	1223.63
533.581	1231.96
533.787	1259.08
533.992	1264.7
534.197	1290.08
534.402	1235.06
534.607	1280.98
534.813	1375.14
535.018	1280.39
535.223	1247.46
535.428	1297.44
535.633	1328.44
535.838	1305
536.043	1329.22
536.249	1394.51
536.454	1291.63
536.659	1335.03
536.864	1302.09
537.069	1314.49
537.274	1335.23
537.479	1306.94
537.684	1325.93
537.889	1290.66
538.094	1406.72
538.299	1315.27
538.504	1322.24
538.708	1329.99
538.913	1342.01
539.118	1349.76
539.323	1347.24
539.528	1321.47
539.733	1351.5
539.938	1341.04
540.142	1361.77
540.347	1320.89
540.552	1289.69
540.757	1298.41
540.962	1296.48
541.166	1262.96
541.371	1262.76
541.576	1314.49
541.781	1228.66
541.985	1313.53
542.19	1327.86
542.395	1385.79
542.599	1393.74
542.804	1391.41
543.008	1415.44
543.213	1344.72
543.418	1333.09
543.622	1366.42
543.827	1303.45
544.031	1404.01
544.236	1437.14
544.44	1372.62
544.645	1478.02
544.849	1372.62
545.054	1413.5
545.258	1494.1
545.463	1422.61
545.667	1368.74
545.872	1406.33
546.076	1416.21
546.281	1429
546.485	1373.78
546.689	1408.07
546.894	1449.92
547.098	1443.92
547.302	1369.52
547.507	1383.27
547.711	1390.25
547.915	1435.2
548.119	1395.67
548.324	1385.21
548.528	1426.48
548.732	1378.24
548.936	1421.25
549.141	1448.18
549.345	1407.69
549.549	1422.41
549.753	1417.37
549.957	1492.74
550.161	1475.5
550.366	1434.81
550.57	1399.16
550.774	1399.55
550.978	1403.62
551.182	1429.19
551.386	1400.13
551.59	1364.48
551.794	1406.52
551.998	1419.89
552.202	1411.56
552.406	1405.36
552.61	1437.72
552.814	1454.77
553.018	1471.24
553.222	1395.87
553.426	1399.36
553.63	1483.83
553.833	1395.48
554.037	1381.92
554.241	1448.76
554.445	1422.02
554.649	1418.73
554.853	1382.69
555.056	1460.77
555.26	1472.2
555.464	1460
555.668	1452.25
555.871	1449.15
556.075	1472.2
556.279	1422.02
556.483	1368.74
556.686	1409.24
556.89	1394.32
557.094	1414.86
557.297	1339.1
557.501	1424.16
557.704	1362.16
557.908	1450.89
558.112	1354.21
558.315	1433.46
558.519	1369.13
558.722	1403.81
558.926	1373.2
559.129	1319.53
559.333	1290.28
559.536	1313.72
559.74	1286.59
559.943	1313.91
560.147	1299.38
560.35	1289.5
560.553	1331.35
560.757	1254.82
560.96	1379.4
561.164	1326.31
561.367	1408.07
561.57	1324.57
561.774	1336.19
561.977	1321.47
562.18	1310.62
562.384	1403.04
562.587	1303.06
562.79	1302.48
562.993	1305.97
563.197	1357.12
563.4	1392.96
563.603	1374.56
563.806	1429.97
564.009	1272.84
564.212	1349.76
564.416	1280.78
564.619	1357.89
564.822	1251.91
565.025	1320.69
565.228	1271.09
565.431	1293.18
565.634	1240.1
565.837	1279.04
566.04	1225.95
566.243	1256.95
566.446	1183.71
566.649	1290.08
566.852	1232.93
567.055	1246.49
567.258	1267.61
567.461	1349.95
567.664	1313.91
567.867	1229.05
568.07	1274.19
568.273	1255.98
568.475	1293.96
568.678	1209.1
568.881	1228.86
569.084	1231.76
569.287	1146.13
569.489	1168.02
569.692	1260.24
569.895	1253.08
570.098	1164.53
570.3	1164.73
570.503	1122.1
570.706	1137.22
570.909	1130.05
571.111	1123.65
571.314	1125.78
571.516	1124.23
571.719	1148.65
571.922	1140.12
572.124	1126.95
572.327	1149.62
572.529	1072.89
572.732	1082.58
572.935	1131.4
573.137	1179.65
573.34	1107.18
573.542	1137.22
573.745	1134.89
573.947	1116.87
574.15	1131.79
574.352	1063.4
574.554	1157.56
574.757	1086.45
574.959	1083.16
575.162	1096.14
575.364	1065.53
575.566	1144.77
575.769	1070.57
575.971	1076.96
576.173	989.19
576.376	1071.15
576.578	1110.28
576.78	1113.58
576.982	1021.74
577.185	1068.24
577.387	1046.74
577.589	1029.88
577.791	1072.12
577.993	1085.48
578.196	1020.97
578.398	1092.46
578.6	1066.11
578.802	1005.47
579.004	1016.9
579.206	1022.71
579.408	1059.14
579.61	982.61
579.812	1061.46
580.014	1031.24
580.216	1041.31
580.418	1055.07
580.62	1017.48
580.822	981.83
581.024	1026.59
581.226	1066.89
581.428	1013.22
581.63	1089.55
581.832	1005.47
582.034	1104.47
582.236	1061.07
582.438	1062.62
582.64	1084.32
582.841	1088
583.043	1093.23
583.245	1063.4
583.447	1042.47
583.649	1050.22
583.85	1073.67
584.052	1110.87
584.254	1030.07
584.456	1107.96
584.657	1022.13
584.859	1060.49
585.061	1055.84
585.262	1023.68
585.464	1018.25
585.666	1075.99
585.867	1025.04
586.069	1101.18
586.27	1053.52
586.472	1055.84
586.674	1001.59
586.875	1025.62
587.077	1014.57
587.278	1033.37
587.48	992.87
587.681	1115.32
587.883	1060.1
588.084	967.69
588.285	1010.5
588.487	996.94
588.688	978.15
588.89	944.63
589.091	925.84
589.292	958.58
589.494	886.51
589.695	892.9
589.896	858.8
590.098	806.1
590.299	880.31
590.5	849.11
590.702	887.86
590.903	912.47
591.104	951.02
591.305	948.7
591.507	962.46
591.708	968.46
591.909	924.87
592.11	1005.27
592.311	959.55
592.512	937.07
592.714	916.73
592.915	936.69
593.116	915.76
593.317	925.45
593.518	919.44
593.719	912.86
593.92	939.4
594.121	975.82
594.322	970.21
594.523	951.61
594.724	936.49
594.925	933.59
595.126	908.79
595.327	937.07
595.528	955.29
595.729	913.05
595.929	910.34
596.13	927.39
596.331	926.81
596.532	963.62
596.733	975.44
596.934	985.71
597.135	953.93
597.335	982.02
597.536	915.76
597.737	946.96
597.938	901.62
598.138	930.29
598.339	917.31
598.54	960.13
598.74	926.61
598.941	934.94
599.142	976.41
599.342	960.52
599.543	902.78
599.744	934.17
599.944	884.76
600.145	901.81
600.345	927
600.546	1003.72
600.746	1001.2
600.947	993.46
601.147	934.75
601.348	982.02
601.548	896
601.749	946.37
601.949	905.49
602.15	887.86
602.35	897.36
602.551	947.34
602.751	865.97
602.951	923.9
603.152	875.66
603.352	941.92
603.552	912.66
603.753	961.29
603.953	933.2
604.153	942.89
604.354	930.29
604.554	926.42
604.754	923.71
604.954	888.25
605.155	915.57
605.355	907.82
605.555	940.95
605.755	960.52
605.955	952.38
606.155	971.56
606.356	926.03
606.556	937.46
606.756	923.71
606.956	870.43
607.156	975.24
607.356	885.34
607.556	926.22
607.756	919.25
607.956	953.74
608.156	902.98
608.356	885.73
608.556	929.71
608.756	902.2
608.956	889.99
609.156	911.31
609.356	840.01
609.556	864.61
609.755	890.58
609.955	843.3
610.155	901.81
610.355	881.28
610.555	849.11
610.755	871.2
610.954	823.73
611.154	918.67
611.354	915.57
611.554	829.16
611.753	859.19
611.953	813.08
612.153	894.64
612.352	880.31
612.552	851.83
612.752	794.28
612.951	842.14
613.151	843.3
613.351	851.83
613.55	837.29
613.75	860.93
613.949	828.77
614.149	851.63
614.348	844.27
614.548	840.59
614.747	773.94
614.947	820.05
615.146	773.55
615.346	866.36
615.545	859.77
615.745	848.92
615.944	855.31
616.144	826.83
616.343	857.06
616.542	797.58
616.742	828.77
616.941	769.68
617.14	771.23
617.34	785.76
617.539	822.38
617.738	808.23
617.938	867.91
618.137	783.82
618.336	761.73
618.535	834.78
618.734	790.21
618.934	815.98
619.133	815.6
619.332	789.25
619.531	783.24
619.73	792.35
619.929	849.31
620.128	824.89
620.328	834.58
620.527	780.53
620.726	795.25
