Data from oakcork_FLMT105791__285__17-34-31-052.txt Node

Date: Mon Mar 20 17:34:31 GMT 2023
User: antho
Spectrometer: FLMT10579
Trigger mode: 0
Integration Time (sec): 1.000000E-1
Scans to average: 10
Electric dark correction enabled: true
Nonlinearity correction enabled: false
Boxcar width: 0
XAxis mode: Wavelengths
Number of Pixels in Spectrum: 3648
>>>>>Begin Spectral Data<<<<<
345.248	-166.86
345.464	-166.86
345.681	-166.86
345.898	-150.01
346.114	-151.95
346.331	-45.97
346.548	38.31
346.764	-29.3
346.981	-23.49
347.197	14.1
347.414	2.28
347.631	-20
347.847	41.8
348.064	20.3
348.28	18.36
348.497	-17.1
348.713	0.73
348.93	34.44
349.146	11.77
349.363	-12.06
349.579	3.05
349.796	-7.02
350.012	2.47
350.229	19.71
350.445	7.12
350.661	-9.15
350.878	15.45
351.094	-24.27
351.311	12.93
351.527	-21.36
351.743	-13.03
351.96	20.49
352.176	35.99
352.392	31.92
352.609	41.03
352.825	-25.24
353.041	-5.67
353.257	3.25
353.474	-20.2
353.69	-4.7
353.906	-8.19
354.122	-22.33
354.339	65.63
354.555	-0.05
354.771	6.93
354.987	45.87
355.203	40.64
355.42	-22.33
355.636	0.15
355.852	-4.89
356.068	-5.67
356.284	-11.48
356.5	62.53
356.716	29.01
356.932	2.86
357.148	24.17
357.364	3.25
357.58	47.03
357.796	48.97
358.012	51.49
358.228	24.94
358.444	-37.25
358.66	62.34
358.876	17
359.092	-30.66
359.308	22.23
359.524	30.18
359.74	3.63
359.956	2.47
360.172	2.66
360.388	34.24
360.604	-1.99
360.819	100.89
361.035	14.1
361.251	24.56
361.467	-6.64
361.683	36.18
361.898	19.13
362.114	27.08
362.33	-13.03
362.546	46.64
362.762	16.61
362.977	12.16
363.193	-20.59
363.409	20.3
363.624	-6.64
363.84	-14.19
364.056	-23.69
364.271	18.75
364.487	16.23
364.703	-13.03
364.918	-20.78
365.134	-18.07
365.35	3.05
365.565	97.21
365.781	11
365.996	13.9
366.212	55.75
366.427	21.46
366.643	-15.74
366.858	-2.18
367.074	-21.55
367.289	55.56
367.505	94.31
367.72	-31.24
367.936	3.05
368.151	30.95
368.367	39.09
368.582	25.91
368.798	-10.12
369.013	37.54
369.228	1.89
369.444	-12.45
369.659	47.42
369.874	-1.21
370.09	40.64
370.305	-12.45
370.52	-9.15
370.736	52.46
370.951	-14.58
371.166	38.89
371.381	74.35
371.597	64.66
371.812	-12.25
372.027	14.1
372.242	9.06
372.458	59.04
372.673	-4.31
372.888	17
373.103	27.85
373.318	107.87
373.533	29.21
373.749	21.84
373.964	-27.75
374.179	38.51
374.394	-29.89
374.609	61.37
374.824	-37.44
375.039	53.81
375.254	8.09
375.469	49.94
375.684	19.33
375.899	45.09
376.114	-2.76
376.329	10.41
376.544	38.89
376.759	40.64
376.974	-16.71
377.189	-27.75
377.404	-11.29
377.619	50.33
377.834	-8.19
378.049	-22.91
378.264	-13.61
378.478	23.59
378.693	-9.54
378.908	32.31
379.123	13.13
379.338	92.37
379.553	16.42
379.767	24.94
379.982	45.68
380.197	32.89
380.412	23.78
380.626	31.73
380.841	83.84
381.056	30.76
381.271	76.09
381.485	-14.19
381.7	-3.73
381.915	14.87
382.129	17.2
382.344	9.83
382.559	11.19
382.773	40.06
382.988	-35.12
383.202	40.06
383.417	8.09
383.632	120.85
383.846	19.91
384.061	37.34
384.275	14.1
384.49	35.6
384.704	75.9
384.919	17.39
385.133	9.06
385.348	50.13
385.562	-5.86
385.777	62.92
385.991	20.1
386.206	16.42
386.42	12.16
386.634	50.13
386.849	27.27
387.063	27.66
387.277	-17.87
387.492	5.57
387.706	-10.7
387.92	-24.85
388.135	48.39
388.349	33.28
388.563	9.45
388.778	41.8
388.992	36.38
389.206	33.28
389.42	87.14
389.635	34.05
389.849	48.78
390.063	35.21
390.277	28.43
390.491	78.42
390.706	38.7
390.92	46.84
391.134	38.51
391.348	40.64
391.562	-6.83
391.776	17.58
391.99	-1.21
392.205	61.76
392.419	3.63
392.633	26.49
392.847	61.95
393.061	4.99
393.275	70.09
393.489	34.24
393.703	37.73
393.917	75.13
394.131	-2.57
394.345	50.52
394.559	20.3
394.773	23.78
394.986	54.98
395.2	35.21
395.414	83.46
395.628	23.59
395.842	35.41
396.056	2.47
396.27	-15.94
396.484	36.57
396.697	34.24
396.911	69.12
397.125	54.39
397.339	52.26
397.553	30.18
397.766	79.78
397.98	54.98
398.194	62.34
398.408	25.14
398.621	46.64
398.835	43.16
399.049	34.24
399.262	69.31
399.476	52.84
399.69	56.53
399.903	77.06
400.117	36.57
400.331	45.09
400.544	20.88
400.758	127.63
400.971	57.11
401.185	88.49
401.398	4.41
401.612	80.16
401.826	77.64
402.039	33.66
402.253	37.15
402.466	68.15
402.68	41.99
402.893	44.71
403.106	65.63
403.32	75.13
403.533	59.63
403.747	62.73
403.96	41.41
404.174	89.27
404.387	30.95
404.6	32.69
404.814	68.73
405.027	30.18
405.24	23.78
405.454	39.67
405.667	102.83
405.88	-18.26
406.094	47.03
406.307	80.55
406.52	40.44
406.733	59.24
406.947	20.3
407.16	122.01
407.373	61.18
407.586	25.14
407.799	-7.41
408.012	85.98
408.226	39.86
408.439	98.38
408.652	14.1
408.865	73.19
409.078	114.46
409.291	72.8
409.504	29.59
409.717	70.28
409.93	79.19
410.143	69.89
410.357	28.24
410.57	8.86
410.783	65.63
410.996	62.34
411.209	70.48
411.421	79.39
411.634	64.28
411.847	30.56
412.06	60.21
412.273	25.53
412.486	34.63
412.699	144.29
412.912	65.24
413.125	87.72
413.338	82.88
413.55	76.87
413.763	52.65
413.976	78.23
414.189	54.59
414.402	36.18
414.615	102.64
414.827	26.11
415.04	73.19
415.253	94.11
415.466	75.32
415.678	103.99
415.891	56.72
416.104	73.58
416.316	66.41
416.529	38.51
416.742	68.15
416.954	79.58
417.167	55.75
417.38	25.72
417.592	122.4
417.805	38.89
418.017	8.86
418.23	95.47
418.442	46.84
418.655	48.97
418.868	34.05
419.08	79
419.293	104.38
419.505	59.63
419.718	70.86
419.93	107.87
420.142	35.79
420.355	110.77
420.567	87.14
420.78	58.08
420.992	37.34
421.205	137.71
421.417	23.78
421.629	42.77
421.842	29.4
422.054	13.13
422.266	92.18
422.479	82.49
422.691	39.86
422.903	84.81
423.115	53.81
423.328	40.64
423.54	69.31
423.752	74.16
423.964	54.39
424.177	70.28
424.389	71.44
424.601	166.77
424.813	84.43
425.025	84.62
425.238	98.38
425.45	70.09
425.662	40.64
425.874	314.98
426.086	54.98
426.298	86.94
426.51	72.8
426.722	78.23
426.934	45.68
427.146	87.72
427.358	62.92
427.57	96.63
427.782	74.93
427.994	76.48
428.206	38.89
428.418	42.19
428.63	84.81
428.842	105.35
429.054	87.72
429.266	119.88
429.478	35.6
429.69	69.89
429.902	54.59
430.114	86.56
430.325	81.33
430.537	48.97
430.749	59.04
430.961	25.53
431.173	60.98
431.384	85.78
431.596	3.83
431.808	67.38
432.02	83.26
432.231	101.48
432.443	112.52
432.655	71.83
432.867	30.37
433.078	73.96
433.29	143.32
433.502	92.18
433.713	116.97
433.925	106.51
434.136	118.33
434.348	32.31
434.56	40.25
434.771	187.11
434.983	41.03
435.194	58.46
435.406	93.53
435.617	134.61
435.829	138.48
436.04	90.82
436.252	100.89
436.463	117.36
436.675	111.94
436.886	100.12
437.098	77.84
437.309	101.09
437.521	95.66
437.732	94.5
437.943	91.01
438.155	93.73
438.366	62.92
438.578	138.87
438.789	110.39
439	119.69
439.211	121.43
439.423	98.76
439.634	110
439.845	110.58
440.057	118.52
440.268	122.79
440.479	51.88
440.69	79.19
440.902	89.27
441.113	88.3
441.324	99.93
441.535	117.94
441.746	145.46
441.957	66.41
442.168	74.35
442.38	97.02
442.591	124.53
442.802	75.71
443.013	71.64
443.224	113.87
443.435	62.14
443.646	113.1
443.857	79.19
444.068	80.36
444.279	81.13
444.49	162.51
444.701	93.14
444.912	183.43
445.123	131.31
445.334	100.31
445.545	117.75
445.756	116.78
445.967	91.4
446.178	113.68
446.388	135.57
446.599	145.26
446.81	125.89
447.021	103.22
447.232	145.46
447.443	149.91
447.653	70.86
447.864	123.17
448.075	109.42
448.286	141.97
448.496	106.9
448.707	135.77
448.918	100.7
449.129	188.86
449.339	88.88
449.55	130.73
449.761	100.31
449.971	142.55
450.182	116.2
450.393	134.02
450.603	90.43
450.814	134.8
451.024	147.2
451.235	140.81
451.446	153.4
451.656	150.69
451.867	94.89
452.077	148.17
452.288	156.89
452.498	189.05
452.709	111.16
452.919	124.72
453.13	87.72
453.34	172.58
453.55	89.46
453.761	135.19
453.971	147.01
454.182	153.01
454.392	104.19
454.602	166.96
454.813	116.97
455.023	172.97
455.233	96.83
455.444	143.52
455.654	81.91
455.864	101.28
456.075	111.74
456.285	118.33
456.495	122.79
456.705	123.95
456.916	176.46
457.126	197.77
457.336	147.97
457.546	66.79
457.756	137.9
457.967	193.7
458.177	117.56
458.387	127.44
458.597	112.91
458.807	112.52
459.017	144.29
459.227	137.9
459.437	125.31
459.647	141.77
459.857	165.99
460.068	161.15
460.278	171.42
460.488	178.59
460.698	193.51
460.908	141.58
461.117	64.28
461.327	100.31
461.537	157.08
461.747	146.04
461.957	139.64
462.167	240
462.377	164.64
462.587	144.29
462.797	181.11
463.007	162.51
463.216	170.06
463.426	176.46
463.636	194.86
463.846	110.77
464.056	117.56
464.265	178.2
464.475	127.05
464.685	139.45
464.895	178.2
465.104	136.74
465.314	157.66
465.524	121.04
465.733	135.38
465.943	203.39
466.153	193.12
466.362	167.93
466.572	137.12
466.782	142.74
466.991	135.38
467.201	198.54
467.41	122.98
467.62	173.55
467.829	130.15
468.039	156.31
468.249	154.56
468.458	147.01
468.668	153.59
468.877	182.66
469.086	207.45
469.296	173.16
469.505	121.82
469.715	204.74
469.924	183.82
470.134	165.8
470.343	218.5
470.552	166.38
470.762	152.82
470.971	121.04
471.18	163.28
471.39	163.28
471.599	144.68
471.808	177.81
472.018	131.51
472.227	183.24
472.436	196.8
472.645	178.01
472.855	137.32
473.064	199.9
473.273	171.81
473.482	200.29
473.691	222.18
473.901	190.99
474.11	172.97
474.319	257.05
474.528	173.94
474.737	196.02
474.946	196.8
475.155	184.21
475.364	209.2
475.573	182.46
475.783	182.27
475.992	181.88
476.201	225.67
476.41	196.8
476.619	145.84
476.828	186.72
477.037	167.93
477.245	190.79
477.454	237.1
477.663	171.03
477.872	198.93
478.081	266.16
478.29	169.67
478.499	263.06
478.708	197.96
478.917	232.25
479.125	203.19
479.334	217.72
479.543	187.5
479.752	199.51
479.961	203.58
480.169	225.28
480.378	200.09
480.587	331.65
480.796	226.25
481.004	198.74
481.213	236.13
481.422	231.67
481.63	234.39
481.839	237.68
482.048	270.62
482.256	226.83
482.465	222.95
482.674	249.3
482.882	261.51
483.091	288.63
483.299	236.13
483.508	280.89
483.716	240.59
483.925	269.45
484.134	227.02
484.342	240.97
484.551	263.45
484.759	261.51
484.967	260.74
485.176	251.44
485.384	273.91
485.593	289.02
485.801	246.79
486.01	258.99
486.218	258.6
486.426	214.04
486.635	227.02
486.843	233.61
487.051	265.19
487.26	238.84
487.468	265
487.676	257.64
487.885	210.94
488.093	233.8
488.301	256.67
488.509	252.79
488.717	264.8
488.926	290.38
489.134	266.94
489.342	284.57
489.55	240.39
489.758	254.73
489.967	225.28
490.175	359.74
490.383	262.48
490.591	344.82
490.799	216.95
491.007	299.87
491.215	270.81
491.423	250.27
491.631	272.17
491.839	285.15
492.047	327.58
492.255	256.09
492.463	221.4
492.671	275.85
492.879	297.93
493.087	291.93
493.295	277.2
493.503	291.54
493.711	297.93
493.919	307.43
494.127	344.24
494.334	309.56
494.542	271.78
494.75	271.39
494.958	277.2
495.166	316.15
495.374	295.22
495.581	303.75
495.789	295.8
495.997	344.24
496.205	299.87
496.412	299.68
496.62	303.75
496.828	297.16
497.035	298.71
497.243	341.72
497.451	315.95
497.658	293.87
497.866	291.73
498.074	374.66
498.281	263.06
498.489	375.24
498.696	325.25
498.904	307.43
499.112	306.65
499.319	361.68
499.527	320.8
499.734	370.78
499.942	269.26
500.149	294.83
500.357	312.66
500.564	292.51
500.771	315.95
500.979	305.1
501.186	306.07
501.394	304.72
501.601	331.26
501.808	317.5
502.016	302.97
502.223	301.81
502.43	312.08
502.638	309.56
502.845	301.81
503.052	366.91
503.26	321.18
503.467	362.26
503.674	294.64
503.881	314.79
504.089	410.7
504.296	360.32
504.503	308.4
504.71	314.79
504.917	272.55
505.125	331.07
505.332	347.53
505.539	347.15
505.746	370.2
505.953	370.2
506.16	340.56
506.367	377.37
506.574	405.66
506.781	386.09
506.988	302.78
507.195	336.49
507.402	337.27
507.609	384.35
507.816	312.47
508.023	331.07
508.23	345.6
508.437	305.68
508.644	368.65
508.851	395.58
509.058	361.87
509.265	373.88
509.472	363.42
509.679	432.01
509.885	361.87
510.092	366.91
510.299	361.29
510.506	378.53
510.713	359.74
510.92	358.77
511.126	387.06
511.333	371.17
511.54	413.41
511.746	401.78
511.953	395.39
512.16	418.45
512.367	387.25
512.573	378.73
512.78	405.08
512.987	385.51
513.193	399.26
513.4	334.55
513.606	372.14
513.813	430.46
514.02	400.43
514.226	445.38
514.433	443.05
514.639	358.97
514.846	403.72
515.052	365.55
515.259	363.81
515.465	406.43
515.672	390.35
515.878	476.18
516.085	392.68
516.291	410.5
516.497	354.12
516.704	402.75
516.91	384.73
517.117	336.1
517.323	318.86
517.529	366.13
517.736	354.32
517.942	369.82
518.148	386.28
518.354	392.48
518.561	383.76
518.767	384.54
518.973	394.03
519.179	425.61
519.386	354.51
519.592	352.38
519.798	370.01
520.004	422.51
520.21	386.09
520.417	421.35
520.623	437.82
520.829	459.33
521.035	445.76
521.241	453.51
521.447	460.68
521.653	548.64
521.859	445.96
522.065	466.3
522.271	513.96
522.477	479.67
522.683	506.21
522.889	461.07
523.095	484.51
523.301	468.82
523.507	439.56
523.713	469.79
523.919	444.41
524.125	488.58
524.331	449.45
524.537	506.02
524.742	494.59
524.948	502.53
525.154	493.23
525.36	582.16
525.566	535.28
525.772	519.97
525.977	476.57
526.183	533.14
526.389	531.98
526.595	509.51
526.8	476.96
527.006	472.5
527.212	451.96
527.417	483.93
527.623	474.63
527.829	512.99
528.034	510.28
528.24	475.21
528.446	456.61
528.651	552.13
528.857	523.07
529.062	564.72
529.268	516.48
529.473	540.7
529.679	510.86
529.884	577.51
530.09	547.48
530.295	584.87
530.501	562.21
530.706	528.49
530.912	491.88
531.117	537.99
531.323	530.63
531.528	559.49
531.733	575.77
531.939	517.06
532.144	590.11
532.35	546.32
532.555	594.17
532.76	592.04
532.966	590.49
533.171	559.3
533.376	523.84
533.581	540.31
533.787	536.83
533.992	575.38
534.197	604.64
534.402	555.23
534.607	561.43
534.813	680.97
535.018	566.86
535.223	562.4
535.428	565.89
535.633	622.66
535.838	624.59
536.043	573.83
536.249	651.72
536.454	566.27
536.659	581
536.864	546.12
537.069	578.29
537.274	598.44
537.479	606.57
537.684	604.64
537.889	566.27
538.094	669.54
538.299	583.32
538.504	601.54
538.708	625.17
538.913	630.79
539.118	606.96
539.323	620.91
539.528	578.29
539.733	590.11
539.938	604.25
540.142	636.41
540.347	606.77
540.552	557.17
540.757	601.15
540.962	582.36
541.166	556.78
541.371	562.98
541.576	590.69
541.781	513.19
541.985	600.76
542.19	602.31
542.395	660.05
542.599	669.15
542.804	613.55
543.008	655.79
543.213	579.26
543.418	568.79
543.622	628.27
543.827	592.62
544.031	642.42
544.236	667.6
544.44	607.74
544.645	689.11
544.849	602.31
545.054	647.07
545.258	703.84
545.463	668.19
545.667	620.91
545.872	604.06
546.076	636.22
546.281	618.78
546.485	611.81
546.689	639.9
546.894	631.76
547.098	621.88
547.302	612.39
547.507	618.2
547.711	644.16
547.915	674.58
548.119	601.92
548.324	626.53
548.528	649.97
548.732	616.84
548.936	636.8
549.141	656.37
549.345	608.32
549.549	648.23
549.753	599.6
549.957	711.2
550.161	695.12
550.366	631.57
550.57	628.08
550.774	651.72
550.978	635.64
551.182	671.87
551.386	613.36
551.59	613.55
551.794	619.75
551.998	670.51
552.202	635.44
552.406	595.14
552.61	640.29
552.814	650.94
553.018	697.44
553.222	645.13
553.426	631.57
553.63	705.58
553.833	641.45
554.037	602.12
554.241	676.9
554.445	655.59
554.649	643
554.853	632.34
555.056	673.03
555.26	655.79
555.464	644.35
555.668	643.39
555.871	702.67
556.075	632.54
556.279	633.12
556.483	610.64
556.686	663.34
556.89	640.48
557.094	634.47
557.297	583.71
557.501	649.59
557.704	591.27
557.908	660.05
558.112	611.61
558.315	702.48
558.519	615.49
558.722	616.26
558.926	601.73
559.129	596.69
559.333	558.91
559.536	562.4
559.74	599.21
559.943	568.6
560.147	570.73
560.35	595.72
560.553	598.24
560.757	529.27
560.96	658.69
561.164	577.32
561.367	648.42
561.57	575.38
561.774	604.44
561.977	577.32
562.18	612.58
562.384	625.95
562.587	600.37
562.79	606.96
562.993	589.91
563.197	613.94
563.4	668.57
563.603	640.48
563.806	659.66
564.009	579.26
564.212	581.97
564.416	542.25
564.619	609.48
564.822	561.62
565.025	642.03
565.228	581.39
565.431	574.61
565.634	513.96
565.837	564.14
566.04	536.83
566.243	562.01
566.446	512.22
566.649	606.57
566.852	530.43
567.055	557.17
567.258	574.22
567.461	608.12
567.664	636.41
567.867	521.71
568.07	563.37
568.273	573.25
568.475	602.89
568.678	554.26
568.881	544.58
569.084	541.48
569.287	466.88
569.489	514.93
569.692	554.84
569.895	570.73
570.098	499.04
570.3	497.88
570.503	457.58
570.706	507.76
570.909	500.01
571.111	447.31
571.314	483.16
571.516	524.81
571.719	508.34
571.922	493.62
572.124	512.61
572.327	495.56
572.529	452.55
572.732	482.19
572.935	479.28
573.137	535.08
573.34	488.78
573.542	487.03
573.745	488.58
573.947	528.49
574.15	487.81
574.352	466.3
574.554	522.49
574.757	477.93
574.959	468.63
575.162	459.13
575.364	453.32
575.566	546.32
575.769	466.11
575.971	499.24
576.173	405.66
576.376	487.23
576.578	501.37
576.78	524.81
576.982	405.46
577.185	425.03
577.387	414.38
577.589	429.49
577.791	464.36
577.993	448.86
578.196	438.01
578.398	468.82
578.6	517.06
578.802	416.9
579.004	421.55
579.206	432.78
579.408	476.76
579.61	435.5
579.812	492.84
580.014	435.88
580.216	426
580.418	470.37
580.62	429.49
580.822	395.97
581.024	452.16
581.226	474.63
581.428	428.71
581.63	488.39
581.832	430.26
582.034	508.15
582.236	453.71
582.438	482.96
582.64	489.55
582.841	505.63
583.043	507.38
583.245	447.9
583.447	461.65
583.649	437.82
583.85	466.49
584.052	520.55
584.254	427.55
584.456	485.09
584.657	423.87
584.859	455.45
585.061	430.07
585.262	419.22
585.464	403.91
585.666	471.53
585.867	414.57
586.069	515.71
586.27	475.79
586.472	442.66
586.674	437.05
586.875	437.63
587.077	419.03
587.278	452.35
587.48	426.39
587.681	506.79
587.883	449.83
588.084	366.91
588.285	407.79
588.487	437.24
588.688	420
588.89	408.18
589.091	386.28
589.292	412.44
589.494	419.03
589.695	353.93
589.896	353.54
590.098	349.67
590.299	389.19
590.5	368.07
590.702	376.4
590.903	410.31
591.104	451.19
591.305	402.56
591.507	457.78
591.708	408.76
591.909	372.14
592.11	461.84
592.311	448.67
592.512	382.02
592.714	366.52
592.915	389.77
593.116	381.05
593.317	401.2
593.518	376.98
593.719	390.55
593.92	398.88
594.121	440.53
594.322	382.6
594.523	401.98
594.724	355.87
594.925	369.23
595.126	423.68
595.327	421.16
595.528	407.98
595.729	423.1
595.929	379.31
596.13	419.61
596.331	389.38
596.532	411.47
596.733	422.51
596.934	407.98
597.135	412.83
597.335	395.39
597.536	375.43
597.737	395.58
597.938	386.48
598.138	409.92
598.339	363.23
598.54	423.68
598.74	373.88
598.941	421.35
599.142	425.03
599.342	402.56
599.543	364.39
599.744	378.53
599.944	378.73
600.145	373.11
600.345	419.8
600.546	473.66
600.746	472.11
600.947	434.91
601.147	408.37
601.348	422.13
601.548	386.67
601.749	385.7
601.949	368.65
602.15	375.82
602.35	396.94
602.551	431.81
602.751	354.51
602.951	369.82
603.152	367.88
603.352	403.91
603.552	383.57
603.753	425.23
603.953	412.05
604.153	390.35
604.354	386.67
604.554	385.12
604.754	385.51
604.954	359.74
605.155	386.67
605.355	382.6
605.555	432.01
605.755	429.1
605.955	342.88
606.155	420
606.356	401.98
606.556	446.54
606.756	401.59
606.956	336.1
607.156	447.7
607.356	357.03
607.556	445.76
607.756	404.11
607.956	397.13
608.156	408.95
608.356	396.16
608.556	416.12
608.756	387.45
608.956	373.88
609.156	402.17
609.356	366.91
609.556	364
609.755	398.3
609.955	368.46
610.155	366.52
610.355	369.62
610.555	357.42
610.755	382.99
610.954	349.08
611.154	364.97
611.354	420.96
611.554	365.94
611.753	360.52
611.953	312.08
612.153	406.82
612.352	398.3
612.552	324.09
612.752	298.71
612.951	371.36
613.151	351.41
613.351	342.88
613.55	361.29
613.75	373.3
613.949	351.8
614.149	373.69
614.348	360.13
614.548	335.13
614.747	284.57
614.947	352.18
615.146	305.3
615.346	384.54
615.545	374.27
615.745	367.1
615.944	359.55
616.144	367.3
616.343	366.33
616.542	341.72
616.742	363.03
616.941	333.78
617.14	309.75
617.34	359.55
617.539	337.07
617.738	339.2
617.938	400.43
618.137	348.7
618.336	306.65
618.535	350.83
618.734	350.44
618.934	366.33
619.133	348.12
619.332	362.26
619.531	332.62
619.73	323.32
619.929	381.44
620.128	379.31
620.328	374.27
620.527	339.2
620.726	319.05
620.925	353.54
621.124	333.78
621.323	341.14
621.522	306.46
621.721	296.19
621.92	310.72
622.119	360.13
622.318	324.67
622.517	344.24
622.715	331.07
622.914	294.64
623.113	310.72
623.312	282.24
623.511	332.23
623.71	333.2
623.909	308.59
624.107	372.14
624.306	307.62
624.505	289.8
624.704	295.22
624.902	322.54
625.101	353.73
625.3	305.3
625.499	300.45
625.697	308.59
625.896	277.79
626.095	320.6
626.293	297.55
626.492	276.62
626.69	337.46
626.889	290.18
