Data from oakcork_FLMT105791__303__17-34-49-052.txt Node

Date: Mon Mar 20 17:34:49 GMT 2023
User: antho
Spectrometer: FLMT10579
Trigger mode: 0
Integration Time (sec): 1.000000E-1
Scans to average: 10
Electric dark correction enabled: true
Nonlinearity correction enabled: false
Boxcar width: 0
XAxis mode: Wavelengths
Number of Pixels in Spectrum: 3648
>>>>>Begin Spectral Data<<<<<
345.248	-170.34
345.464	-170.34
345.681	-170.34
345.898	-175.18
346.114	-174.4
346.331	-41.11
346.548	21.86
346.764	-34.71
346.981	-16.69
347.197	-1
347.414	9.27
347.631	-1.19
347.847	61.58
348.064	4.42
348.28	34.45
348.497	-52.15
348.713	15.27
348.93	17.4
349.146	12.17
349.363	-6.62
349.579	14.11
349.796	14.31
350.012	2.68
350.229	22.05
350.445	18.37
350.661	-28.51
350.878	-3.91
351.094	10.43
351.311	-3.52
351.527	-14.37
351.743	-19.21
351.96	33.1
352.176	29.03
352.392	29.22
352.609	37.94
352.825	-2.74
353.041	7.52
353.257	-0.03
353.474	12.56
353.69	9.46
353.906	12.17
354.122	-26.38
354.339	29.03
354.555	-16.31
354.771	-16.5
354.987	39.1
355.203	61.97
355.42	-4.29
355.636	-13.79
355.852	-3.13
356.068	-3.13
356.284	-67.26
356.5	25.54
356.716	-1.19
356.932	-4.49
357.148	33.49
357.364	-3.13
357.58	22.25
357.796	47.05
358.012	34.65
358.228	27.87
358.444	-59.13
358.66	33.29
358.876	21.67
359.092	-3.52
359.308	-6.23
359.524	16.63
359.74	14.5
359.956	-16.89
360.172	13.14
360.388	32.13
360.604	-7.59
360.819	62.55
361.035	40.07
361.251	14.5
361.467	-21.93
361.683	31.55
361.898	26.7
362.114	36.2
362.33	21.09
362.546	35.04
362.762	10.04
362.977	-7.39
363.193	-19.99
363.409	38.72
363.624	-6.04
363.84	-21.73
364.056	-14.56
364.271	22.25
364.487	15.85
364.703	-1.58
364.918	-41.69
365.134	9.66
365.35	15.66
365.565	80.95
365.781	25.93
365.996	26.51
366.212	73.01
366.427	22.25
366.643	-1.19
366.858	-22.7
367.074	-20.76
367.289	19.34
367.505	74.37
367.72	-27.16
367.936	7.14
368.151	42.4
368.367	22.83
368.582	20.89
368.798	-0.81
369.013	62.94
369.228	5.2
369.444	6.94
369.659	54.8
369.874	-1.39
370.09	48.02
370.305	-55.83
370.52	-16.5
370.736	38.91
370.951	-6.62
371.166	28.64
371.381	60.03
371.597	24.19
371.812	-28.51
372.027	2.1
372.242	-26.38
372.458	63.9
372.673	-20.57
372.888	13.92
373.103	37.36
373.318	96.84
373.533	6.56
373.749	28.64
373.964	-31.03
374.179	67.59
374.394	-6.81
374.609	56.74
374.824	-15.73
375.039	41.04
375.254	-2.16
375.469	68.17
375.684	27.67
375.899	46.47
376.114	41.04
376.329	19.34
376.544	60.03
376.759	41.43
376.974	-10.49
377.189	10.04
377.404	5.78
377.619	29.22
377.834	-33.36
378.049	-35.1
378.264	-41.3
378.478	22.05
378.693	-10.69
378.908	44.53
379.123	12.76
379.338	49.95
379.553	27.29
379.767	23.99
379.982	22.25
380.197	28.64
380.412	12.37
380.626	18.57
380.841	62.94
381.056	49.18
381.271	67.97
381.485	-1.39
381.7	-10.3
381.915	22.64
382.129	16.05
382.344	33.68
382.559	29.22
382.773	42.2
382.988	-28.51
383.202	46.27
383.417	4.81
383.632	99.94
383.846	31.16
384.061	7.33
384.275	12.37
384.49	31.16
384.704	29.42
384.919	25.93
385.133	10.62
385.348	37.94
385.562	-44.21
385.777	43.56
385.991	19.34
386.206	-7.59
386.42	-1.97
386.634	57.12
386.849	9.07
387.063	3.07
387.277	0.55
387.492	17.79
387.706	-8.17
387.92	7.52
388.135	35.62
388.349	21.28
388.563	30
388.778	23.99
388.992	34.26
389.206	40.46
389.42	92.39
389.635	25.35
389.849	47.05
390.063	62.94
390.277	22.25
390.491	67.59
390.706	42.01
390.92	34.84
391.134	22.83
391.348	44.92
391.562	-23.86
391.776	11.4
391.99	-12.63
392.205	73.59
392.419	13.34
392.633	16.05
392.847	60.61
393.061	-16.5
393.275	73.4
393.489	9.85
393.703	18.95
393.917	69.91
394.131	7.72
394.345	47.82
394.559	62.94
394.773	15.27
394.986	20.7
395.2	28.45
395.414	55.96
395.628	-12.04
395.842	23.22
396.056	4.62
396.27	-24.83
396.484	37.17
396.697	45.69
396.911	53.83
397.125	55.19
397.339	70.69
397.553	43.75
397.766	85.41
397.98	61.77
398.194	50.92
398.408	2.29
398.621	78.82
398.835	30.58
399.049	33.68
399.262	92.39
399.476	70.88
399.69	36.59
399.903	113.7
400.117	13.34
400.331	41.43
400.544	18.95
400.758	124.35
400.971	46.66
401.185	67.59
401.398	14.11
401.612	86.96
401.826	43.75
402.039	37.17
402.253	11.01
402.466	57.12
402.68	43.95
402.893	39.1
403.106	51.12
403.32	41.24
403.533	73.98
403.747	38.91
403.96	26.12
404.174	72.24
404.387	-15.14
404.6	33.87
404.814	44.92
405.027	46.85
405.24	19.34
405.454	51.12
405.667	79.79
405.88	3.46
406.094	47.24
406.307	85.41
406.52	75.92
406.733	12.37
406.947	7.91
407.16	96.84
407.373	86.77
407.586	3.84
407.799	-4.29
408.012	75.72
408.226	46.66
408.439	82.89
408.652	30
408.865	48.4
409.078	67.39
409.291	47.82
409.504	35.23
409.717	43.17
409.93	61.19
410.143	47.82
410.357	3.26
410.57	7.14
410.783	29.61
410.996	34.07
411.209	52.09
411.421	58.29
411.634	47.82
411.847	45.5
412.06	80.37
412.273	51.5
412.486	49.37
412.699	135.98
412.912	49.95
413.125	83.09
413.338	63.71
413.55	78.63
413.763	85.41
413.976	40.46
414.189	39.69
414.402	44.53
414.615	75.14
414.827	21.67
415.04	67.97
415.253	64.68
415.466	74.17
415.678	116.99
415.891	64.87
416.104	37.75
416.316	53.83
416.529	44.72
416.742	56.35
416.954	83.67
417.167	49.37
417.38	59.25
417.592	82.7
417.805	15.66
418.017	18.18
418.23	78.05
418.442	31.16
418.655	0.16
418.868	55.77
419.08	114.28
419.293	94.9
419.505	69.33
419.718	72.82
419.93	91.61
420.142	48.79
420.355	92.58
420.567	89.09
420.78	64.87
420.992	92
421.205	117.18
421.417	37.36
421.629	28.06
421.842	16.82
422.054	37.55
422.266	77.08
422.479	97.81
422.691	43.95
422.903	77.66
423.115	32.71
423.328	53.44
423.54	72.43
423.752	73.59
423.964	23.22
424.177	52.09
424.389	71.85
424.601	165.04
424.813	76.11
425.025	99.36
425.238	104.98
425.45	79.02
425.662	54.99
425.874	325.46
426.086	51.7
426.298	65.26
426.51	73.79
426.722	72.43
426.934	60.8
427.146	82.7
427.358	15.47
427.57	104.59
427.782	35.04
427.994	57.32
428.206	44.14
428.418	17.79
428.63	62.94
428.842	80.18
429.054	76.69
429.266	102.07
429.478	39.69
429.69	71.46
429.902	0.55
430.114	85.22
430.325	66.62
430.537	36.97
430.749	62.74
430.961	36.39
431.173	58.87
431.384	74.37
431.596	25.15
431.808	52.86
432.02	75.72
432.231	103.23
432.443	107.88
432.655	69.14
432.867	54.02
433.078	89.09
433.29	105.37
433.502	98.59
433.713	128.81
433.925	80.37
434.136	91.8
434.348	22.44
434.56	28.84
434.771	150.7
434.983	25.54
435.194	30.77
435.406	61.39
435.617	100.14
435.829	125.9
436.04	75.34
436.252	107.5
436.463	115.83
436.675	109.63
436.886	64.68
437.098	80.37
437.309	115.63
437.521	76.89
437.732	114.67
437.943	75.92
438.155	73.79
438.366	34.84
438.578	123.58
438.789	92.19
439	115.83
439.211	64.87
439.423	99.75
439.634	90.06
439.845	104.78
440.057	98.78
440.268	107.69
440.479	53.83
440.69	99.36
440.902	57.9
441.113	55.19
441.324	63.52
441.535	96.45
441.746	98.78
441.957	85.22
442.168	87.54
442.38	110.02
442.591	131.33
442.802	76.89
443.013	69.91
443.224	97.04
443.435	74.37
443.646	78.44
443.857	90.25
444.068	78.63
444.279	75.14
444.49	150.51
444.701	98.78
444.912	170.85
445.123	115.44
445.334	101.49
445.545	97.62
445.756	82.5
445.967	67.39
446.178	102.27
446.388	125.13
446.599	134.23
446.81	127.65
447.021	88.9
447.232	143.53
447.443	148.38
447.653	83.67
447.864	130.55
448.075	80.57
448.286	95.1
448.496	116.99
448.707	101.69
448.918	92.58
449.129	172.79
449.339	84.25
449.55	122.61
449.761	97.23
449.971	171.05
450.182	89.67
450.393	143.15
450.603	75.34
450.814	135.4
451.024	131.13
451.235	120.48
451.446	153.8
451.656	155.74
451.867	94.32
452.077	114.67
452.288	155.74
452.498	178.6
452.709	125.32
452.919	141.02
453.13	103.62
453.34	147.99
453.55	51.89
453.761	148.96
453.971	121.45
454.182	128.62
454.392	119.12
454.602	178.02
454.813	119.51
455.023	158.84
455.233	81.92
455.444	126.1
455.654	61.77
455.864	132.88
456.075	120.09
456.285	111.95
456.495	118.54
456.705	135.78
456.916	153.22
457.126	158.07
457.336	103.04
457.546	73.01
457.756	90.25
457.967	152.64
458.177	100.14
458.387	119.51
458.597	108.08
458.807	129.58
459.017	126.1
459.227	135.78
459.437	124.35
459.647	151.09
459.857	141.6
460.068	98.97
460.278	158.84
460.488	125.13
460.698	189.84
460.908	137.92
461.117	75.34
461.327	81.73
461.537	134.04
461.747	121.83
461.957	134.43
462.167	224.52
462.377	179.96
462.587	143.15
462.797	180.73
463.007	144.12
463.216	143.53
463.426	163.3
463.636	152.06
463.846	101.88
464.056	92.97
464.265	159.23
464.475	132.3
464.685	131.72
464.895	161.75
465.104	133.27
465.314	176.28
465.524	121.06
465.733	115.44
465.943	188.87
466.153	185
466.362	168.33
466.572	183.06
466.782	137.14
466.991	129.58
467.201	183.25
467.41	102.07
467.62	143.34
467.829	140.43
468.039	166.01
468.249	137.92
468.458	128.23
468.668	170.85
468.877	134.04
469.086	203.4
469.296	190.03
469.505	108.85
469.715	203.79
469.924	154.77
470.134	178.41
470.343	204.76
470.552	129.78
470.762	141.6
470.971	130.55
471.18	140.05
471.39	127.45
471.599	115.25
471.808	159.62
472.018	110.4
472.227	174.34
472.436	190.61
472.645	148.18
472.855	137.33
473.064	172.4
473.273	146.44
473.482	171.82
473.691	195.46
473.901	170.85
474.11	174.53
474.319	250.48
474.528	170.66
474.737	210.76
474.946	154.58
475.155	191
475.364	202.43
475.573	158.84
475.783	176.67
475.992	188.29
476.201	222.78
476.41	177.44
476.619	140.43
476.828	157.29
477.037	156.71
477.245	160
477.454	212.7
477.663	135.78
477.872	148.77
478.081	229.17
478.29	163.1
478.499	256.68
478.708	187.32
478.917	259.78
479.125	194.88
479.334	182.87
479.543	182.09
479.752	200.69
479.961	198.75
480.169	218.32
480.378	160.97
480.587	285.55
480.796	206.7
481.004	193.52
481.213	228.2
481.422	216.38
481.63	191.78
481.839	198.36
482.048	246.22
482.256	203.6
482.465	188.87
482.674	237.11
482.882	222.78
483.091	275.86
483.299	186.16
483.508	258.04
483.716	195.65
483.925	236.34
484.134	215.03
484.342	212.9
484.551	250.1
484.759	239.44
484.967	228.98
485.176	240.8
485.384	233.82
485.593	253.2
485.801	243.9
486.01	227.62
486.218	221.61
486.426	186.55
486.635	214.06
486.843	194.49
487.051	210.76
487.26	201.46
487.468	217.74
487.676	234.79
487.885	206.5
488.093	226.85
488.301	248.93
488.509	250.29
488.717	261.33
488.926	242.15
489.134	221.23
489.342	236.53
489.55	211.54
489.758	236.15
489.967	204.56
490.175	306.86
490.383	214.83
490.591	308.22
490.799	207.66
491.007	272.57
491.215	272.57
491.423	256.3
491.631	232.85
491.839	275.86
492.047	255.52
492.255	234.98
492.463	190.81
492.671	258.04
492.879	292.14
493.087	277.99
493.295	281.09
493.503	261.14
493.711	292.72
493.919	277.61
494.127	295.04
494.334	296.4
494.542	225.49
494.75	257.07
494.958	262.5
495.166	317.33
495.374	254.36
495.581	279.16
495.789	260.95
495.997	318.49
496.205	285.55
496.412	256.1
496.62	261.33
496.828	296.01
497.035	288.65
497.243	310.35
497.451	275.48
497.658	275.28
497.866	295.63
498.074	338.44
498.281	295.82
498.489	330.69
498.696	301.44
498.904	279.74
499.112	268.11
499.319	343.09
499.527	261.53
499.734	286.52
499.942	244.28
500.149	264.05
500.357	283.23
500.564	253.78
500.771	328.18
500.979	260.36
501.186	274.31
501.394	287.29
501.601	299.69
501.808	309.96
502.016	281.48
502.223	275.09
502.43	289.62
502.638	307.25
502.845	273.73
503.052	337.48
503.26	273.93
503.467	355.69
503.674	268.5
503.881	282.45
504.089	381.46
504.296	352.98
504.503	230.33
504.71	309.58
504.917	263.08
505.125	306.09
505.332	296.01
505.539	345.42
505.746	360.53
505.953	347.94
506.16	334.38
506.367	362.86
506.574	369.83
506.781	348.71
506.988	290.98
507.195	315
507.402	290.2
507.609	324.69
507.816	296.21
508.023	320.04
508.23	311.32
508.437	302.79
508.644	332.05
508.851	349.29
509.058	345.23
509.265	329.73
509.472	350.07
509.679	394.05
509.885	340.77
510.092	328.95
510.299	349.49
510.506	348.52
510.713	310.35
510.92	336.89
511.126	352.59
511.333	359.76
511.54	358.01
511.746	404.12
511.953	378.74
512.16	392.69
512.367	335.15
512.573	356.66
512.78	377.39
512.987	355.88
513.193	345.03
513.4	273.73
513.606	342.51
513.813	367.12
514.02	338.83
514.226	414.01
514.433	415.75
514.639	339.03
514.846	356.66
515.052	321.39
515.259	343.48
515.465	347.94
515.672	323.14
515.878	430.47
516.085	333.99
516.291	382.23
516.497	332.63
516.704	346.78
516.91	308.61
517.117	310.16
517.323	296.01
517.529	338.64
517.736	352.39
517.942	318.49
518.148	343.68
518.354	373.71
518.561	358.21
518.767	328.95
518.973	396.37
519.179	414.2
519.386	330.31
519.592	332.83
519.798	328.56
520.004	418.85
520.21	375.06
520.417	373.51
520.623	431.44
520.829	426.99
521.035	401.8
521.241	415.56
521.447	458.95
521.653	470.58
521.859	410.13
522.065	420.01
522.271	495.38
522.477	431.83
522.683	457.02
522.889	429.12
523.095	469.22
523.301	412.84
523.507	414.59
523.713	474.26
523.919	397.15
524.125	456.24
524.331	415.56
524.537	478.14
524.742	440.36
524.948	461.67
525.154	443.65
525.36	566.29
525.566	463.99
525.772	510.1
525.977	413.04
526.183	468.45
526.389	493.05
526.595	463.8
526.8	444.23
527.006	436.48
527.212	448.69
527.417	403.54
527.623	416.14
527.829	440.36
528.034	456.82
528.24	442.68
528.446	429.31
528.651	516.5
528.857	482.79
529.062	523.28
529.268	486.47
529.473	502.35
529.679	467.09
529.884	540.33
530.09	500.42
530.295	537.81
530.501	511.07
530.706	509.14
530.912	460.89
531.117	511.65
531.323	494.02
531.528	517.47
531.733	531.03
531.939	491.5
532.144	502.55
532.35	495.57
532.555	519.6
532.76	538.59
532.966	546.72
533.171	496.15
533.376	476.97
533.581	494.02
533.787	511.85
533.992	542.07
534.197	558.15
534.402	489.57
534.607	522.5
534.813	594.38
535.018	507.59
535.223	501.39
535.428	550.21
535.633	552.15
535.838	524.44
536.043	548.47
536.249	581.79
536.454	525.41
536.659	559.12
536.864	537.04
537.069	532.77
537.274	564.74
537.479	546.53
537.684	580.05
537.889	499.64
538.094	620.93
538.299	552.53
538.504	569.39
538.708	535.87
538.913	561.06
539.118	575.78
539.323	547.5
539.528	535.87
539.733	542.07
539.938	558.93
540.142	598.45
540.347	546.33
540.552	524.64
540.757	579.66
540.962	534.71
541.166	505.26
541.371	515.34
541.576	546.92
541.781	460.7
541.985	562.61
542.19	557.77
542.395	565.9
542.599	625.97
542.804	582.57
543.008	618.22
543.213	534.32
543.418	568.62
543.622	584.31
543.827	520.57
544.031	605.43
544.236	614.34
544.44	555.63
544.645	648.25
544.849	548.08
545.054	608.33
545.258	657.93
545.463	603.88
545.667	537.23
545.872	570.17
546.076	593.61
546.281	582.18
546.485	559.7
546.689	613.95
546.894	611.43
547.098	566.48
547.302	556.6
547.507	562.03
547.711	619.18
547.915	641.08
548.119	557.18
548.324	570.36
548.528	618.22
548.732	582.76
548.936	607.56
549.141	602.52
549.345	557.38
549.549	588.77
549.753	575.98
549.957	657.74
550.161	656
550.366	594.77
550.57	576.17
550.774	603.1
550.978	592.25
551.182	612.21
551.386	560.67
551.59	594.38
551.794	588.38
551.998	590.51
552.202	586.05
552.406	538.39
552.61	589.73
552.814	580.63
553.018	655.03
553.222	592.25
553.426	578.3
553.63	634.3
553.833	588.96
554.037	566.48
554.241	618.41
554.445	568.62
554.649	576.56
554.853	584.7
555.056	604.85
555.26	649.02
555.464	601.75
555.668	616.67
555.871	633.91
556.075	631.2
556.279	554.86
556.483	548.08
556.686	586.25
556.89	603.88
557.094	632.16
557.297	544.59
557.501	631
557.704	573.85
557.908	618.22
558.112	575.01
558.315	633.91
558.519	605.62
558.722	594.58
558.926	565.71
559.129	526.38
559.333	521.34
559.536	559.12
559.74	557.38
559.943	541.49
560.147	532.39
560.35	564.74
560.553	561.64
560.757	489.76
560.96	595.16
561.164	514.75
561.367	617.25
561.57	553.89
561.774	533.94
561.977	538.78
562.18	552.92
562.384	603.88
562.587	533.94
562.79	538.78
562.993	545.95
563.197	569.2
563.4	620.93
563.603	595.16
563.806	637.2
564.009	541.1
564.212	559.7
564.416	511.27
564.619	574.04
564.822	504.29
565.025	589.15
565.228	519.79
565.431	540.52
565.634	447.33
565.837	515.92
566.04	492.47
566.243	524.64
566.446	463.02
566.649	549.43
566.852	468.84
567.055	515.72
567.258	552.53
567.461	594.77
567.664	544.59
567.867	457.79
568.07	537.62
568.273	522.7
568.475	551.18
568.678	502.94
568.881	520.18
569.084	525.22
569.287	440.36
569.489	474.07
569.692	517.08
569.895	516.5
570.098	474.45
570.3	456.24
570.503	428.73
570.706	464.96
570.909	482.4
571.111	427.18
571.314	437.64
571.516	471.35
571.719	477.55
571.922	451.98
572.124	442.1
572.327	445.2
572.529	397.54
572.732	418.46
572.935	457.79
573.137	490.92
573.34	437.84
573.542	441.13
573.745	474.65
573.947	453.92
574.15	466.32
574.352	449.07
574.554	522.12
574.757	415.94
574.959	422.72
575.162	426.21
575.364	449.85
575.566	519.02
575.769	417.3
575.971	428.92
576.173	370.22
576.376	440.74
576.578	456.05
576.78	479.3
576.982	375.06
577.185	432.61
577.387	375.06
577.589	373.32
577.791	422.53
577.993	450.43
578.196	428.73
578.398	430.09
578.6	466.7
578.802	383.01
579.004	358.59
579.206	406.64
579.408	452.75
579.61	421.17
579.812	434.74
580.014	405.67
580.216	393.47
580.418	391.14
580.62	407.81
580.822	369.25
581.024	364.41
581.226	430.47
581.428	390.95
581.63	464.19
581.832	407.42
582.034	437.45
582.236	417.49
582.438	450.24
582.64	428.73
582.841	442.1
583.043	469.42
583.245	434.54
583.447	436.67
583.649	404.32
583.85	420.59
584.052	456.05
584.254	410.71
584.456	430.47
584.657	360.73
584.859	400.64
585.061	405.67
585.262	400.25
585.464	370.22
585.666	426.6
585.867	361.69
586.069	461.47
586.27	440.16
586.472	391.92
586.674	379.32
586.875	383.59
587.077	389.79
587.278	417.3
587.48	388.62
587.681	503.13
587.883	379.91
588.084	372.54
588.285	385.33
588.487	388.43
588.688	389.01
588.89	351.04
589.091	349.68
589.292	401.61
589.494	336.89
589.695	382.62
589.896	333.21
590.098	294.66
590.299	401.41
590.5	307.25
590.702	326.04
590.903	358.59
591.104	398.51
591.305	355.88
591.507	434.74
591.708	380.68
591.909	340.77
592.11	445.2
592.311	418.85
592.512	369.25
592.714	337.67
592.915	341.16
593.116	346
593.317	367.31
593.518	370.22
593.719	367.31
593.92	396.37
594.121	391.92
594.322	358.01
594.523	356.66
594.724	335.93
594.925	355.88
595.126	389.21
595.327	386.69
595.528	352.59
595.729	364.41
595.929	343.68
596.13	393.08
596.331	361.31
596.532	358.98
596.733	415.75
596.934	385.91
597.135	393.66
597.335	368.86
597.536	328.76
597.737	379.71
597.938	318.29
598.138	350.07
598.339	333.41
598.54	390.37
598.74	370.61
598.941	402.57
599.142	383.97
599.342	367.31
599.543	342.71
599.744	341.93
599.944	323.91
600.145	335.73
600.345	372.93
600.546	399.09
600.746	422.53
600.947	444.81
601.147	388.62
601.348	398.31
601.548	367.7
601.749	375.64
601.949	347.55
602.15	334.96
602.35	352.98
602.551	398.12
602.751	318.49
602.951	353.17
603.152	291.94
603.352	377
603.552	363.05
603.753	399.09
603.953	364.21
604.153	363.05
604.354	367.89
604.554	333.79
604.754	356.27
604.954	320.62
605.155	375.64
605.355	316.16
605.555	395.79
605.755	383.2
605.955	371.77
606.155	394.44
606.356	369.06
606.556	370.02
606.756	406.45
606.956	300.28
607.156	433.96
607.356	305.31
607.556	353.17
607.756	349.29
607.956	392.89
608.156	372.35
608.356	326.82
608.556	354.72
608.756	358.4
608.956	308.03
609.156	363.05
609.356	330.31
609.556	331.47
609.755	354.14
609.955	345.42
610.155	371.19
610.355	351.43
610.555	327.79
610.755	352.98
610.954	314.23
611.154	353.56
611.354	378.94
611.554	339.99
611.753	304.34
611.953	301.44
612.153	372.74
612.352	354.33
612.552	309.58
612.752	271.02
612.951	323.14
613.151	356.27
613.351	311.9
613.55	310.74
613.75	328.95
613.949	340.96
614.149	323.33
614.348	338.44
614.548	293.3
614.747	274.9
614.947	308.03
615.146	249.32
615.346	334.57
615.545	339.03
615.745	343.09
615.944	359.56
616.144	330.69
616.343	361.31
616.542	310.74
616.742	305.51
616.941	310.93
617.14	266.18
617.34	316.55
617.539	311.13
617.738	312.68
617.938	381.07
618.137	317.71
618.336	252.81
618.535	333.99
618.734	318.49
618.934	322.56
619.133	305.51
619.332	335.54
619.531	282.45
619.73	274.9
619.929	332.63
620.128	295.82
620.328	359.18
620.527	285.16
620.726	297.76
620.925	303.96
621.124	301.63
621.323	322.56
621.522	284.19
621.721	279.35
621.92	258.04
622.119	319.84
622.318	318.49
622.517	322.94
622.715	284
622.914	222
623.113	295.04
623.312	250.87
623.511	288.26
623.71	272.57
623.909	284.78
624.107	318.68
624.306	262.69
624.505	268.11
624.704	269.66
624.902	242.15
625.101	309.77
625.3	297.18
625.499	291.36
625.697	290.01
625.896	250.1
626.095	300.28
626.293	254.55
626.492	263.27
626.69	293.88
626.889	268.5
627.088	303.38
627.286	229.17
