Data from oakcork_FLMT105791__217__17-32-48-055.txt Node

Date: Mon Mar 20 17:32:48 GMT 2023
User: antho
Spectrometer: FLMT10579
Trigger mode: 0
Integration Time (sec): 1.000000E-1
Scans to average: 10
Electric dark correction enabled: true
Nonlinearity correction enabled: false
Boxcar width: 0
XAxis mode: Wavelengths
Number of Pixels in Spectrum: 3648
>>>>>Begin Spectral Data<<<<<
345.248	-152.59
345.464	-152.59
345.681	-152.59
345.898	-133.02
346.114	-156.08
346.331	-24.14
346.548	1.24
346.764	-1.28
346.981	3.18
347.197	-35.18
347.414	33.79
347.631	-37.51
347.847	60.92
348.064	-0.5
348.28	45.81
348.497	-33.44
348.713	-12.9
348.93	36.51
349.146	23.91
349.363	-11.35
349.579	-6.31
349.796	-22.78
350.012	10.16
350.229	21.39
350.445	8.41
350.661	-2.83
350.878	-10.96
351.094	12.48
351.311	8.22
351.527	37.28
351.743	-18.91
351.96	33.21
352.176	37.28
352.392	16.16
352.609	55.69
352.825	15.19
353.041	11.12
353.257	3.18
353.474	21.2
353.69	20.81
353.906	13.84
354.122	-3.6
354.339	56.27
354.555	-1.86
354.771	-0.69
354.987	50.07
355.203	52
355.42	2.41
355.636	-11.93
355.852	-10.38
356.068	33.41
356.284	-59.59
356.5	73.51
356.716	29.92
356.932	13.45
357.148	40.38
357.364	12.67
357.58	66.92
357.796	38.25
358.012	61.3
358.228	35.73
358.444	-46.61
358.66	65.18
358.876	29.34
359.092	-13.87
359.308	29.53
359.524	38.83
359.74	1.82
359.956	-6.7
360.172	17.32
360.388	53.75
360.604	-35.76
360.819	77
361.035	30.89
361.251	23.33
361.467	-14.45
361.683	55.49
361.898	31.86
362.114	43.48
362.33	17.32
362.546	40.38
362.762	-7.67
362.977	30.31
363.193	-12.13
363.409	52.59
363.624	-13.09
363.84	-4.18
364.056	-16
364.271	19.84
364.487	36.51
364.703	25.66
364.918	-0.69
365.134	4.15
365.35	51.42
365.565	129.7
365.781	39.02
365.996	19.84
366.212	65.76
366.427	26.82
366.643	16.94
366.858	16.36
367.074	-1.86
367.289	68.86
367.505	109.16
367.72	-9.22
367.936	24.11
368.151	46.19
368.367	24.3
368.582	37.67
368.798	16.55
369.013	70.41
369.228	-7.48
369.444	1.24
369.659	66.54
369.874	34.57
370.09	87.65
370.305	-6.12
370.52	-5.54
370.736	74.09
370.951	29.72
371.166	80.29
371.381	98.12
371.597	62.85
371.812	-3.99
372.027	-21.43
372.242	-4.57
372.458	90.95
372.673	25.66
372.888	4.34
373.103	46.97
373.318	91.34
373.533	47.74
373.749	53.36
373.964	-32.08
374.179	69.44
374.394	-1.28
374.609	57.43
374.824	10.35
375.039	88.43
375.254	-18.91
375.469	55.3
375.684	31.47
375.899	51.23
376.114	51.42
376.329	29.14
376.544	58.2
376.759	60.92
376.974	4.92
377.189	34.37
377.404	40.77
377.619	71.19
377.834	-8.83
378.049	-5.73
378.264	-6.7
378.478	14.03
378.693	20.23
378.908	46
379.123	17.32
379.338	59.56
379.553	56.65
379.767	19.84
379.982	57.24
380.197	65.76
380.412	21.97
380.626	46.77
380.841	111.87
381.056	58.79
381.271	96.37
381.485	24.49
381.7	6.67
381.915	45.81
382.129	23.14
382.344	36.31
382.559	28.76
382.773	63.05
382.988	-23.36
383.202	28.95
383.417	-1.66
383.632	123.89
383.846	26.04
384.061	33.02
384.275	28.76
384.49	62.08
384.704	83.2
384.919	12.09
385.133	45.42
385.348	63.44
385.562	-9.41
385.777	64.6
385.991	20.81
386.206	20.62
386.42	39.22
386.634	66.34
386.849	57.43
387.063	39.22
387.277	-0.89
387.492	43.67
387.706	21.97
387.92	24.11
388.135	40.96
388.349	53.75
388.563	42.71
388.778	43.87
388.992	63.24
389.206	48.71
389.42	104.7
389.635	64.99
389.849	54.14
390.063	56.46
390.277	26.04
390.491	89.2
390.706	58.79
390.92	71.77
391.134	38.44
391.348	88.82
391.562	-2.05
391.776	46
391.99	35.73
392.205	81.84
392.419	37.67
392.633	21.39
392.847	69.25
393.061	41.74
393.275	87.07
393.489	45.03
393.703	36.89
393.917	76.42
394.131	28.17
394.345	55.1
394.559	73.12
394.773	40.77
394.986	58.98
395.2	48.91
395.414	90.17
395.628	40.57
395.842	56.85
396.056	48.91
396.27	-11.93
396.484	80.29
396.697	19.65
396.911	77.58
397.125	67.5
397.339	64.21
397.553	76.42
397.766	108.58
397.98	102.38
398.194	96.57
398.408	52.78
398.621	71.38
398.835	75.64
399.049	91.34
399.262	98.89
399.476	137.25
399.69	80.49
399.903	136.87
400.117	72.54
400.331	77.58
400.544	68.28
400.758	185.69
400.971	109.35
401.185	106.64
401.398	45.03
401.612	136.67
401.826	82.42
402.039	108.39
402.253	40.96
402.466	95.21
402.68	55.88
402.893	118.07
403.106	79.71
403.32	73.51
403.533	88.24
403.747	81.07
403.96	101.8
404.174	105.29
404.387	36.7
404.6	91.72
404.814	123.11
405.027	101.6
405.24	102.19
405.454	78.16
405.667	106.06
405.88	66.15
406.094	99.47
406.307	125.63
406.52	95.79
406.733	83
406.947	59.95
407.16	150.62
407.373	116.33
407.586	67.31
407.799	51.04
408.012	114
408.226	77.39
408.439	141.52
408.652	46.77
408.865	89.4
409.078	122.14
409.291	103.35
409.504	64.99
409.717	103.93
409.93	112.26
410.143	90.95
410.357	37.67
410.57	69.64
410.783	69.64
410.996	98.89
411.209	96.57
411.421	143.07
411.634	117.49
411.847	59.37
412.06	87.46
412.273	72.74
412.486	89.4
412.699	191.7
412.912	116.91
413.125	129.89
413.338	115.94
413.55	133.96
413.763	113.42
413.976	104.12
414.189	106.45
414.402	96.76
414.615	163.41
414.827	60.34
415.04	137.06
415.253	116.91
415.466	146.36
415.678	187.82
415.891	115.55
416.104	104.32
416.316	120.01
416.529	75.84
416.742	122.14
416.954	128.34
417.167	113.23
417.38	106.45
417.592	141.71
417.805	85.33
418.017	83.39
418.23	151.4
418.442	88.04
418.655	101.6
418.868	131.25
419.08	149.07
419.293	142.48
419.505	136.29
419.718	144.81
419.93	175.81
420.142	99.09
420.355	134.35
420.567	153.92
420.78	117.88
420.992	130.09
421.205	162.05
421.417	97.54
421.629	130.28
421.842	80.68
422.054	83
422.266	145
422.479	175.81
422.691	119.43
422.903	131.64
423.115	95.6
423.328	106.84
423.54	150.62
423.752	116.33
423.964	97.34
424.177	147.52
424.389	114.59
424.601	210.3
424.813	107.22
425.025	176.2
425.238	168.25
425.45	128.73
425.662	134.35
425.874	419.16
426.086	115.17
426.298	158.18
426.51	149.85
426.722	157.4
426.934	120.79
427.146	184.14
427.358	106.84
427.57	162.44
427.782	129.7
427.994	136.09
428.206	128.54
428.418	85.72
428.63	141.9
428.842	178.91
429.054	126.02
429.266	149.65
429.478	94.44
429.69	117.3
429.902	92.3
430.114	161.67
430.325	160.7
430.537	127.18
430.749	97.92
430.961	55.49
431.173	106.06
431.384	144.81
431.596	70.22
431.808	134.54
432.02	136.09
432.231	165.15
432.443	182.2
432.655	155.47
432.867	118.65
433.078	159.73
433.29	207.58
433.502	157.98
433.713	193.63
433.925	153.33
434.136	205.65
434.348	108.58
434.56	86.3
434.771	224.05
434.983	121.17
435.194	130.09
435.406	146.94
435.617	203.52
435.829	221.34
436.04	205.65
436.252	199.06
436.463	232.96
436.675	213.2
436.886	151.01
437.098	190.53
437.309	219.21
437.521	161.47
437.732	192.86
437.943	200.03
438.155	183.37
438.366	151.98
438.578	242.07
438.789	207.58
439	213.59
439.211	209.91
439.423	194.99
439.634	194.99
439.845	178.13
440.057	225.41
440.268	224.05
440.479	142.68
440.69	186.47
440.902	169.03
441.113	169.22
441.324	183.37
441.535	229.67
441.746	242.65
441.957	177.17
442.168	194.41
442.38	225.8
442.591	212.04
442.802	187.24
443.013	193.44
443.224	224.05
443.435	172.52
443.646	171.55
443.857	194.02
444.068	177.94
444.279	153.33
444.49	249.82
444.701	178.33
444.912	279.66
445.123	238
445.334	220.18
445.545	228.9
445.756	221.73
445.967	192.86
446.178	219.79
446.388	266.29
446.599	223.86
446.81	226.18
447.021	197.32
447.232	253.31
447.443	258.54
447.653	189.95
447.864	233.55
448.075	241.3
448.286	241.88
448.496	219.02
448.707	260.28
448.918	225.8
449.129	307.17
449.339	179.3
449.55	240.13
449.761	228.31
449.971	261.06
450.182	240.52
450.393	249.43
450.603	219.79
450.814	280.63
451.024	261.83
451.235	280.43
451.446	260.09
451.656	285.47
451.867	211.46
452.077	269.39
452.288	311.43
452.498	303.3
452.709	250.79
452.919	278.11
453.13	209.72
453.34	285.47
453.55	200.8
453.761	274.81
453.971	274.23
454.182	291.28
454.392	288.38
454.602	342.04
454.813	270.75
455.023	284.89
455.233	233.35
455.444	263.19
455.654	197.9
455.864	249.63
456.075	246.72
456.285	224.25
456.495	251.76
456.705	280.43
456.916	314.14
457.126	329.64
457.336	258.35
457.546	214.56
457.756	241.1
457.967	311.24
458.177	250.79
458.387	281.98
458.597	225.8
458.807	251.95
459.017	267.65
459.227	232.77
459.437	260.67
459.647	314.92
459.857	298.06
460.068	279.08
460.278	302.33
460.488	284.7
460.698	361.23
460.908	274.23
461.117	244.2
461.327	234.32
461.537	274.23
461.747	298.26
461.957	271.52
462.167	369.94
462.377	317.05
462.587	312.4
462.797	326.35
463.007	293.8
463.216	323.25
463.426	343.59
463.636	305.23
463.846	241.3
464.056	244.59
464.265	332.74
464.475	267.45
464.685	287.6
464.895	321.31
465.104	300
465.314	319.18
465.524	306.98
465.733	255.05
465.943	341.85
466.153	343.98
466.362	354.64
466.572	302.52
466.782	301.75
466.991	275.59
467.201	359.68
467.41	270.16
467.62	318.02
467.829	308.33
468.039	337.59
468.249	316.28
468.458	294.96
468.668	347.28
468.877	326.16
469.086	355.03
469.296	355.99
469.505	316.28
469.715	374.98
469.924	356.19
470.134	385.83
470.343	378.08
470.552	348.44
470.762	350.76
470.971	324.22
471.18	337.98
471.39	309.5
471.599	329.26
471.808	369.75
472.018	308.53
472.227	374.4
472.436	357.74
472.645	359.48
472.855	332.55
473.064	394.94
473.273	382.34
473.482	377.11
473.691	412.18
473.901	404.24
474.11	363.16
474.319	447.25
474.528	381.38
474.737	408.89
474.946	429.62
475.155	397.46
475.364	408.5
475.573	378.47
475.783	407.53
475.992	400.75
476.201	429.23
476.41	398.23
476.619	379.05
476.828	387.96
477.037	379.63
477.245	427.1
477.454	439.69
477.663	410.24
477.872	402.88
478.081	471.08
478.29	374.01
478.499	505.37
478.708	423.81
478.917	477.86
479.125	447.06
479.334	454.42
479.543	455.39
479.752	455
479.961	438.92
480.169	469.92
480.378	448.61
480.587	554.78
480.796	476.89
481.004	457.13
481.213	466.43
481.422	492.2
481.63	485.42
481.839	491.23
482.048	525.14
482.256	485.42
482.465	499.56
482.674	498.59
482.882	499.95
483.091	575.9
483.299	487.74
483.508	531.14
483.716	522.42
483.925	523.39
484.134	491.62
484.342	476.31
484.551	546.64
484.759	499.17
484.967	528.24
485.176	555.55
485.384	536.18
485.593	569.89
485.801	538.12
486.01	505.76
486.218	487.74
486.426	438.92
486.635	479.61
486.843	469.14
487.051	487.16
487.26	482.12
487.468	519.71
487.676	541.99
487.885	505.18
488.093	516.61
488.301	510.22
488.509	531.53
488.717	561.75
488.926	515.64
489.134	524.94
489.342	568.92
489.55	503.24
489.758	544.7
489.967	537.54
490.175	623.95
490.383	558.27
490.591	618.52
490.799	535.02
491.007	614.45
491.215	611.16
491.423	564.85
491.631	583.65
491.839	599.15
492.047	603.41
492.255	541.02
492.463	529.79
492.671	563.3
492.879	642.35
493.087	580.35
493.295	625.5
493.503	627.24
493.711	622.98
493.919	651.85
494.127	653.98
494.334	650.88
494.542	609.8
494.75	613.1
494.958	597.79
495.166	665.99
495.374	648.75
495.581	633.44
495.789	647.78
495.997	687.69
496.205	641.77
496.412	631.12
496.62	643.32
496.828	655.92
497.035	634.22
497.243	685.95
497.451	631.31
497.658	650.68
497.866	663.86
498.074	688.08
498.281	636.93
498.489	703.96
498.696	643.13
498.904	647.39
499.112	624.72
499.319	706.87
499.527	647.39
499.734	701.64
499.942	663.66
500.149	644.29
500.357	654.37
500.564	619.68
500.771	692.15
500.979	618.33
501.186	610.77
501.394	682.07
501.601	664.05
501.808	700.48
502.016	665.8
502.223	658.82
502.43	649.33
502.638	666.18
502.845	649.52
503.052	727.02
503.26	653.59
503.467	756.28
503.674	655.33
503.881	691.37
504.089	762.86
504.296	703.38
504.503	637.9
504.71	680.33
504.917	638.87
505.125	670.83
505.332	679.75
505.539	724.5
505.746	755.11
505.953	728.38
506.16	763.64
506.367	756.47
506.574	777.98
506.781	778.56
506.988	705.9
507.195	721.01
507.402	738.84
507.609	767.32
507.816	747.56
508.023	719.27
508.23	726.83
508.437	727.8
508.644	747.36
508.851	778.75
509.058	772.55
509.265	753.95
509.472	761.51
509.679	862.06
509.885	770.03
510.092	768.29
510.299	754.53
510.506	770.42
510.713	792.31
510.92	773.13
511.126	758.21
511.333	825.83
511.54	782.43
511.746	835.33
511.953	833.19
512.16	844.43
512.367	797.93
512.573	790.18
512.78	808.01
512.987	819.05
513.193	806.84
513.4	734.58
513.606	782.82
513.813	813.24
514.02	811.88
514.226	858.57
514.433	814.21
514.639	752.21
514.846	815.37
515.052	779.14
515.259	815.18
515.465	812.46
515.672	821.96
515.878	888.99
516.085	808.2
516.291	866.32
516.497	770.61
516.704	797.35
516.91	759.18
517.117	741.55
517.323	724.11
517.529	763.06
517.736	732.64
517.942	763.83
518.148	787.47
518.354	789.02
518.561	771.58
518.767	800.64
518.973	831.26
519.179	842.69
519.386	819.63
519.592	776.62
519.798	787.86
520.004	848.31
520.21	840.94
520.417	859.93
520.623	898.1
520.829	910.31
521.035	885.89
521.241	901.97
521.447	899.07
521.653	1010.09
521.859	903.14
522.065	936.07
522.271	1000.4
522.477	969.59
522.683	979.86
522.889	971.92
523.095	958.16
523.301	921.35
523.507	929.49
523.713	930.84
523.919	932.2
524.125	995.75
524.331	982.77
524.537	1058.13
524.742	1020.93
524.948	1034.5
525.154	1043.99
525.36	1118.2
525.566	1054.26
525.772	1071.7
525.977	983.35
526.183	1037.02
526.389	1066.66
526.595	1007.57
526.8	971.72
527.006	953.32
527.212	943.05
527.417	932
527.623	902.94
527.829	997.3
528.034	1025.39
528.24	1026.55
528.446	1007.76
528.651	1078.28
528.857	1061.23
529.062	1112.77
529.268	1062.4
529.473	1108.31
529.679	1118
529.884	1144.55
530.09	1119.75
530.295	1143.96
530.501	1109.28
530.706	1147.45
530.912	1100.76
531.117	1100.56
531.323	1145.13
531.528	1167.21
531.733	1174.19
531.939	1124.2
532.144	1172.45
532.35	1115.48
532.555	1179.81
532.76	1158.5
532.966	1166.63
533.171	1130.01
533.376	1118
533.581	1136.41
533.787	1139.9
533.992	1145.51
534.197	1207.9
534.402	1115.87
534.607	1171.48
534.813	1263.51
535.018	1161.21
535.223	1196.66
535.428	1125.75
535.633	1231.15
535.838	1196.08
536.043	1208.68
536.249	1310.78
536.454	1211.97
536.659	1247.04
536.864	1198.21
537.069	1217.98
537.274	1239.09
537.479	1210.03
537.684	1249.75
537.889	1200.93
538.094	1295.67
538.299	1224.18
538.504	1272.81
538.708	1252.85
538.913	1272.81
539.118	1239.48
539.323	1280.36
539.528	1232.51
539.733	1256.92
539.938	1255.56
540.142	1263.7
540.347	1243.16
540.552	1222.82
540.757	1217.59
540.962	1227.86
541.166	1191.82
541.371	1207.9
541.576	1257.11
541.781	1132.73
541.985	1258.66
542.19	1259.24
542.395	1297.02
542.599	1328.22
542.804	1296.06
543.008	1348.56
543.213	1253.24
543.418	1235.41
543.622	1308.84
543.827	1227.08
544.031	1315.82
544.236	1347.21
544.44	1314.66
544.645	1366.39
544.849	1303.61
545.054	1313.69
545.258	1406.1
545.463	1390.02
545.667	1292.18
545.872	1339.07
546.076	1338.87
546.281	1350.11
546.485	1282.49
546.689	1328.8
546.894	1353.79
547.098	1335.77
547.302	1281.72
547.507	1346.04
547.711	1352.05
547.915	1393.51
548.119	1284.62
548.324	1339.65
548.528	1368.32
548.732	1316.59
548.936	1364.25
549.141	1351.66
549.345	1316.01
549.549	1343.91
549.753	1337.32
549.957	1431.29
550.161	1412.89
550.366	1343.33
550.57	1318.14
550.774	1364.45
550.978	1318.92
551.182	1395.64
551.386	1336.55
551.59	1302.84
551.794	1323.37
551.998	1352.63
552.202	1359.61
552.406	1340.42
552.61	1382.66
552.814	1373.17
553.018	1421.22
553.222	1352.05
553.426	1362.9
553.63	1411.92
553.833	1349.72
554.037	1352.82
554.241	1408.43
554.445	1369.49
554.649	1340.62
554.853	1350.89
555.056	1378.59
555.26	1396.03
555.464	1380.92
555.668	1373.94
555.871	1416.95
556.075	1414.44
556.279	1361.74
556.483	1333.45
556.686	1362.51
556.89	1341.39
557.094	1362.9
557.297	1283.27
557.501	1373.36
557.704	1282.49
557.908	1398.94
558.112	1313.49
558.315	1403
558.519	1317.76
558.722	1285.21
558.926	1310.78
559.129	1288.5
559.333	1276.87
559.536	1238.9
559.74	1247.23
559.943	1228.44
560.147	1263.51
560.35	1251.88
560.553	1258.66
560.757	1236.19
560.96	1308.65
561.164	1266.99
561.367	1364.84
561.57	1255.37
561.774	1278.42
561.977	1284.24
562.18	1240.06
562.384	1334.22
562.587	1292.76
562.79	1266.99
562.993	1262.93
563.197	1323.96
563.4	1337.91
563.603	1289.66
563.806	1342.75
564.009	1251.69
564.212	1282.69
564.416	1191.04
564.619	1284.62
564.822	1205.38
565.025	1288.31
565.228	1227.66
565.431	1256.73
565.634	1160.24
565.837	1218.17
566.04	1187.75
566.243	1224.18
566.446	1120.91
566.649	1211.39
566.852	1136.8
567.055	1195.31
567.258	1193.18
567.461	1254.59
567.664	1205.96
567.867	1143
568.07	1195.31
568.273	1217.2
568.475	1211.78
568.678	1175.55
568.881	1148.23
569.084	1164.7
569.287	1081.97
569.489	1119.36
569.692	1144.55
569.895	1158.69
570.098	1058.72
570.3	1119.16
570.503	1068.21
570.706	1087.2
570.909	1099.21
571.111	1034.5
571.314	1011.05
571.516	1055.03
571.719	1075.57
571.922	1006.99
572.124	1062.2
572.327	1073.05
572.529	1017.83
572.732	1039.53
572.935	1048.64
573.137	1110.45
573.34	1034.88
573.542	1076.54
573.745	1036.24
573.947	1059.49
574.15	1084.1
574.352	1010.09
574.554	1094.37
574.757	1007.57
574.959	991.68
575.162	1034.69
575.364	1039.73
575.566	1112
575.769	975.4
575.971	1005.44
576.173	908.95
576.376	985.48
576.578	1006.4
576.78	1062.2
576.982	920.96
577.185	1016.48
577.387	941.11
577.589	952.35
577.791	997.69
577.993	1006.6
578.196	992.84
578.398	1009.5
578.6	1028.88
578.802	958.74
579.004	936.07
579.206	941.69
579.408	965.72
579.61	962.81
579.812	980.25
580.014	972.69
580.216	926
580.418	932
580.62	946.54
580.822	906.62
581.024	964.55
581.226	1011.83
581.428	956.42
581.63	1022.48
581.832	950.99
582.034	993.42
582.236	987.8
582.438	980.25
582.64	1023.84
582.841	1019.58
583.043	1074.99
583.245	974.05
583.447	1020.35
583.649	989.94
583.85	1007.76
584.052	1020.93
584.254	964.94
584.456	1040.7
584.657	963.2
584.859	983.54
585.061	980.05
585.262	959.32
585.464	942.66
585.666	1014.93
585.867	945.95
586.069	1009.12
586.27	952.35
586.472	963.78
586.674	941.3
586.875	959.13
587.077	952.54
587.278	961.26
587.48	945.18
587.681	1057.55
587.883	979.86
588.084	898.29
588.285	915.92
588.487	917.28
588.688	937.04
588.89	870.97
589.091	845.4
589.292	867.49
589.494	831.64
589.695	846.56
589.896	780.88
590.098	794.25
590.299	848.69
590.5	808.78
590.702	867.29
590.903	824.48
591.104	893.45
591.305	874.66
591.507	902.36
591.708	896.36
591.909	877.17
592.11	938.4
592.311	913.21
592.512	903.52
592.714	847.53
592.915	827.77
593.116	881.05
593.317	872.14
593.518	850.63
593.719	867.68
593.92	900.23
594.121	922.9
594.322	898.29
594.523	881.24
594.724	872.33
594.925	850.82
595.126	880.47
595.327	905.66
595.528	907.59
595.729	869.81
595.929	853.92
596.13	878.92
596.331	879.69
596.532	879.89
596.733	898.29
596.934	902.36
597.135	919.99
597.335	925.8
597.536	862.84
597.737	886.67
597.938	912.05
598.138	918.06
598.339	864.58
598.54	914.96
598.74	899.65
598.941	883.37
599.142	924.26
599.342	904.88
599.543	853.15
599.744	910.11
599.944	871.56
600.145	870.39
600.345	836.29
600.546	964.75
600.746	907.98
600.947	959.71
601.147	881.82
601.348	897.91
601.548	845.21
601.749	894.22
601.949	840.75
602.15	845.01
602.35	845.21
602.551	913.02
602.751	845.79
602.951	849.08
603.152	833.97
603.352	884.34
603.552	841.91
603.753	906.82
603.953	896.16
604.153	883.18
604.354	881.82
604.554	882.79
604.754	864.19
604.954	845.98
605.155	884.15
605.355	882.02
605.555	895.77
605.755	905.07
605.955	884.34
606.155	900.81
606.356	898.29
606.556	904.49
606.756	900.23
606.956	831.64
607.156	920.57
607.356	851.99
607.556	876.79
607.756	865.74
607.956	904.11
608.156	889.19
608.356	831.64
608.556	884.34
608.756	856.06
608.956	824.67
609.156	875.24
609.356	813.04
609.556	811.49
609.755	836.88
609.955	825.83
610.155	844.62
610.355	871.75
610.555	823.31
610.755	840.56
610.954	812.85
611.154	867.68
611.354	859.35
611.554	803.36
611.753	839.39
611.953	800.26
612.153	852.18
612.352	843.66
612.552	774.1
612.752	748.14
612.951	808.59
613.151	832.42
613.351	788.83
613.55	829.32
613.75	833.78
613.949	792.7
614.149	795.03
614.348	827.96
614.548	766.93
614.747	760.54
614.947	762.67
615.146	734
615.346	808.98
615.545	821.57
615.745	797.93
615.944	825.44
616.144	810.53
616.343	797.16
616.542	758.99
616.742	777.2
616.941	766.16
617.14	754.92
617.34	766.16
617.539	782.04
617.738	735.35
617.938	833.58
618.137	743.68
618.336	721.79
618.535	768.48
618.734	771.39
618.934	792.12
619.133	759.76
619.332	802.58
619.531	743.49
619.73	792.31
619.929	779.14
620.128	779.14
620.328	813.82
620.527	762.28
620.726	791.93
620.925	780.88
621.124	769.84
621.323	769.06
621.522	717.33
621.721	714.62
621.92	719.08
