Data from oakcork_FLMT105791__257__17-33-28-054.txt Node

Date: Mon Mar 20 17:33:28 GMT 2023
User: antho
Spectrometer: FLMT10579
Trigger mode: 0
Integration Time (sec): 1.000000E-1
Scans to average: 10
Electric dark correction enabled: true
Nonlinearity correction enabled: false
Boxcar width: 0
XAxis mode: Wavelengths
Number of Pixels in Spectrum: 3648
>>>>>Begin Spectral Data<<<<<
345.248	-137.19
345.464	-137.19
345.681	-137.19
345.898	-154.05
346.114	-154.63
346.331	-43.61
346.548	29.05
346.764	-5.25
346.981	4.63
347.197	-30.05
347.414	24.78
347.631	-14.74
347.847	67.21
348.064	11.03
348.28	8.9
348.497	-43.03
348.713	-8.93
348.93	25.75
349.146	31.76
349.363	9.48
349.579	35.25
349.796	-3.89
350.012	-6.22
350.229	41.45
350.445	-8.73
350.661	-20.55
350.878	3.28
351.094	-5.63
351.311	28.08
351.527	49.39
351.743	-18.03
351.96	28.08
352.176	28.85
352.392	45.71
352.609	45.32
352.825	-7.57
353.041	10.83
353.257	21.1
353.474	5.6
353.69	25.36
353.906	49.2
354.122	-4.86
354.339	55.59
354.555	5.41
354.771	1.34
354.987	68.57
355.203	74.58
355.42	2.7
355.636	35.83
355.852	-18.62
356.068	27.69
356.284	-24.82
356.5	44.55
356.716	44.16
356.932	13.93
357.148	42.8
357.364	14.51
357.58	53.85
357.796	70.9
358.012	37.76
358.228	32.53
358.444	-23.85
358.66	55.2
358.876	15.1
359.092	5.02
359.308	-2.73
359.524	22.85
359.74	19.55
359.956	-11.83
360.172	10.25
360.388	67.6
360.604	-5.25
360.819	70.7
361.035	23.04
361.251	38.73
361.467	-6.02
361.683	72.83
361.898	24.2
362.114	23.43
362.33	3.08
362.546	48.23
362.762	17.81
362.977	18.2
363.193	11.03
363.409	29.43
363.624	-21.33
363.84	-18.03
364.056	-5.63
364.271	47.65
364.487	38.93
364.703	-7.57
364.918	-31.6
365.134	18.2
365.35	12.38
365.565	72.06
365.781	17.81
365.996	30.79
366.212	61.98
366.427	25.75
366.643	9.48
366.858	-16.68
367.074	10.45
367.289	61.21
367.505	117.98
367.72	-41.48
367.936	22.07
368.151	60.43
368.367	36.8
368.582	4.63
368.798	2.12
369.013	64.7
369.228	5.8
369.444	19.75
369.659	74.58
369.874	38.93
370.09	55.2
370.305	-20.75
370.52	-9.32
370.736	59.85
370.951	20.13
371.166	55.59
371.381	54.23
371.597	32.15
371.812	-13
372.027	-21.13
372.242	-4.86
372.458	71.28
372.673	2.7
372.888	11.03
373.103	47.26
373.318	107.32
373.533	44.35
373.749	41.83
373.964	-1.57
374.179	72.64
374.394	-16.87
374.609	62.18
374.824	-14.93
375.039	41.45
375.254	-0.6
375.469	79.81
375.684	16.45
375.899	62.18
376.114	55.2
376.329	38.35
376.544	65.47
376.759	53.65
376.974	21.88
377.189	51.33
377.404	8.7
377.619	57.33
377.834	-21.33
378.049	3.86
378.264	-10.09
378.478	48.81
378.693	-6.22
378.908	47.65
379.123	24.98
379.338	71.48
379.553	34.86
379.767	51.33
379.982	64.31
380.197	57.14
380.412	24.59
380.626	69.35
380.841	105.19
381.056	35.05
381.271	84.65
381.485	-2.73
381.7	6.38
381.915	42.41
382.129	30.21
382.344	17.23
382.559	16.45
382.773	59.46
382.988	-6.99
383.202	20.52
383.417	4.63
383.632	90.66
383.846	60.63
384.061	12.96
384.275	8.12
384.49	67.41
384.704	63.73
384.919	15.68
385.133	19.75
385.348	68.96
385.562	12.38
385.777	68.18
385.991	32.34
386.206	36.21
386.42	18.58
386.634	49.97
386.849	36.41
387.063	42.61
387.277	8.51
387.492	19.55
387.706	-6.02
387.92	-4.86
388.135	60.24
388.349	55.4
388.563	30.4
388.778	52.1
388.992	47.26
389.206	36.6
389.42	90.27
389.635	37.38
389.849	28.66
390.063	97.83
390.277	45.51
390.491	105.77
390.706	40.48
390.92	90.08
391.134	37.57
391.348	57.53
391.562	-21.52
391.776	10.45
391.99	20.52
392.205	63.73
392.419	17.23
392.633	28.85
392.847	83.68
393.061	19.16
393.275	85.23
393.489	36.41
393.703	39.9
393.917	81.75
394.131	20.71
394.345	38.15
394.559	85.81
394.773	50.16
394.986	43
395.2	43.38
395.414	86.4
395.628	12.77
395.842	58.11
396.056	51.91
396.27	7.35
396.484	73.22
396.697	62.95
396.911	82.52
397.125	67.21
397.339	90.46
397.553	51.33
397.766	79.03
397.98	72.64
398.194	79.81
398.408	27.69
398.621	65.86
398.835	87.75
399.049	61.4
399.262	88.14
399.476	83.68
399.69	88.53
399.903	145.88
400.117	58.3
400.331	90.27
400.544	41.45
400.758	150.72
400.971	79.42
401.185	89.5
401.398	38.15
401.612	118.56
401.826	110.61
402.039	121.66
402.253	36.21
402.466	104.8
402.68	70.9
402.893	99.38
403.106	73.41
403.32	88.53
403.533	102.48
403.747	61.98
403.96	88.91
404.174	92.01
404.387	47.26
404.6	89.5
404.814	109.84
405.027	93.95
405.24	124.95
405.454	48.23
405.667	113.52
405.88	45.32
406.094	79.23
406.307	124.76
406.52	92.4
406.733	56.36
406.947	23.04
407.16	147.62
407.373	126.31
407.586	78.26
407.799	52.3
408.012	127.28
408.226	108.09
408.439	136.19
408.652	28.66
408.865	87.95
409.078	137.93
409.291	92.01
409.504	65.08
409.717	111
409.93	132.7
410.143	105.77
410.357	50.94
410.57	38.54
410.783	63.92
410.996	97.63
411.209	75.35
411.421	118.94
411.634	112.94
411.847	93.18
412.06	90.08
412.273	115.26
412.486	96.47
412.699	190.82
412.912	102.67
413.125	117.98
413.338	72.25
413.55	130.18
413.763	93.95
413.976	99.38
414.189	93.37
414.402	81.55
414.615	176.68
414.827	79.81
415.04	145.29
415.253	111.58
415.466	121.27
415.678	155.18
415.891	121.66
416.104	83.68
416.316	105.96
416.529	86.01
416.742	135.41
416.954	142.58
417.167	110.23
417.38	80.97
417.592	138.9
417.805	81.55
418.017	48.81
418.23	137.54
418.442	89.11
418.655	78.26
418.868	75.55
419.08	149.56
419.293	149.75
419.505	150.72
419.718	122.24
419.93	113.91
420.142	85.62
420.355	141.61
420.567	154.21
420.78	145.68
420.992	127.08
421.205	165.83
421.417	80.78
421.629	113.33
421.842	88.14
422.054	59.85
422.266	130.38
422.479	147.62
422.691	122.82
422.903	135.41
423.115	91.63
423.328	116.62
423.54	120.11
423.752	120.49
423.964	98.99
424.177	127.08
424.389	122.63
424.601	201.29
424.813	137.16
425.025	148.01
425.238	148.78
425.45	116.62
425.662	115.65
425.874	380.12
426.086	123.79
426.298	132.31
426.51	161.76
426.722	101.51
426.934	122.82
427.146	127.66
427.358	103.25
427.57	151.11
427.782	130.76
427.994	153.43
428.206	117.2
428.418	83.1
428.63	131.54
428.842	147.62
429.054	135.03
429.266	150.72
429.478	130.96
429.69	141.61
429.902	86.2
430.114	145.68
430.325	126.89
430.537	93.37
430.749	112.94
430.961	84.07
431.173	132.31
431.384	154.01
431.596	47.84
431.808	108.87
432.02	135.8
432.231	169.71
432.443	163.51
432.655	154.4
432.867	106.74
433.078	154.59
433.29	207.49
433.502	180.36
433.713	187.53
433.925	160.21
434.136	187.92
434.348	109.26
434.56	97.05
434.771	225.12
434.983	102.67
435.194	133.09
435.406	155.18
435.617	145.88
435.829	196.25
436.04	204.58
436.252	180.36
436.463	216.01
436.675	183.27
436.886	204.77
437.098	153.04
437.309	208.46
437.521	162.93
437.732	182.49
437.943	148.78
438.155	153.43
438.366	134.44
438.578	222.79
438.789	186.17
439	198.77
439.211	155.76
439.423	185.21
439.634	196.44
439.845	210.01
440.057	192.76
440.268	210.59
440.479	158.08
440.69	191.21
440.902	149.17
441.113	179.39
441.324	174.74
441.535	206.13
441.746	229.96
441.957	147.23
442.168	203.42
442.38	198.77
442.591	254.96
442.802	188.5
443.013	179.39
443.224	222.02
443.435	177.26
443.646	183.66
443.857	194.12
444.068	185.79
444.279	175.52
444.49	241.39
444.701	191.99
444.912	267.94
445.123	235.58
445.334	217.76
445.545	212.14
445.756	203.03
445.967	184.24
446.178	224.34
446.388	227.25
446.599	236.36
446.81	236.74
447.021	210.59
447.232	218.53
447.443	247.4
447.653	177.46
447.864	242.17
448.075	216.59
448.286	228.22
448.496	247.59
448.707	254.96
448.918	214.66
449.129	304.17
449.339	205.36
449.55	228.41
449.761	239.46
449.971	252.05
450.182	203.42
450.393	243.72
450.603	210.2
450.814	284.99
451.024	259.41
451.235	256.7
451.446	273.55
451.656	302.23
451.867	212.72
452.077	260.57
452.288	287.31
452.498	339.04
452.709	232.29
452.919	255.34
453.13	229.77
453.34	264.64
453.55	193.34
453.761	269.68
453.971	254.57
454.182	252.05
454.392	263.87
454.602	299.71
454.813	280.34
455.023	280.53
455.233	218.92
455.444	274.52
455.654	178.43
455.864	262.32
456.075	253.99
456.285	224.15
456.495	247.4
456.705	282.66
456.916	300.49
457.126	327.03
457.336	240.23
457.546	202.84
457.756	223.57
457.967	291.19
458.177	253.79
458.387	278.98
458.597	241.78
458.807	251.27
459.017	235.19
459.227	216.01
459.437	253.79
459.647	265.42
459.857	285.76
460.068	244.49
460.278	320.25
460.488	273.55
460.698	308.82
460.908	265.03
461.117	231.51
461.327	262.71
461.537	282.47
461.747	281.11
461.957	266.39
462.167	364.23
462.377	316.95
462.587	272.97
462.797	298.16
463.007	281.3
463.216	316.76
463.426	341.56
463.636	316.95
463.846	254.76
464.056	242.75
464.265	320.05
464.475	264.64
464.685	290.6
464.895	284.21
465.104	274.52
465.314	324.32
465.524	283.44
465.733	232.29
465.943	358.8
466.153	365.39
466.362	331.29
466.572	315.6
466.782	276.27
466.991	312.5
467.201	339.82
467.41	239.65
467.62	348.73
467.829	271.62
468.039	317.34
468.249	296.42
468.458	316.18
468.668	310.75
468.877	323.54
469.086	381.86
469.296	348.54
469.505	303.97
469.715	343.5
469.924	340.98
470.134	385.15
470.343	346.4
470.552	305.33
470.762	315.6
470.971	306.69
471.18	355.9
471.39	327.42
471.599	291.57
471.808	350.86
472.018	320.64
472.227	369.85
472.436	384.77
472.645	352.41
472.855	322.38
473.064	388.25
473.273	367.33
473.482	356.48
473.691	386.12
473.901	380.7
474.11	363.65
474.319	444.83
474.528	357.06
474.737	403.56
474.946	383.02
475.155	379.34
475.364	408.21
475.573	401.62
475.783	368.3
475.992	369.85
476.201	404.92
476.41	363.45
476.619	372.95
476.828	380.12
477.037	379.92
477.245	384.77
477.454	413.63
477.663	391.35
477.872	391.16
478.081	460.71
478.29	364.81
478.499	497.72
478.708	415.57
478.917	495.4
479.125	415.38
479.334	426.62
479.543	412.47
479.752	439.98
479.961	418.09
480.169	460.33
480.378	415.57
480.587	545.96
480.796	472.92
481.004	452
481.213	474.28
481.422	451.03
481.63	459.36
481.839	502.76
482.048	536.86
482.256	467.5
482.465	458.2
482.674	478.35
482.882	476.8
483.091	539.76
483.299	479.9
483.508	503.34
483.716	481.06
483.925	491.13
484.134	463.04
484.342	474.86
484.551	509.15
484.759	512.83
484.967	510.31
485.176	538.99
485.384	522.91
485.593	551.39
485.801	529.69
486.01	513.22
486.218	461.49
486.426	411.7
486.635	475.63
486.843	455.29
487.051	455.68
487.26	477.76
487.468	493.26
487.676	505.47
487.885	483.96
488.093	512.06
488.301	515.55
488.509	556.81
488.717	570.76
488.926	527.75
489.134	512.06
489.342	545.77
489.55	519.03
489.758	541.31
489.967	519.23
490.175	654.07
490.383	522.33
490.591	615.33
490.799	537.05
491.007	629.86
491.215	590.53
491.423	566.89
491.631	566.69
491.839	581.03
492.047	597.11
492.255	525.62
492.463	520
492.671	558.94
492.879	609.13
493.087	552.16
493.295	610.87
493.503	603.12
493.711	619.78
493.919	614.36
494.127	613.58
494.334	631.41
494.542	587.62
494.75	629.47
494.958	604.09
495.166	654.46
495.374	599.44
495.581	595.37
495.789	607.96
495.997	669.96
496.205	609.51
496.412	588.39
496.62	626.56
496.828	617.65
497.035	632.57
497.243	667.06
497.451	606.99
497.658	644.77
497.866	627.72
498.074	665.89
498.281	594.21
498.489	708.71
498.696	654.07
498.904	613
499.112	611.45
499.319	698.64
499.527	647.68
499.734	703.87
499.942	611.26
500.149	630.63
500.357	646.71
500.564	602.54
500.771	666.28
500.979	600.41
501.186	626.56
501.394	646.32
501.601	655.62
501.808	652.72
502.016	638.38
502.223	658.92
502.43	646.52
502.638	623.07
502.845	630.63
503.052	699.02
503.26	612.81
503.467	691.08
503.674	643.22
503.881	678.1
504.089	718.2
504.296	701.93
504.503	618.23
504.71	669.19
504.917	660.08
505.125	653.11
505.332	673.45
505.539	687.59
505.746	738.55
505.953	706.19
506.16	713.94
506.367	756.95
506.574	743
506.781	730.22
506.988	683.91
507.195	694.57
507.402	691.66
507.609	720.92
507.816	700.38
508.023	673.45
508.23	672.67
508.437	664.73
508.644	696.31
508.851	744.94
509.058	730.6
509.265	734.87
509.472	738.16
509.679	803.65
509.885	724.99
510.092	743.2
510.299	723.24
510.506	734.48
510.713	722.66
510.92	737.19
511.126	711.42
511.333	780.4
511.54	766.25
511.746	798.22
511.953	795.32
512.16	834.84
512.367	753.66
512.573	766.45
512.78	767.8
512.987	775.36
513.193	778.46
513.4	708.13
513.606	755.21
513.813	783.3
514.02	798.42
514.226	839.49
514.433	804.23
514.639	740.1
514.846	775.55
515.052	746.88
515.259	790.09
515.465	771.1
515.672	780.59
515.878	854.8
516.085	789.7
516.291	817.6
516.497	765.09
516.704	757.92
516.91	749.79
517.117	700.38
517.323	681.97
517.529	709.1
517.736	721.5
517.942	736.61
518.148	746.3
518.354	746.49
518.561	757.15
518.767	772.84
518.973	793.19
519.179	813.53
519.386	761.02
519.592	786.21
519.798	784.66
520.004	862.35
520.21	795.12
520.417	840.07
520.623	854.02
520.829	872.43
521.035	841.82
521.241	848.6
521.447	876.5
521.653	961.36
521.859	859.06
522.065	891.61
522.271	930.94
522.477	902.85
522.683	961.36
522.889	894.51
523.095	877.27
523.301	907.69
523.507	903.81
523.713	923.96
523.919	855.77
524.125	941.6
524.331	913.89
524.537	987.9
524.742	943.15
524.948	954.38
525.154	946.05
525.36	1062.3
525.566	957.68
525.772	1047.38
525.977	933.65
526.183	989.45
526.389	971.82
526.595	934.62
526.8	947.21
527.006	929.58
527.212	895.1
527.417	851.7
527.623	873.4
527.829	965.04
528.034	938.5
528.24	974.34
528.446	953.61
528.651	1011.93
528.857	994.68
529.062	1057.84
529.268	1021.03
529.473	1024.71
529.679	990.03
529.884	1103.76
530.09	1040.6
530.295	1087.49
530.501	1074.12
530.706	1050.48
530.912	1024.91
531.117	1064.62
531.323	1092.72
531.528	1085.74
531.733	1108.22
531.939	1075.86
532.144	1119.84
532.35	1070.82
532.555	1127.21
532.76	1094.85
532.966	1122.36
533.171	1092.14
533.376	1076.25
533.581	997.01
533.787	1074.7
533.992	1109.57
534.197	1136.12
534.402	1069.66
534.607	1088.07
534.813	1194.44
535.018	1076.64
535.223	1092.52
535.428	1113.45
535.633	1180.87
535.838	1183.78
536.043	1150.07
536.249	1228.54
536.454	1137.86
536.659	1183.39
536.864	1128.17
537.069	1142.12
537.274	1128.95
537.479	1135.34
537.684	1153.36
537.889	1129.92
538.094	1223.11
538.299	1169.83
538.504	1166.73
538.708	1158.98
538.913	1180.68
539.118	1187.46
539.323	1199.09
539.528	1134.96
539.733	1131.27
539.938	1179.13
540.142	1200.05
540.347	1179.71
540.552	1156.46
540.757	1148.52
540.962	1152.2
541.166	1125.27
541.371	1147.74
541.576	1181.07
541.781	1097.17
541.985	1194.82
542.19	1188.04
542.395	1237.45
542.599	1252.95
542.804	1195.21
543.008	1248.49
543.213	1162.27
543.418	1147.35
543.622	1232.41
543.827	1151.81
544.031	1210.9
544.236	1253.53
544.44	1214.2
544.645	1290.73
544.849	1239.58
545.054	1256.82
545.258	1279.1
545.463	1312.43
545.667	1230.86
545.872	1289.95
546.076	1235.12
546.281	1225.82
546.485	1189.79
546.689	1274.45
546.894	1300.03
547.098	1263.99
547.302	1223.89
547.507	1232.8
547.711	1252.75
547.915	1286.27
548.119	1208.39
548.324	1212.07
548.528	1325.6
548.732	1281.62
548.936	1286.08
549.141	1293.83
549.345	1260.89
549.549	1280.27
549.753	1231.83
549.957	1321.34
550.161	1325.99
550.366	1282.98
550.57	1238.22
550.774	1279.1
550.978	1250.23
551.182	1271.55
551.386	1255.27
551.59	1285.5
551.794	1268.06
551.998	1282.01
552.202	1256.63
552.406	1223.69
552.61	1300.03
552.814	1286.85
553.018	1321.15
553.222	1247.33
553.426	1264.77
553.63	1334.13
553.833	1259.15
554.037	1245.39
554.241	1297.7
554.445	1308.94
554.649	1286.47
554.853	1252.75
555.056	1323.08
555.26	1310.88
555.464	1303.71
555.668	1322.11
555.871	1324.63
556.075	1359.31
556.279	1258.57
556.483	1262.44
556.686	1294.02
556.89	1288.6
557.094	1305.65
557.297	1221.37
557.501	1311.07
557.704	1234.15
557.908	1307
558.112	1230.47
558.315	1311.85
558.519	1257.02
558.722	1244.23
558.926	1220.4
559.129	1182.23
559.333	1206.64
559.536	1170.8
559.74	1200.05
559.943	1158.4
560.147	1186.69
560.35	1206.84
560.553	1208.77
560.757	1165.18
560.96	1231.63
561.164	1195.99
561.367	1283.17
561.57	1233.18
561.774	1249.07
561.977	1232.22
562.18	1187.46
562.384	1288.4
562.587	1228.73
562.79	1178.16
562.993	1190.37
563.197	1234.73
563.4	1259.73
563.603	1242.68
563.806	1292.28
564.009	1182.62
564.212	1198.5
564.416	1177.39
564.619	1196.57
564.822	1144.84
565.025	1229.5
565.228	1166.54
565.431	1209.35
565.634	1090.78
565.837	1145.22
566.04	1150.07
566.243	1101.63
566.446	1026.26
566.649	1153.94
566.852	1104.15
567.055	1098.53
567.258	1142.32
567.461	1169.05
567.664	1166.15
567.867	1099.5
568.07	1129.53
568.273	1161.89
568.475	1154.33
568.678	1103.57
568.881	1112.67
569.084	1117.13
569.287	1021.61
569.489	1044.86
569.692	1102.6
569.895	1122.75
570.098	1030.72
570.3	1021.81
570.503	970.66
570.706	1007.86
570.909	1008.63
571.111	1006.69
571.314	980.15
571.516	1010.38
571.719	1023.36
571.922	988.68
572.124	982.09
572.327	1010.38
572.529	948.18
572.732	982.67
572.935	1029.75
573.137	1063.27
573.34	990.42
573.542	1022.58
573.745	1031.3
573.947	1041.57
574.15	991.39
574.352	985.77
574.554	1032.46
574.757	991.78
574.959	952.64
575.162	952.06
575.364	953.61
575.566	1076.06
575.769	915.83
575.971	996.04
576.173	890.83
576.376	962.52
576.578	996.23
576.78	1003.4
576.982	875.14
577.185	941.4
577.387	914.47
577.589	915.25
577.791	935.01
577.993	965.81
578.196	923.58
578.398	954
578.6	966.2
578.802	895.29
579.004	901.88
579.206	907.88
579.408	980.93
579.61	933.26
579.812	951.86
580.014	902.65
580.216	924.35
580.418	947.6
580.62	923.77
580.822	881.73
581.024	957.68
581.226	956.9
581.428	907.69
581.63	978.99
581.832	905.75
582.034	964.26
582.236	942.56
582.438	966.59
582.64	951.86
582.841	993.91
583.043	1033.04
583.245	970.66
583.447	948.38
583.649	934.81
583.85	967.56
584.052	964.46
584.254	931.33
584.456	998.17
584.657	909.05
584.859	954.38
585.061	912.34
585.262	935.4
585.464	905.17
585.666	925.13
585.867	905.17
586.069	974.53
586.27	919.9
586.472	961.75
586.674	914.86
586.875	905.56
587.077	898.97
587.278	920.48
587.48	922.03
587.681	1008.44
587.883	961.55
588.084	856.93
588.285	873.78
588.487	871.27
588.688	897.42
588.89	833.48
589.091	832.71
589.292	856.15
589.494	799.19
589.695	806.36
589.896	736.61
590.098	708.71
590.299	818.37
590.5	768.77
590.702	783.69
590.903	807.13
591.104	867.2
591.305	842.4
591.507	905.56
591.708	853.05
591.909	834.84
592.11	895.29
592.311	887.35
592.512	857.12
592.714	799.97
592.915	794.35
593.116	813.92
593.317	834.26
593.518	846.85
593.719	840.27
593.92	877.85
594.121	896.26
594.322	846.85
594.523	853.83
594.724	816.43
594.925	844.72
595.126	835.62
595.327	873.01
595.528	848.98
595.729	848.4
595.929	863.71
596.13	824.77
596.331	847.24
596.532	851.89
596.733	889.86
596.934	856.54
597.135	900.13
597.335	871.85
597.536	814.3
597.737	861.58
597.938	818.18
598.138	849.76
598.339	874.37
598.54	867
598.74	840.85
598.941	861
599.142	888.51
599.342	867.78
599.543	806.36
599.744	825.35
599.944	870.68
600.145	831.93
600.345	844.72
600.546	892.58
600.746	885.02
600.947	929.78
601.147	873.78
601.348	878.82
601.548	822.83
601.749	861.97
601.949	827.28
602.15	806.94
602.35	844.14
602.551	871.27
602.751	825.35
602.951	818.76
603.152	770.32
603.352	858.48
603.552	856.15
603.753	883.66
603.953	861.38
604.153	823.8
604.354	824.77
604.554	830.77
604.754	855.96
604.954	815.47
605.155	869.13
605.355	798.8
605.555	883.66
605.755	888.9
605.955	873.78
606.155	901.49
606.356	821.47
606.556	879.6
606.756	854.8
606.956	785.24
607.156	884.05
607.356	797.64
607.556	829.8
607.756	842.59
607.956	874.75
608.156	846.85
608.356	818.57
608.556	863.9
608.756	856.73
608.956	821.08
609.156	828.45
609.356	809.07
609.556	770.71
609.755	814.69
609.955	783.89
610.155	828.83
610.355	838.72
610.555	792.02
610.755	831.93
610.954	781.17
611.154	818.18
611.354	834.84
611.554	774.39
611.753	801.13
611.953	740.1
612.153	804.81
612.352	801.32
612.552	730.02
612.752	733.9
612.951	803.26
613.151	771.29
613.351	768.97
613.55	792.99
613.75	786.6
613.949	792.41
614.149	821.67
614.348	797.06
614.548	728.86
614.747	747.46
614.947	765.29
615.146	704.06
615.346	799.19
615.545	790.28
615.745	774
615.944	804.62
616.144	781.17
616.343	794.15
616.542	774.39
616.742	752.69
616.941	761.02
617.14	681.97
617.34	729.64
617.539	759.28
617.738	735.25
617.938	800.35
618.137	717.43
618.336	731.38
618.535	789.7
618.734	763.74
618.934	750.17
619.133	764.7
619.332	759.86
619.531	733.9
619.73	736.03
619.929	765.09
620.128	762.38
620.328	786.21
620.527	754.63
620.726	764.51
620.925	770.71
621.124	718.98
621.323	750.37
621.522	721.69
621.721	715.49
621.92	730.22
622.119	737.58
622.318	716.27
622.517	730.02
622.715	749.4
