Data from oakcork_FLMT105791__277__17-34-23-052.txt Node

Date: Mon Mar 20 17:34:23 GMT 2023
User: antho
Spectrometer: FLMT10579
Trigger mode: 0
Integration Time (sec): 1.000000E-1
Scans to average: 10
Electric dark correction enabled: true
Nonlinearity correction enabled: false
Boxcar width: 0
XAxis mode: Wavelengths
Number of Pixels in Spectrum: 3648
>>>>>Begin Spectral Data<<<<<
345.248	-158.52
345.464	-158.52
345.681	-158.52
345.898	-137.01
346.114	-151.54
346.331	-26.38
346.548	25.93
346.764	-28.9
346.981	-7.2
347.197	-33.36
347.414	24.38
347.631	-16.5
347.847	65.26
348.064	4.42
348.28	17.4
348.497	-9.91
348.713	-15.14
348.93	28.45
349.146	2.87
349.363	-4.29
349.579	15.85
349.796	-9.91
350.012	-24.83
350.229	35.42
350.445	-11.27
350.661	-3.13
350.878	-1.39
351.094	30.58
351.311	27.29
351.527	33.49
351.743	21.09
351.96	48.02
352.176	29.22
352.392	27.48
352.609	24.57
352.825	-1.39
353.041	2.87
353.257	0.36
353.474	-0.23
353.69	12.95
353.906	-13.98
354.122	-6.23
354.339	59.84
354.555	-13.98
354.771	-22.51
354.987	44.72
355.203	55.19
355.42	2.68
355.636	5.78
355.852	-25.61
356.068	15.66
356.284	-23.28
356.5	53.25
356.716	13.72
356.932	8.49
357.148	0.16
357.364	47.44
357.58	22.05
357.796	36.59
358.012	59.84
358.228	2.29
358.444	-58.16
358.66	35.23
358.876	17.99
359.092	-5.46
359.308	12.37
359.524	28.25
359.74	-7.78
359.956	-4.88
360.172	29.8
360.388	32.32
360.604	5.2
360.819	69.52
361.035	11.21
361.251	13.34
361.467	1.13
361.683	59.25
361.898	14.31
362.114	38.72
362.33	10.04
362.546	30.97
362.762	19.34
362.977	22.05
363.193	-37.43
363.409	18.37
363.624	-25.41
363.84	2.29
364.056	-0.03
364.271	21.47
364.487	26.7
364.703	-0.23
364.918	-13.59
365.134	20.7
365.35	1.13
365.565	102.46
365.781	-0.23
365.996	22.83
366.212	84.25
366.427	13.53
366.643	-12.24
366.858	15.85
367.074	-19.02
367.289	59.25
367.505	93.35
367.72	-43.43
367.936	16.82
368.151	36.59
368.367	17.6
368.582	27.67
368.798	27.67
369.013	65.84
369.228	-3.13
369.444	8.3
369.659	36.97
369.874	35.04
370.09	43.95
370.305	-53.7
370.52	-34.91
370.736	43.75
370.951	11.21
371.166	62.16
371.381	62.94
371.597	48.6
371.812	-30.26
372.027	4.81
372.242	-0.03
372.458	78.24
372.673	9.46
372.888	14.89
373.103	23.8
373.318	89.48
373.533	47.63
373.749	24.19
373.964	-34.71
374.179	72.82
374.394	-0.23
374.609	48.99
374.824	-14.76
375.039	81.34
375.254	21.47
375.469	70.3
375.684	26.12
375.899	54.8
376.114	-7.59
376.329	42.4
376.544	44.72
376.759	60.42
376.974	-5.26
377.189	0.74
377.404	20.5
377.619	56.35
377.834	-26.19
378.049	-7.98
378.264	-28.9
378.478	6.56
378.693	5.59
378.908	27.87
379.123	-2.74
379.338	41.04
379.553	25.54
379.767	-3.33
379.982	55.77
380.197	35.04
380.412	29.22
380.626	42.2
380.841	79.4
381.056	38.33
381.271	85.99
381.485	9.46
381.7	-4.68
381.915	49.37
382.129	3.84
382.344	47.63
382.559	19.15
382.773	72.62
382.988	-10.88
383.202	25.74
383.417	-16.31
383.632	86.96
383.846	34.45
384.061	25.35
384.275	-7.39
384.49	16.05
384.704	27.48
384.919	2.87
385.133	48.4
385.348	33.29
385.562	-8.36
385.777	59.45
385.991	13.53
386.206	25.74
386.42	-14.76
386.634	48.99
386.849	42.4
387.063	39.1
387.277	6.56
387.492	7.14
387.706	4.23
387.92	-9.33
388.135	42.79
388.349	40.46
388.563	31.55
388.778	35.81
388.992	61.39
389.206	65.65
389.42	85.8
389.635	30.39
389.849	50.54
390.063	56.93
390.277	41.82
390.491	80.37
390.706	39.88
390.92	36
391.134	27.29
391.348	54.41
391.562	-8.94
391.776	20.89
391.99	-2.55
392.205	74.75
392.419	-0.42
392.633	6.17
392.847	54.99
393.061	16.44
393.275	72.24
393.489	43.37
393.703	41.82
393.917	94.52
394.131	6.94
394.345	49.95
394.559	34.84
394.773	-10.3
394.986	35.04
395.2	34.84
395.414	67.78
395.628	-1.58
395.842	51.12
396.056	20.31
396.27	-4.68
396.484	43.56
396.697	20.5
396.911	86.38
397.125	70.1
397.339	60.22
397.553	53.83
397.766	90.06
397.98	79.99
398.194	101.1
398.408	40.46
398.621	66.81
398.835	51.5
399.049	40.27
399.262	75.53
399.476	92.39
399.69	59.45
399.903	92.58
400.117	36.97
400.331	73.79
400.544	25.54
400.758	125.32
400.971	67.39
401.185	83.86
401.398	16.82
401.612	75.53
401.826	75.72
402.039	69.91
402.253	32.52
402.466	90.45
402.68	28.64
402.893	39.49
403.106	65.07
403.32	54.6
403.533	77.08
403.747	51.7
403.96	35.42
404.174	78.44
404.387	11.01
404.6	53.83
404.814	100.33
405.027	49.95
405.24	36.78
405.454	69.33
405.667	103.23
405.88	-6.43
406.094	57.32
406.307	74.37
406.52	46.47
406.733	9.66
406.947	-5.84
407.16	112.34
407.373	102.46
407.586	42.98
407.799	-1.78
408.012	81.34
408.226	57.32
408.439	112.15
408.652	24.57
408.865	61.77
409.078	77.85
409.291	59.84
409.504	23.8
409.717	82.31
409.93	89.87
410.143	78.63
410.357	16.05
410.57	63.32
410.783	38.33
410.996	72.24
411.209	56.35
411.421	57.32
411.634	53.05
411.847	46.47
412.06	66.04
412.273	57.7
412.486	66.81
412.699	141.21
412.912	56.15
413.125	67.39
413.338	61.77
413.55	79.99
413.763	44.34
413.976	63.52
414.189	31.74
414.402	63.32
414.615	129.58
414.827	36.97
415.04	103.43
415.253	58.29
415.466	83.67
415.678	111.95
415.891	67.78
416.104	68.17
416.316	59.84
416.529	32.71
416.742	85.41
416.954	100.33
417.167	47.44
417.38	54.99
417.592	112.73
417.805	50.15
418.017	28.25
418.23	84.25
418.442	42.79
418.655	53.25
418.868	38.91
419.08	95.29
419.293	113.31
419.505	98.2
419.718	73.4
419.93	117.38
420.142	47.05
420.355	74.75
420.567	110.21
420.78	99.55
420.992	56.35
421.205	116.41
421.417	38.14
421.629	42.4
421.842	25.93
422.054	41.24
422.266	86.77
422.479	116.6
422.691	82.12
422.903	100.52
423.115	61.19
423.328	83.86
423.54	77.85
423.752	90.84
423.964	35.23
424.177	92.19
424.389	58.29
424.601	150.51
424.813	98.78
425.025	107.88
425.238	99.36
425.45	66.81
425.662	72.24
425.874	317.71
426.086	58.67
426.298	72.43
426.51	64.1
426.722	71.65
426.934	51.31
427.146	91.03
427.358	52.86
427.57	124.16
427.782	68.55
427.994	75.34
428.206	71.85
428.418	43.17
428.63	92.77
428.842	103.04
429.054	92.19
429.266	111.37
429.478	31.35
429.69	60.8
429.902	31.74
430.114	102.46
430.325	75.53
430.537	60.22
430.749	80.18
430.961	35.42
431.173	57.51
431.384	78.44
431.596	8.3
431.808	66.42
432.02	85.02
432.231	101.88
432.443	123.97
432.655	88.7
432.867	54.22
433.078	83.09
433.29	160
433.502	79.21
433.713	138.88
433.925	96.84
434.136	98
434.348	33.29
434.56	28.06
434.771	155.16
434.983	74.37
435.194	68.36
435.406	50.15
435.617	116.8
435.829	156.9
436.04	97.04
436.252	113.5
436.463	157.68
436.675	125.52
436.886	95.49
437.098	105.17
437.309	151.67
437.521	82.5
437.732	95.49
437.943	100.33
438.155	104.4
438.366	33.68
438.578	165.04
438.789	93.16
439	110.6
439.211	88.12
439.423	119.51
439.634	116.6
439.845	128.62
440.057	124.74
440.268	131.52
440.479	81.54
440.69	89.48
440.902	105.95
441.113	97.62
441.324	88.51
441.535	110.98
441.746	161.36
441.957	47.44
442.168	83.09
442.38	110.79
442.591	152.45
442.802	69.52
443.013	92.77
443.224	113.5
443.435	88.7
443.646	86.96
443.857	116.41
444.068	79.4
444.279	75.34
444.49	147.8
444.701	100.52
444.912	198.17
445.123	139.27
445.334	132.49
445.545	111.18
445.756	98.2
445.967	100.14
446.178	109.63
446.388	151.67
446.599	153.8
446.81	125.9
447.021	122.22
447.232	166.2
447.443	166.98
447.653	99.36
447.864	136.56
448.075	97.04
448.286	139.47
448.496	124.16
448.707	145.67
448.918	114.28
449.129	198.75
449.339	96.65
449.55	155.35
449.761	91.42
449.971	170.27
450.182	117.18
450.393	153.42
450.603	80.37
450.814	162.33
451.024	142.95
451.235	155.55
451.446	182.87
451.656	189.45
451.867	107.3
452.077	134.82
452.288	186.35
452.498	192.36
452.709	121.83
452.919	171.05
453.13	141.4
453.34	181.12
453.55	88.7
453.761	148.18
453.971	156.32
454.182	176.28
454.392	141.02
454.602	170.85
454.813	156.71
455.023	181.32
455.233	94.13
455.444	160.58
455.654	80.95
455.864	125.52
456.075	149.15
456.285	102.65
456.495	130.75
456.705	151.09
456.916	180.93
457.126	162.13
457.336	118.35
457.546	99.75
457.756	132.68
457.967	172.4
458.177	120.67
458.387	172.21
458.597	122.42
458.807	137.53
459.017	138.88
459.227	130.75
459.437	155.16
459.647	158.45
459.857	165.43
460.068	120.87
460.278	194.49
460.488	154.97
460.698	186.93
460.908	152.25
461.117	113.7
461.327	107.69
461.537	146.44
461.747	156.9
461.957	158.26
462.167	248.93
462.377	190.61
462.587	158.65
462.797	178.99
463.007	134.04
463.216	176.67
463.426	192.75
463.636	180.15
463.846	128.81
464.056	89.29
464.265	194.68
464.475	142.37
464.685	138.5
464.895	180.93
465.104	146.83
465.314	177.25
465.524	135.59
465.733	117.18
465.943	201.66
466.153	207.28
466.362	198.95
466.572	167.95
466.782	141.6
466.991	186.74
467.201	199.14
467.41	124.55
467.62	169.3
467.829	169.5
468.039	178.41
468.249	158.45
468.458	181.51
468.668	208.83
468.877	159.81
469.086	218.51
469.296	201.08
469.505	127.26
469.715	192.75
469.924	210.38
470.134	224.33
470.343	208.25
470.552	155.35
470.762	199.14
470.971	117.38
471.18	162.33
471.39	209.02
471.599	141.98
471.808	183.45
472.018	162.33
472.227	196.81
472.436	219.48
472.645	153.03
472.855	140.24
473.064	197.2
473.273	182.67
473.482	199.72
473.691	235.76
473.901	214.25
474.11	184.42
474.319	267.92
474.528	195.26
474.737	248.93
474.946	222
475.155	195.65
475.364	220.06
475.573	178.8
475.783	194.49
475.992	229.56
476.201	214.83
476.41	176.47
476.619	164.85
476.828	203.6
477.037	199.91
477.245	171.63
477.454	236.73
477.663	197.78
477.872	180.35
478.081	248.93
478.29	171.82
478.499	286.52
478.708	202.43
478.917	255.71
479.125	243.31
479.334	224.91
479.543	185.77
479.752	233.24
479.961	222.58
480.169	258.62
480.378	195.65
480.587	327.21
480.796	241.38
481.004	208.63
481.213	236.34
481.422	235.95
481.63	209.8
481.839	253.97
482.048	295.04
482.256	232.66
482.465	256.3
482.674	288.07
482.882	253.78
483.091	292.91
483.299	255.33
483.508	290.78
483.716	262.5
483.925	280.9
484.134	261.33
484.342	245.25
484.551	271.21
484.759	241.76
484.967	247.96
485.176	307.25
485.384	283.42
485.593	295.43
485.801	262.5
486.01	278.19
486.218	254.55
486.426	206.31
486.635	224.52
486.843	227.04
487.051	263.85
487.26	265.01
487.468	256.68
487.676	313.26
487.885	257.46
488.093	265.98
488.301	266.37
488.509	291.75
488.717	280.13
488.926	282.26
489.134	260.36
489.342	285.74
489.55	245.25
489.758	262.3
489.967	254.36
490.175	352.78
490.383	262.88
490.591	343.87
490.799	242.73
491.007	322.75
491.215	286.91
491.423	295.63
491.631	264.05
491.839	285.74
492.047	299.69
492.255	293.49
492.463	223.75
492.671	283.23
492.879	310.74
493.087	305.89
493.295	291.94
493.503	343.68
493.711	298.73
493.919	314.81
494.127	354.33
494.334	347.94
494.542	271.6
494.75	301.63
494.958	300.47
495.166	313.06
495.374	334.38
495.581	299.31
495.789	317.71
495.997	387.66
496.205	322.94
496.412	309.58
496.62	287.68
496.828	337.48
497.035	315.39
497.243	327.21
497.451	309.77
497.658	311.9
497.866	331.86
498.074	368.47
498.281	324.11
498.489	399.86
498.696	322.56
498.904	288.26
499.112	318.68
499.319	404.9
499.527	317.13
499.734	366.15
499.942	286.52
500.149	292.53
500.357	342.13
500.564	304.73
500.771	315.39
500.979	314.23
501.186	309.96
501.394	325.27
501.601	346.39
501.808	357.63
502.016	323.72
502.223	322.75
502.43	348.71
502.638	308.61
502.845	305.12
503.052	370.22
503.26	313.64
503.467	394.63
503.674	343.87
503.881	355.88
504.089	414.01
504.296	382.62
504.503	326.04
504.71	343.09
504.917	318.88
505.125	336.7
505.332	345.61
505.539	352.2
505.746	414.01
505.953	374.09
506.16	362.28
506.367	418.07
506.574	385.14
506.781	422.72
506.988	328.95
507.195	372.35
507.402	324.88
507.609	387.27
507.816	366.92
508.023	348.33
508.23	354.91
508.437	325.85
508.644	380.49
508.851	398.7
509.058	387.07
509.265	363.05
509.472	391.14
509.679	462.44
509.885	387.27
510.092	397.92
510.299	388.82
510.506	401.22
510.713	376.22
510.92	367.12
511.126	395.41
511.333	423.11
511.54	395.99
511.746	447.52
511.953	410.13
512.16	423.69
512.367	371.96
512.573	387.66
512.78	406.64
512.987	392.89
513.193	405.67
513.4	323.53
513.606	388.24
513.813	416.14
514.02	391.53
514.226	472.52
514.433	448.11
514.639	358.59
514.846	400.25
515.052	370.41
515.259	405.29
515.465	415.75
515.672	394.44
515.878	463.8
516.085	385.72
516.291	447.72
516.497	385.33
516.704	420.98
516.91	396.37
517.117	363.83
517.323	343.68
517.529	375.45
517.736	392.69
517.942	382.62
518.148	363.05
518.354	409.94
518.561	383.39
518.767	436.48
518.973	468.64
519.179	426.6
519.386	390.37
519.592	397.73
519.798	378.74
520.004	443.26
520.21	420.01
520.417	452.17
520.623	474.45
520.829	465.93
521.035	453.14
521.241	493.25
521.447	477.55
521.653	596.13
521.859	456.24
522.065	465.35
522.271	539.94
522.477	485.3
522.683	523.86
522.889	477.94
523.095	501.39
523.301	508.17
523.507	472.13
523.713	490.34
523.919	453.72
524.125	544.4
524.331	481.04
524.537	513.59
524.742	540.33
524.948	513.59
525.154	502.35
525.36	618.99
525.566	521.73
525.772	557.38
525.977	469.61
526.183	523.09
526.389	536.07
526.595	518.24
526.8	508.36
527.006	486.27
527.212	467.29
527.417	506.04
527.623	450.43
527.829	496.93
528.034	516.89
528.24	521.73
528.446	512.04
528.651	555.44
528.857	532.77
529.062	617.05
529.268	532.19
529.473	572.3
529.679	526.57
529.884	605.23
530.09	567.65
530.295	609.11
530.501	572.1
530.706	565.52
530.912	513.4
531.117	563.19
531.323	547.11
531.528	599.62
531.733	561.25
531.939	558.73
532.144	568.62
532.35	572.49
532.555	605.62
532.76	616.86
532.966	622.28
533.171	563.58
533.376	556.99
533.581	551.37
533.787	568.03
533.992	571.52
534.197	626.35
534.402	549.63
534.607	570.75
534.813	668.4
535.018	565.9
535.223	551.95
535.428	604.07
535.633	614.53
535.838	596.13
536.043	595.35
536.249	693.2
536.454	600.58
536.659	613.37
536.864	600.58
537.069	598.65
537.274	612.02
537.479	629.45
537.684	644.56
537.889	592.64
538.094	667.23
538.299	607.37
538.504	628.29
538.708	631.39
538.913	632.55
539.118	621.9
539.323	658.9
539.528	593.61
539.733	634.49
539.938	637.4
540.142	646.11
540.347	625.38
540.552	615.12
540.757	637.01
540.962	626.35
541.166	592.25
541.371	595.93
541.576	634.68
541.781	525.6
541.985	625.19
542.19	612.79
542.395	673.82
542.599	675.56
542.804	655.61
543.008	673.05
543.213	642.63
543.418	618.41
543.622	663.94
543.827	606.01
544.031	685.25
544.236	665.88
544.44	634.88
544.645	719.35
544.849	642.63
545.054	641.46
545.258	740.28
545.463	711.21
545.667	622.67
545.872	678.08
546.076	645.73
546.281	664.13
546.485	639.53
546.689	663.55
546.894	693
547.098	657.93
547.302	614.34
547.507	652.9
547.711	679.25
547.915	722.64
548.119	653.48
548.324	660.84
548.528	693.39
548.732	630.42
548.936	652.7
549.141	702.88
549.345	650.96
549.549	661.03
549.753	667.62
549.957	715.28
550.161	718.96
550.366	640.3
550.57	594
550.774	671.88
550.978	653.48
551.182	695.13
551.386	646.11
551.59	632.94
551.794	654.45
551.998	683.31
552.202	655.22
552.406	611.24
552.61	681.76
552.814	656.58
553.018	709.28
553.222	646.5
553.426	661.03
553.63	736.79
553.833	662.58
554.037	635.65
554.241	703.66
554.445	627.32
554.649	651.54
554.853	637.98
555.056	702.88
555.26	702.3
555.464	661.03
555.668	644.37
555.871	731.36
556.075	683.9
556.279	653.28
556.483	658.71
556.686	658.13
556.89	663.55
557.094	681.57
557.297	596.13
557.501	697.07
557.704	594.77
557.908	703.46
558.112	607.95
558.315	722.45
558.519	641.08
558.722	664.33
558.926	623.06
559.129	600.58
559.333	575.59
559.536	581.6
559.74	615.31
559.943	627.51
560.147	604.07
560.35	618.8
560.553	596.32
560.757	559.9
560.96	674.4
561.164	575.59
561.367	671.3
561.57	589.73
561.774	644.37
561.977	596.9
562.18	612.98
562.384	666.85
562.587	627.71
562.79	618.99
562.993	602.13
563.197	685.64
563.4	677.11
563.603	654.64
563.806	698.62
564.009	612.98
564.212	649.02
564.416	551.37
564.619	643.6
564.822	613.37
565.025	636.81
565.228	629.26
565.431	613.95
565.634	565.13
565.837	592.25
566.04	592.25
566.243	586.44
566.446	496.74
566.649	610.66
566.852	573.07
567.055	561.25
567.258	628.29
567.461	650.96
567.664	639.14
567.867	521.54
568.07	601.94
568.273	579.85
568.475	585.28
568.678	581.79
568.881	578.88
569.084	573.46
569.287	496.35
569.489	531.8
569.692	578.5
569.895	583.73
570.098	522.31
570.3	496.93
570.503	479.69
570.706	512.24
570.909	511.27
571.111	470.19
571.314	494.6
571.516	546.92
571.719	547.69
571.922	535.87
572.124	509.52
572.327	536.84
572.529	467.87
572.732	470
572.935	503.13
573.137	563.38
573.34	505.07
573.542	566.29
573.745	537.23
573.947	524.83
574.15	512.24
574.352	478.72
574.554	563.19
574.757	480.27
574.959	489.95
575.162	492.47
575.364	504.87
575.566	598.45
575.769	484.92
575.971	510.3
576.173	412.26
576.376	486.47
576.578	527.93
576.78	569.97
576.982	411.29
577.185	496.74
577.387	445.2
577.589	445.39
577.791	494.6
577.993	476.97
578.196	442.29
578.398	493.64
578.6	503.13
578.802	434.35
579.004	430.86
579.206	427.96
579.408	478.14
579.61	458.95
579.812	508.17
580.014	458.76
580.216	442.68
580.418	443.65
580.62	444.23
580.822	430.47
581.024	470.19
581.226	521.54
581.428	465.35
581.63	534.9
581.832	441.32
582.034	502.55
582.236	433.38
582.438	481.62
582.64	501.77
582.841	520.57
583.043	554.67
583.245	520.18
583.447	469.61
583.649	458.76
583.85	468.06
584.052	516.69
584.254	428.15
584.456	486.27
584.657	436.29
584.859	470.97
585.061	459.73
585.262	467.48
585.464	418.27
585.666	477.55
585.867	452.17
586.069	517.27
586.27	465.35
586.472	455.66
586.674	478.91
586.875	428.15
587.077	445.97
587.278	457.99
587.48	448.88
587.681	550.02
587.883	475.62
588.084	386.49
588.285	441.52
588.487	455.85
588.688	457.21
588.89	418.85
589.091	405.48
589.292	428.73
589.494	410.91
589.695	401.99
589.896	346
590.098	379.71
590.299	426.79
590.5	381.84
590.702	394.63
590.903	414.59
591.104	452.17
591.305	427.76
591.507	492.09
591.708	438.61
591.909	402.38
592.11	460.12
592.311	450.82
592.512	420.4
592.714	371.19
592.915	403.35
593.116	413.23
593.317	406.64
593.518	404.51
593.719	396.57
593.92	426.79
594.121	456.44
594.322	410.91
594.523	417.49
594.724	368.47
594.925	401.61
595.126	430.67
595.327	428.73
595.528	430.67
595.729	408.58
595.929	413.42
596.13	410.32
596.331	399.67
596.532	410.52
596.733	499.64
596.934	445.01
597.135	439.58
597.335	422.92
597.536	410.52
597.737	431.44
597.938	386.3
598.138	430.47
598.339	420.4
598.54	440.94
598.74	408.39
598.941	444.04
599.142	480.85
599.342	424.66
599.543	414.2
599.744	401.61
599.944	410.32
600.145	381.26
600.345	419.43
600.546	496.93
600.746	440.55
600.947	513.59
601.147	420.21
601.348	435.9
601.548	371.96
601.749	435.51
601.949	378.16
602.15	394.82
602.35	427.57
602.551	467.87
602.751	383.78
602.951	375.06
603.152	328.56
603.352	437.45
603.552	414.97
603.753	414.97
603.953	454.89
604.153	400.83
604.354	394.44
604.554	381.65
604.754	417.69
604.954	370.61
605.155	413.42
605.355	390.95
605.555	430.09
605.755	473.87
605.955	436.09
606.155	443.07
606.356	416.52
606.556	422.72
606.756	420.98
606.956	356.66
607.156	457.79
607.356	392.31
607.556	400.83
607.756	424.47
607.956	446.75
608.156	402.96
608.356	382.04
608.556	438.03
608.756	408.39
608.956	379.71
609.156	432.22
609.356	391.92
609.556	345.61
609.755	400.25
609.955	345.81
610.155	366.92
610.355	419.04
610.555	392.31
610.755	364.6
610.954	334.96
611.154	387.46
611.354	406.26
611.554	372.54
611.753	393.66
611.953	343.68
612.153	396.76
612.352	415.17
612.552	348.52
612.752	334.96
612.951	381.46
613.151	414.2
613.351	349.49
613.55	366.54
613.75	378.36
613.949	377.77
614.149	410.13
614.348	381.65
614.548	346.78
614.747	327.59
614.947	385.52
615.146	319.65
615.346	389.79
615.545	373.71
615.745	360.53
615.944	389.4
616.144	358.4
616.343	376.81
616.542	354.33
616.742	364.41
616.941	361.69
617.14	317.52
617.34	366.54
617.539	355.49
617.738	342.32
617.938	419.82
618.137	354.33
618.336	320.04
618.535	377.97
618.734	345.42
618.934	383.2
619.133	363.05
619.332	383.2
619.531	336.7
619.73	359.76
619.929	417.49
620.128	396.18
620.328	419.24
620.527	355.11
620.726	336.7
620.925	372.93
621.124	339.22
621.323	352.59
621.522	321.59
621.721	338.44
621.92	304.93
622.119	366.54
622.318	310.16
622.517	343.29
622.715	339.61
622.914	302.99
623.113	318.1
623.312	288.65
623.511	372.54
623.71	327.59
623.909	320.43
624.107	386.49
624.306	293.49
624.505	299.69
624.704	327.59
624.902	323.91
625.101	371.38
625.3	325.27
625.499	312.29
625.697	297.18
625.896	327.98
626.095	344.84
626.293	313.84
626.492	290.2
626.69	367.31
626.889	296.01
