Data from oakcork_FLMT105791__258__17-33-29-054.txt Node

Date: Mon Mar 20 17:33:29 GMT 2023
User: antho
Spectrometer: FLMT10579
Trigger mode: 0
Integration Time (sec): 1.000000E-1
Scans to average: 10
Electric dark correction enabled: true
Nonlinearity correction enabled: false
Boxcar width: 0
XAxis mode: Wavelengths
Number of Pixels in Spectrum: 3648
>>>>>Begin Spectral Data<<<<<
345.248	-131.68
345.464	-131.68
345.681	-131.68
345.898	-158.61
346.114	-139.63
346.331	-33.45
346.548	26.03
346.764	-0.71
346.981	-7.88
347.197	-26.29
347.414	24.09
347.631	-35.39
347.847	57.22
348.064	1.23
348.28	9.95
348.497	-25.7
348.713	10.91
348.93	58.19
349.146	17.7
349.363	-1.29
349.579	23.31
349.796	-4
350.012	-19.7
350.229	15.76
350.445	-14.08
350.661	-16.6
350.878	13.43
351.094	17.7
351.311	9.17
351.527	-6.72
351.743	8.98
351.96	27.19
352.176	48.5
352.392	42.3
352.609	29.32
352.825	-1.49
353.041	-6.14
353.257	-8.46
353.474	0.45
353.69	14.6
353.906	27.96
354.122	1.81
354.339	41.53
354.555	-4.59
354.771	-2.07
354.987	73.88
355.203	67.88
355.42	-4.97
355.636	15.18
355.852	-3.04
356.068	2.58
356.284	-34.81
356.5	57.22
356.716	23.9
356.932	-7.1
357.148	44.63
357.364	25.83
357.58	46.95
357.796	51.21
358.012	55.67
358.228	22.93
358.444	-50.89
358.66	49.28
358.876	21.18
359.092	-7.88
359.308	27.19
359.524	20.99
359.74	6.85
359.956	1.23
360.172	29.71
360.388	37.07
360.604	-35.2
360.819	63.42
361.035	33
361.251	32.03
361.467	-3.81
361.683	38.23
361.898	9.56
362.114	38.43
362.33	28.16
362.546	69.81
362.762	20.99
362.977	20.21
363.193	-34.62
363.409	11.88
363.624	-21.05
363.84	-14.27
364.056	-6.91
364.271	13.43
364.487	19.05
364.703	-27.45
364.918	-26.87
365.134	22.93
365.35	10.91
365.565	108.56
365.781	13.05
365.996	30.87
366.212	73.88
366.427	33.58
366.643	2.78
366.858	1.23
367.074	-18.92
367.289	54.51
367.505	119.8
367.72	17.31
367.936	16.15
368.151	44.82
368.367	23.51
368.582	6.07
368.798	1.81
369.013	61.29
369.228	-0.32
369.444	36.49
369.659	63.61
369.874	40.75
370.09	64
370.305	-44.3
370.52	-9.04
370.736	77.37
370.951	42.11
371.166	48.5
371.381	86.67
371.597	33.58
371.812	1.42
372.027	6.07
372.242	13.24
372.458	88.99
372.673	-5.75
372.888	20.02
373.103	22.54
373.318	89.19
373.533	9.75
373.749	40.56
373.964	-11.75
374.179	64.58
374.394	-19.7
374.609	70.2
374.824	-27.45
375.039	42.5
375.254	-9.04
375.469	81.24
375.684	23.7
375.899	63.81
376.114	14.01
376.329	38.43
376.544	59.54
376.759	51.21
376.974	10.72
377.189	8.2
377.404	3.75
377.619	64.97
377.834	-46.63
378.049	-25.9
378.264	6.07
378.478	18.47
378.693	0.65
378.908	27.77
379.123	3.36
379.338	53.35
379.553	55.67
379.767	18.47
379.982	18.08
380.197	54.51
380.412	2.97
380.626	26.41
380.841	96.74
381.056	52.76
381.271	72.14
381.485	-7.69
381.7	0.26
381.915	44.05
382.129	-1.29
382.344	45.79
382.559	12.27
382.773	77.76
382.988	-17.37
383.202	44.24
383.417	-11.75
383.632	107.4
383.846	15.95
384.061	36.1
384.275	-1.49
384.49	41.53
384.704	51.6
384.919	43.46
385.133	51.21
385.348	37.07
385.562	-28.22
385.777	47.53
385.991	26.8
386.206	42.11
386.42	35.91
386.634	37.46
386.849	37.85
387.063	41.72
387.277	45.4
387.492	11.69
387.706	13.24
387.92	-3.23
388.135	59.35
388.349	41.53
388.563	33.39
388.778	36.68
388.992	50.05
389.206	74.08
389.42	94.61
389.635	41.91
389.849	44.63
390.063	82.02
390.277	58.58
390.491	95.97
390.706	52.96
390.92	71.94
391.134	24.09
391.348	78.53
391.562	8.2
391.776	21.38
391.99	19.25
392.205	44.43
392.419	4.52
392.633	44.05
392.847	95.78
393.061	9.75
393.275	76.98
393.489	36.68
393.703	18.66
393.917	79.11
394.131	30.87
394.345	58.19
394.559	75.24
394.773	37.85
394.986	63.61
395.2	46.37
395.414	68.26
395.628	14.21
395.842	23.51
396.056	43.85
396.27	-5.17
396.484	42.69
396.697	49.28
396.911	112.24
397.125	47.92
397.339	78.34
397.553	25.83
397.766	104.49
397.98	77.95
398.194	68.07
398.408	42.69
398.621	74.27
398.835	89.58
399.049	52.38
399.262	77.56
399.476	81.83
399.69	91.13
399.903	118.06
400.117	35.91
400.331	94.81
400.544	77.56
400.758	150.02
400.971	81.44
401.185	116.51
401.398	44.63
401.612	124.06
401.826	92.48
402.039	105.08
402.253	52.76
402.466	93.84
402.68	63.61
402.893	99.26
403.106	66.13
403.32	50.63
403.533	109.92
403.747	82.99
403.96	85.12
404.174	87.64
404.387	50.83
404.6	97.52
404.814	111.08
405.027	56.83
405.24	73.11
405.454	64.19
405.667	116.51
405.88	12.66
406.094	83.76
406.307	119.8
406.52	73.69
406.733	85.7
406.947	17.5
407.16	112.24
407.373	124.45
407.586	29.9
407.799	47.15
408.012	102.94
408.226	96.74
408.439	124.26
408.652	47.73
408.865	86.67
409.078	124.84
409.291	89.58
409.504	54.51
409.717	103.33
409.93	86.09
410.143	54.31
410.357	62.06
410.57	41.91
410.783	77.37
410.996	82.02
411.209	88.22
411.421	100.04
411.634	96.55
411.847	67.68
412.06	83.38
412.273	71.75
412.486	102.36
412.699	167.66
412.912	85.12
413.125	116.31
413.338	85.89
413.55	117.86
413.763	92.87
413.976	104.69
414.189	70.2
414.402	82.41
414.615	159.71
414.827	81.63
415.04	129.29
415.253	94.61
415.466	138.59
415.678	138.59
415.891	114.96
416.104	99.84
416.316	95.97
416.529	67.49
416.742	125.23
416.954	131.81
417.167	119.22
417.38	88.61
417.592	142.08
417.805	62.45
418.017	48.11
418.23	111.47
418.442	90.54
418.655	83.18
418.868	113.6
419.08	140.34
419.293	130.65
419.505	102.17
419.718	108.95
419.93	139.18
420.142	78.73
420.355	152.35
420.567	158.36
420.78	126.39
420.992	110.5
421.205	149.44
421.417	83.18
421.629	99.84
421.842	68.84
422.054	71.94
422.266	132.01
422.479	149.06
422.691	109.92
422.903	141.5
423.115	93.26
423.328	128.13
423.54	131.62
423.752	138.98
423.964	94.81
424.177	108.37
424.389	122.51
424.601	198.46
424.813	102.56
425.025	144.21
425.238	165.33
425.45	96.94
425.662	118.25
425.874	394.15
426.086	118.44
426.298	157.19
426.51	128.71
426.722	136.08
426.934	115.54
427.146	174.44
427.358	86.48
427.57	141.31
427.782	110.5
427.994	127.94
428.206	125.03
428.418	75.63
428.63	146.15
428.842	147.7
429.054	137.43
429.266	164.94
429.478	91.13
429.69	144.6
429.902	94.81
430.114	135.88
430.325	119.41
430.537	84.73
430.749	118.44
430.961	71.56
431.173	104.69
431.384	152.16
431.596	40.17
431.808	116.31
432.02	134.53
432.231	157.58
432.443	170.17
432.655	137.63
432.867	126
433.078	144.6
433.29	191.87
433.502	186.64
433.713	187.81
433.925	136.66
434.136	190.71
434.348	100.62
434.56	106.63
434.771	242.44
434.983	95
435.194	128.33
435.406	155.84
435.617	187.42
435.829	210.67
436.04	180.25
436.252	196.14
436.463	204.66
436.675	194.78
436.886	200.01
437.098	184.51
437.309	212.02
437.521	157.58
437.732	170.95
437.943	202.72
438.155	164.17
438.366	119.99
438.578	209.51
438.789	171.14
439	187.22
439.211	174.24
439.423	207.96
439.634	179.28
439.845	193.42
440.057	163.78
440.268	211.06
440.479	168.43
440.69	179.47
440.902	148.67
441.113	156.42
441.324	167.66
441.535	189.55
441.746	210.47
441.957	158.74
442.168	167.27
442.38	225.2
442.591	216.29
442.802	189.55
443.013	187.42
443.224	198.27
443.435	170.56
443.646	178.51
443.857	183.74
444.068	158.94
444.279	181.99
444.49	275.38
444.701	185.67
444.912	290.69
445.123	214.93
445.334	214.93
445.545	201.95
445.756	205.82
445.967	172.31
446.178	221.91
446.388	240.5
446.599	220.94
446.81	237.79
447.021	194.2
447.232	246.7
447.443	261.04
447.653	169.59
447.864	243.6
448.075	208.54
448.286	215.12
448.496	221.91
448.707	263.56
448.918	187.61
449.129	297.85
449.339	202.34
449.55	243.22
449.761	196.91
449.971	259.49
450.182	195.75
450.393	215.32
450.603	210.09
450.814	260.27
451.024	250.58
451.235	281.58
451.446	270.15
451.656	298.63
451.867	201.37
452.077	255.04
452.288	282.74
452.498	264.72
452.709	222.68
452.919	223.07
453.13	208.92
453.34	289.52
453.55	166.3
453.761	260.46
453.971	255.81
454.182	264.53
454.392	266.47
454.602	307.54
454.813	248.64
455.023	255.62
455.233	188.97
455.444	261.82
455.654	207.37
455.864	257.17
456.075	236.24
456.285	205.44
456.495	232.56
456.705	241.86
456.916	275.19
457.126	288.55
457.336	298.63
457.546	208.54
457.756	233.72
457.967	296.69
458.177	248.64
458.387	251.94
458.597	224.81
458.807	271.5
459.017	242.44
459.227	261.43
459.437	225.97
459.647	298.44
459.857	264.34
460.068	243.02
460.278	297.08
460.488	256.59
460.698	340.67
460.908	258.52
461.117	240.12
461.327	231.21
461.537	279.84
461.747	273.83
461.957	276.15
462.167	379.42
462.377	282.35
462.587	263.56
462.797	301.34
463.007	290.69
463.216	287.39
463.426	310.84
463.636	305.22
463.846	243.99
464.056	284.29
464.265	320.33
464.475	252.9
464.685	260.85
464.895	297.47
465.104	264.72
465.314	296.11
465.524	290.1
465.733	232.76
465.943	340.87
466.153	342.22
466.362	320.91
466.572	300.76
466.782	307.35
466.991	296.11
467.201	347.84
467.41	258.72
467.62	324.98
467.829	281.97
468.039	310.25
468.249	289.33
468.458	290.69
468.668	313.74
468.877	345.71
469.086	348.42
469.296	359.47
469.505	256.59
469.715	362.18
469.924	313.16
470.134	355.78
470.343	366.44
470.552	300.57
470.762	302.89
470.971	307.93
471.18	333.12
471.39	296.11
471.599	288.36
471.808	334.28
472.018	304.83
472.227	364.5
472.436	340.67
472.645	337.18
472.855	316.65
473.064	374.97
473.273	341.06
473.482	380
473.691	390.27
473.901	370.51
474.11	356.17
474.319	426.5
474.528	362.57
474.737	393.37
474.946	377.87
475.155	375.35
475.364	427.28
475.573	392.21
475.783	363.92
475.992	420.69
476.201	433.86
476.41	361.98
476.619	323.04
476.828	376.9
477.037	388.14
477.245	379.62
477.454	435.8
477.663	363.34
477.872	358.5
478.081	417.59
478.29	378.45
478.499	457.7
478.708	419.91
478.917	480.36
479.125	421.08
479.334	428.63
479.543	407.52
479.752	435.61
479.961	420.69
480.169	451.11
480.378	417.59
480.587	526.28
480.796	459.05
481.004	420.11
481.213	468.55
481.422	467
481.63	451.3
481.839	510.39
482.048	504.19
482.256	481.72
482.465	484.24
482.674	501.09
482.882	496.06
483.091	539.46
483.299	477.85
483.508	507.68
483.716	482.3
483.925	491.21
484.134	464.28
484.342	462.15
484.551	536.16
484.759	542.36
484.967	528.41
485.176	510.2
485.384	521.05
485.593	552.83
485.801	496.83
486.01	494.7
486.218	479.59
486.426	441.42
486.635	460.02
486.843	434.25
487.051	462.54
487.26	480.95
487.468	499.93
487.676	539.65
487.885	459.25
488.093	521.63
488.301	538.88
488.509	523.38
488.717	551.08
488.926	525.12
489.134	530.16
489.342	533.84
489.55	516.21
489.758	508.84
489.967	533.26
490.175	616.57
490.383	519.5
490.591	589.44
490.799	532.48
491.007	595.26
491.215	566.78
491.423	557.28
491.631	545.08
491.839	561.16
492.047	574.53
492.255	516.21
492.463	498.77
492.671	556.51
492.879	587.12
493.087	586.54
493.295	599.52
493.503	592.74
493.711	593.12
493.919	615.21
494.127	631.68
494.334	621.99
494.542	543.53
494.75	610.37
494.958	575.3
495.166	653.38
495.374	626.64
495.581	623.35
495.789	609.79
495.997	657.26
496.205	610.95
496.412	620.25
496.62	609.79
496.828	640.01
497.035	591.77
497.243	638.46
497.451	613.08
497.658	619.09
497.866	606.88
498.074	692.32
498.281	597.97
498.489	674.5
498.696	624.9
498.904	610.95
499.112	618.51
499.319	687.48
499.527	639.24
499.734	695.04
499.942	627.81
500.149	609.98
500.357	645.82
500.564	606.49
500.771	656.09
500.979	612.69
501.186	601.65
501.394	635.56
501.601	659.77
501.808	663.07
502.016	638.85
502.223	640.4
502.43	636.14
502.638	645.05
502.845	602.04
503.052	672.95
503.26	636.33
503.467	697.75
503.674	643.5
503.881	690.39
504.089	714.99
504.296	686.12
504.503	599.91
504.71	672.95
504.917	631.68
505.125	644.47
505.332	660.74
505.539	689.61
505.746	729.14
505.953	684.38
506.16	699.3
506.367	782.61
506.574	726.42
506.781	768.85
506.988	648.15
507.195	685.93
507.402	698.33
507.609	734.37
507.816	679.15
508.023	665.39
508.23	686.32
508.437	669.46
508.644	698.91
508.851	762.65
509.058	741.15
509.265	721
509.472	721
509.679	795.59
509.885	701.24
510.092	737.27
510.299	701.62
510.506	742.12
510.713	752.58
510.92	738.24
511.126	762.85
511.333	774.47
511.54	743.28
511.746	795.4
511.953	809.54
512.16	817.87
512.367	760.13
512.573	772.34
512.78	743.67
512.987	780.48
513.193	748.12
513.4	676.63
513.606	744.44
513.813	756.07
514.02	773.31
514.226	838.8
514.433	807.99
514.639	711.5
514.846	763.23
515.052	745.41
515.259	777.18
515.465	776.8
515.672	754.71
515.878	839.57
516.085	771.57
516.291	814.58
516.497	752
516.704	744.64
516.91	710.73
517.117	697.94
517.323	655.12
517.529	719.84
517.736	698.91
517.942	711.12
518.148	739.79
518.354	762.85
518.561	743.86
518.767	742.31
518.973	798.69
519.179	798.5
519.386	775.44
519.592	750.45
519.798	741.54
520.004	842.87
520.21	794.04
520.417	798.69
520.623	858.56
520.829	862.05
521.035	826.59
521.241	865.92
521.447	889.75
521.653	949.23
521.859	833.95
522.065	875.61
522.271	960.86
522.477	908.16
522.683	936.83
522.889	886.26
523.095	907.38
523.301	919.78
523.507	863.21
523.713	910.68
523.919	844.22
524.125	945.36
524.331	919.59
524.537	962.21
524.742	953.11
524.948	958.14
525.154	955.43
525.36	1037.58
525.566	961.83
525.772	1016.85
525.977	947.68
526.183	969.77
526.389	979.46
526.595	919.01
526.8	962.99
527.006	887.62
527.212	885.1
527.417	867.47
527.623	895.18
527.829	946.71
528.034	933.34
528.24	925.6
528.446	949.04
528.651	1014.53
528.857	982.75
529.062	1026.34
529.268	1017.63
529.473	1000.38
529.679	979.46
529.884	1081.17
530.09	1054.63
530.295	1067.03
530.501	1074.59
530.706	1079.43
530.912	1052.69
531.117	1069.55
531.323	1060.44
531.528	1069.16
531.733	1086.79
531.939	1058.51
532.144	1120.12
532.35	1057.54
532.555	1082.72
532.76	1084.08
532.966	1088.92
533.171	1086.79
533.376	1055.79
533.581	1031.77
533.787	1066.06
533.992	1060.83
534.197	1083.5
534.402	1079.62
534.607	1074.2
534.813	1154.8
535.018	1071.87
535.223	1076.52
535.428	1126.12
535.633	1168.36
535.838	1135.42
536.043	1123.22
536.249	1217.77
536.454	1120.7
536.659	1167
536.864	1112.75
537.069	1139.88
537.274	1152.47
537.479	1145.89
537.684	1155.77
537.889	1088.15
538.094	1203.82
538.299	1138.33
538.504	1173.79
538.708	1170.1
538.913	1192.39
539.118	1151.5
539.323	1183.47
539.528	1128.45
539.733	1172.24
539.938	1163.71
540.142	1170.69
540.347	1147.05
540.552	1139.88
540.757	1157.32
540.962	1131.55
541.166	1138.14
541.371	1104.81
541.576	1153.44
541.781	1071.29
541.985	1196.07
542.19	1171.85
542.395	1210.21
542.599	1223.58
542.804	1185.02
543.008	1236.17
543.213	1172.62
543.418	1148.79
543.622	1210.79
543.827	1133.68
544.031	1233.46
544.236	1241.4
544.44	1193.55
544.645	1254.38
544.849	1186.19
545.054	1250.7
545.258	1258.07
545.463	1291.2
545.667	1216.6
545.872	1266.2
546.076	1212.34
546.281	1237.14
546.485	1191.42
546.689	1195.68
546.894	1268.53
547.098	1203.62
547.302	1189.67
547.507	1204.4
547.711	1232.1
547.915	1294.49
548.119	1200.72
548.324	1210.79
548.528	1282.09
548.732	1244.7
548.936	1287.13
549.141	1298.95
549.345	1245.67
549.549	1231.33
549.753	1242.95
549.957	1311.35
550.161	1286.55
550.366	1266.78
550.57	1204.2
550.774	1238.11
550.978	1266.4
551.182	1261.75
551.386	1233.85
551.59	1222.42
551.794	1281.7
551.998	1286.74
552.202	1190.25
552.406	1202.27
552.61	1256.52
552.814	1288.87
553.018	1298.56
553.222	1238.3
553.426	1242.76
553.63	1360.36
553.833	1237.14
554.037	1219.12
554.241	1301.85
554.445	1256.52
554.649	1247.22
554.853	1239.08
555.056	1316.58
555.26	1290.81
555.464	1262.91
555.668	1275.12
555.871	1276.08
556.075	1297.2
556.279	1258.07
556.483	1235.59
556.686	1256.71
556.89	1266.4
557.094	1272.6
557.297	1204.59
557.501	1275.89
557.704	1190.45
557.908	1259.03
558.112	1228.23
558.315	1293.91
558.519	1223
558.722	1222.22
558.926	1226.48
559.129	1151.5
559.333	1140.46
559.536	1165.65
559.74	1137.94
559.943	1148.02
560.147	1144.34
560.35	1139.69
560.553	1177.85
560.757	1135.81
560.96	1274.34
561.164	1173.2
561.367	1246.44
561.57	1167.39
561.774	1195.68
561.977	1177.85
562.18	1171.46
562.384	1261.17
562.587	1173.01
562.79	1209.43
562.993	1152.09
563.197	1201.88
563.4	1254.38
563.603	1249.54
563.806	1286.55
564.009	1161.77
564.212	1200.91
564.416	1118.57
564.619	1187.35
564.822	1126.32
565.025	1200.91
565.228	1129.61
565.431	1163.13
565.634	1057.92
565.837	1152.67
566.04	1103.65
566.243	1126.12
566.446	1047.07
566.649	1134.45
566.852	1076.14
567.055	1096.87
567.258	1143.56
567.461	1185.99
567.664	1183.28
567.867	1088.15
568.07	1136
568.273	1092.22
568.475	1164.1
568.678	1109.27
568.881	1098.81
569.084	1074.2
569.287	998.83
569.489	1052.69
569.692	1104.42
569.895	1090.47
570.098	1021.5
570.3	1028.67
570.503	972.48
570.706	1025.76
570.909	1018.59
571.111	957.37
571.314	982.36
571.516	996.51
571.719	989.14
571.922	987.59
572.124	972.68
572.327	1018.01
572.529	975
572.732	957.18
572.935	988.95
573.137	1036.61
573.34	1012.2
573.542	1028.09
573.745	1004.45
573.947	1023.82
574.15	985.46
574.352	949.62
574.554	1030.99
574.757	955.43
574.959	937.22
575.162	928.11
575.364	965.31
575.566	1017.24
575.769	939.35
575.971	978.49
576.173	869.6
576.376	954.66
576.578	999.99
576.78	1030.22
576.982	883.75
577.185	937.03
577.387	910.29
577.589	880.45
577.791	975.39
577.993	967.25
578.196	921.14
578.398	931.6
578.6	928.5
578.802	881.03
579.004	899.25
579.206	883.36
579.408	953.69
579.61	907.38
579.812	941.48
580.014	902.35
580.216	888.2
580.418	919.59
580.62	867.66
580.822	877.16
581.024	915.13
581.226	929.86
581.428	894.79
581.63	946.52
581.832	913.97
582.034	965.12
582.236	928.11
582.438	947.88
582.64	965.7
582.841	981.2
583.043	1021.89
583.245	922.11
583.447	949.62
583.649	919.4
583.85	941.48
584.052	952.91
584.254	930.44
584.456	970.16
584.657	928.7
584.859	950.78
585.061	938.77
585.262	936.06
585.464	901.18
585.666	963.57
585.867	914.36
586.069	985.85
586.27	933.15
586.472	945.74
586.674	905.45
586.875	910.87
587.077	900.8
587.278	929.28
587.48	921.14
587.681	1001.16
587.883	917.07
588.084	859.33
588.285	895.95
588.487	861.66
588.688	892.27
588.89	838.6
589.091	821.75
589.292	825.23
589.494	832.02
589.695	780.48
589.896	750.64
590.098	742.12
590.299	827.75
590.5	765.95
590.702	801.6
590.903	806.83
591.104	885.68
591.305	826.01
591.507	870.38
591.708	858.56
591.909	840.35
592.11	906.41
592.311	879.87
592.512	832.98
592.714	770.21
592.915	820.39
593.116	818.07
593.317	845.19
593.518	835.12
593.719	859.91
593.92	826.59
594.121	842.28
594.322	826.4
594.523	843.64
594.724	811.09
594.925	824.07
595.126	825.62
595.327	839.77
595.528	819.23
595.729	851
595.929	830.08
596.13	818.45
596.331	855.26
596.532	831.63
596.733	857.2
596.934	885.88
597.135	843.06
597.335	828.72
597.536	807.41
597.737	869.02
597.938	812.25
598.138	843.64
598.339	837.83
598.54	865.15
598.74	864.76
598.941	851
599.142	862.43
599.342	849.45
599.543	792.3
599.744	826.59
599.944	844.22
600.145	823.68
600.345	854.88
600.546	911.84
600.746	906.41
600.947	878.51
601.147	863.79
601.348	867.66
601.548	795.01
601.749	832.98
601.949	784.16
602.15	797.53
602.35	808.18
602.551	859.72
602.751	815.16
602.951	822.91
603.152	779.9
603.352	872.31
603.552	835.89
603.753	875.61
603.953	829.88
604.153	830.66
604.354	844.22
604.554	817.68
604.754	842.87
604.954	815.55
605.155	862.43
605.355	836.67
605.555	883.94
605.755	854.1
605.955	837.63
606.155	869.02
606.356	838.41
606.556	841.12
606.756	842.09
606.956	792.1
607.156	884.52
607.356	804.89
607.556	837.83
607.756	850.81
607.956	863.6
608.156	864.56
608.356	837.25
608.556	850.81
608.756	831.24
608.956	802.37
609.156	819.81
609.356	789.78
609.556	789.2
609.755	813.03
609.955	776.8
610.155	836.86
610.355	811.28
610.555	766.33
610.755	786.48
610.954	747.54
611.154	830.27
611.354	835.31
611.554	764.59
611.753	804.12
611.953	754.13
612.153	802.95
612.352	809.35
612.552	771.95
612.752	723.9
612.951	750.25
613.151	783.58
613.351	779.32
613.55	759.94
613.75	771.57
613.949	780.09
614.149	798.11
614.348	781.06
614.548	744.83
614.747	740.37
614.947	733.98
615.146	707.24
615.346	789.97
615.545	778.93
615.745	775.44
615.944	804.12
616.144	745.02
616.343	776.41
616.542	744.83
616.742	743.47
616.941	741.34
617.14	702.2
617.34	761.68
617.539	734.75
617.738	709.18
617.938	810.7
618.137	756.84
618.336	684.77
618.535	788.03
618.734	748.12
618.934	782.03
619.133	757.23
619.332	776.02
619.531	742.5
619.73	747.93
619.929	793.27
620.128	766.53
620.328	808.18
620.527	734.56
620.726	739.6
620.925	761.88
621.124	752.97
621.323	724.49
621.522	727.78
621.721	723.9
621.92	709.57
622.119	748.32
622.318	690
622.517	731.65
622.715	740.95
622.914	661.71
623.113	741.15
