Data from oakcork_FLMT105791__12__17-26-47-056.txt Node

Date: Mon Mar 20 17:26:47 GMT 2023
User: antho
Spectrometer: FLMT10579
Trigger mode: 0
Integration Time (sec): 1.000000E-1
Scans to average: 10
Electric dark correction enabled: true
Nonlinearity correction enabled: false
Boxcar width: 0
XAxis mode: Wavelengths
Number of Pixels in Spectrum: 3648
>>>>>Begin Spectral Data<<<<<
345.248	-155.01
345.464	-155.01
345.681	-155.01
345.898	-178.84
346.114	-154.82
346.331	-25.59
346.548	-6.6
346.764	6.38
346.981	12.77
347.197	-20.36
347.414	-4.47
347.631	-4.28
347.847	40.67
348.064	10.64
348.28	25.17
348.497	-47.68
348.713	13.35
348.93	-4.86
349.146	37.18
349.363	6.38
349.579	17.42
349.796	-23.46
350.012	-10.87
350.229	18.78
350.445	24.2
350.661	-8.35
350.878	8.51
351.094	49.2
351.311	27.3
351.527	2.7
351.743	-16.68
351.96	46.68
352.176	37.96
352.392	25.17
352.609	59.46
352.825	-9.32
353.041	12
353.257	6.57
353.474	13.55
353.69	19.16
353.906	-0.79
354.122	-16.29
354.339	34.28
354.555	-2.53
354.771	-2.15
354.987	59.46
355.203	60.82
355.42	-18.03
355.636	5.22
355.852	-21.91
356.068	12.38
356.284	-26.75
356.5	68.18
356.716	8.12
356.932	-12.8
357.148	35.63
357.364	28.66
357.58	63.15
357.796	56.95
358.012	55.59
358.228	35.63
358.444	-46.71
358.66	56.17
358.876	15.87
359.092	-30.24
359.308	5.22
359.524	21.49
359.74	-0.02
359.956	1.73
360.172	24.4
360.388	48.42
360.604	24.59
360.819	106.35
361.035	8.7
361.251	39.7
361.467	13.93
361.683	39.9
361.898	35.25
362.114	46.48
362.33	29.43
362.546	61.98
362.762	20.71
362.977	14.32
363.193	-14.55
363.409	59.85
363.624	-11.25
363.84	19.55
364.056	14.9
364.271	26.91
364.487	39.9
364.703	9.28
364.918	4.44
365.134	6.96
365.35	32.15
365.565	114.88
365.781	35.05
365.996	38.73
366.212	59.08
366.427	54.81
366.643	8.31
366.858	4.25
367.074	-15.9
367.289	68.96
367.505	111.78
367.72	-10.87
367.936	-14.93
368.151	45.71
368.367	27.5
368.582	46.48
368.798	7.35
369.013	49.78
369.228	30.4
369.444	40.09
369.659	72.45
369.874	42.61
370.09	79.42
370.305	-13.97
370.52	23.81
370.736	43
370.951	19.75
371.166	67.02
371.381	97.05
371.597	49.39
371.812	0.57
372.027	-1.76
372.242	19.94
372.458	117.78
372.673	36.21
372.888	17.61
373.103	65.86
373.318	127.66
373.533	53.46
373.749	53.65
373.964	-11.06
374.179	71.09
374.394	20.33
374.609	59.46
374.824	12.58
375.039	96.47
375.254	6.77
375.469	105.38
375.684	20.52
375.899	88.53
376.114	57.91
376.329	45.13
376.544	49.39
376.759	48.42
376.974	-4.28
377.189	31.95
377.404	27.5
377.619	82.13
377.834	-14.74
378.049	-6.6
378.264	-11.45
378.478	40.48
378.693	-4.67
378.908	32.34
379.123	18.97
379.338	101.12
379.553	51.13
379.767	28.85
379.982	53.46
380.197	64.89
380.412	40.28
380.626	49.97
380.841	89.3
381.056	67.6
381.271	98.41
381.485	31.18
381.7	23.81
381.915	62.76
382.129	13.16
382.344	67.41
382.559	21.49
382.773	80.97
382.988	4.05
383.202	38.93
383.417	6.96
383.632	127.86
383.846	14.9
384.061	41.06
384.275	14.9
384.49	63.34
384.704	54.23
384.919	47.06
385.133	69.54
385.348	88.72
385.562	5.02
385.777	62.18
385.991	35.63
386.206	6.57
386.42	-4.28
386.634	74
386.849	49.39
387.063	66.44
387.277	30.79
387.492	32.53
387.706	0.18
387.92	25.17
388.135	71.67
388.349	58.3
388.563	62.37
388.778	36.41
388.992	62.56
389.206	78.65
389.42	135.61
389.635	38.73
389.849	77.48
390.063	86.01
390.277	53.65
390.491	112.36
390.706	68.57
390.92	101.12
391.134	36.21
391.348	80.97
391.562	34.66
391.776	51.71
391.99	28.08
392.205	82.71
392.419	62.37
392.633	73.41
392.847	108.48
393.061	-0.79
393.275	100.73
393.489	49.97
393.703	60.82
393.917	122.43
394.131	21.3
394.345	92.79
394.559	94.92
394.773	25.56
394.986	90.46
395.2	83.3
395.414	102.67
395.628	42.03
395.842	75.74
396.056	90.27
396.27	6.38
396.484	82.13
396.697	71.86
396.911	95.69
397.125	73.41
397.339	97.63
397.553	65.28
397.766	135.61
397.98	100.54
398.194	113.13
398.408	64.7
398.621	123.21
398.835	110.03
399.049	91.24
399.262	140.64
399.476	137.93
399.69	103.44
399.903	181.33
400.117	100.73
400.331	106.93
400.544	74.58
400.758	219.69
400.971	93.76
401.185	129.99
401.398	97.05
401.612	160.99
401.826	144.33
402.039	113.71
402.253	95.89
402.466	131.93
402.68	102.48
402.893	126.5
403.106	121.27
403.32	125.73
403.533	107.71
403.747	74.96
403.96	137.16
404.174	170.48
404.387	83.1
404.6	128.24
404.814	143.36
405.027	93.37
405.24	124.95
405.454	86.01
405.667	154.21
405.88	53.85
406.094	160.21
406.307	152.85
406.52	142.58
406.733	74.38
406.947	80.58
407.16	155.37
407.373	147.62
407.586	95.69
407.799	64.89
408.012	172.03
408.226	148.59
408.439	178.43
408.652	81.16
408.865	144.52
409.078	191.79
409.291	159.63
409.504	101.51
409.717	138.51
409.93	146.26
410.143	123.98
410.357	78.65
410.57	89.3
410.783	115.65
410.996	128.44
411.209	122.43
411.421	183.07
411.634	136.19
411.847	105.77
412.06	151.88
412.273	159.24
412.486	159.05
412.699	210.01
412.912	127.66
413.125	174.74
413.338	147.04
413.55	177.65
413.763	138.9
413.976	144.33
414.189	134.83
414.402	150.91
414.615	196.64
414.827	113.13
415.04	162.93
415.253	178.62
415.466	159.83
415.678	213.3
415.891	146.26
416.104	130.96
416.316	140.64
416.529	139.48
416.742	161.76
416.954	188.5
417.167	142.39
417.38	130.96
417.592	185.4
417.805	136.96
418.017	105.58
418.23	168.16
418.442	131.54
418.655	104.61
418.868	147.43
419.08	177.46
419.293	192.57
419.505	179.78
419.718	156.14
419.93	209.81
420.142	138.9
420.355	189.08
420.567	227.64
420.78	188.5
420.992	143.16
421.205	214.07
421.417	118.75
421.629	184.24
421.842	150.53
422.054	120.69
422.266	186.76
422.479	188.31
422.691	116.81
422.903	197.02
423.115	140.26
423.328	153.24
423.54	177.26
423.752	169.13
423.964	143.36
424.177	170.68
424.389	156.92
424.601	266.39
424.813	185.4
425.025	212.33
425.238	207.29
425.45	177.46
425.662	167.58
425.874	475.83
426.086	171.64
426.298	218.92
426.51	198.38
426.722	181.72
426.934	197.41
427.146	204.39
427.358	142.19
427.57	185.01
427.782	158.47
427.994	183.27
428.206	172.42
428.418	142.39
428.63	209.04
428.842	217.76
429.054	190.44
429.266	222.21
429.478	154.21
429.69	164.28
429.902	149.75
430.114	193.54
430.325	176.49
430.537	151.11
430.749	150.33
430.961	102.09
431.173	139.87
431.384	163.51
431.596	105.96
431.808	180.36
432.02	184.43
432.231	226.28
432.443	238.87
432.655	199.16
432.867	175.71
433.078	207.1
433.29	266.77
433.502	249.92
433.713	249.53
433.925	227.44
434.136	257.67
434.348	157.5
434.56	140.26
434.771	261.35
434.983	184.24
435.194	203.22
435.406	184.62
435.617	265.03
435.829	272.39
436.04	235.58
436.252	253.79
436.463	270.65
436.675	260.38
436.886	259.41
437.098	263.09
437.309	286.73
437.521	235.77
437.732	265.81
437.943	246.24
438.155	236.16
438.366	201.29
438.578	297.77
438.789	247.98
439	258.25
439.211	225.51
439.423	257.86
439.634	274.33
439.845	285.37
440.057	237.52
440.268	273.75
440.479	227.64
440.69	248.17
440.902	244.88
441.113	260.57
441.324	236.74
441.535	249.72
441.746	305.52
441.957	238.68
442.168	259.22
442.38	283.24
442.591	298.16
442.802	256.51
443.013	267.94
443.224	251.47
443.435	253.21
443.646	246.82
443.857	283.82
444.068	271.04
444.279	255.92
444.49	346.21
444.701	267.94
444.912	390.77
445.123	305.33
445.334	311.72
445.545	273.75
445.756	285.95
445.967	259.41
446.178	291.96
446.388	316.18
446.599	301.84
446.81	311.72
447.021	261.74
447.232	317.92
447.443	351.05
447.653	286.92
447.864	349.31
448.075	299.71
448.286	334.59
448.496	334.97
448.707	337.49
448.918	295.84
449.129	395.23
449.339	301.84
449.55	332.45
449.761	297.77
449.971	342.53
450.182	300.68
450.393	315.02
450.603	299.52
450.814	366.17
451.024	324.7
451.235	379.15
451.446	370.04
451.656	391.55
451.867	300.49
452.077	341.17
452.288	389.42
452.498	382.05
452.709	324.12
452.919	314.24
453.13	281.69
453.34	353.19
453.55	297.97
453.761	341.95
453.971	339.82
454.182	328
454.392	322.96
454.602	424.29
454.813	363.07
455.023	387.28
455.233	323.93
455.444	335.94
455.654	290.22
455.864	330.71
456.075	340.98
456.285	323.35
456.495	369.65
456.705	359
456.916	389.22
457.126	407.43
457.336	348.73
457.546	311.14
457.756	320.83
457.967	403.37
458.177	318.5
458.387	344.66
458.597	334.59
458.807	364.03
459.017	354.93
459.227	357.25
459.437	349.7
459.647	384.38
459.857	356.09
460.068	338.65
460.278	381.47
460.488	362.87
460.698	423.13
460.908	384.18
461.117	338.46
461.327	335.36
461.537	387.09
461.747	391.55
461.957	400.07
462.167	451.22
462.377	423.71
462.587	385.15
462.797	430.88
463.007	399.68
463.216	383.02
463.426	453.93
463.636	411.7
463.846	353.19
464.056	371.2
464.265	409.18
464.475	334.78
464.685	403.56
464.895	399.68
465.104	381.47
465.314	409.95
465.524	402.2
465.733	367.33
465.943	448.9
466.153	457.42
466.362	455.29
466.572	419.64
466.782	364.42
466.991	419.25
467.201	434.95
467.41	341.56
467.62	439.02
467.829	396.2
468.039	427.58
468.249	386.7
468.458	420.8
468.668	448.51
468.877	421
469.086	460.13
469.296	448.12
469.505	407.43
469.715	489.58
469.924	436.5
470.134	476.8
470.343	480.67
470.552	428.36
470.762	426.42
470.971	379.73
471.18	439.21
471.39	450.25
471.599	424.68
471.808	497.33
472.018	423.9
472.227	494.04
472.436	477.76
472.645	470.4
472.855	441.34
473.064	507.41
473.273	492.49
473.482	488.03
473.691	529.11
473.901	523.88
474.11	457.61
474.319	594.01
474.528	506.44
474.737	566.89
474.946	524.65
475.155	532.79
475.364	529.3
475.573	504.7
475.783	515.74
475.992	560.11
476.201	550.23
476.41	512.64
476.619	502.56
476.828	531.24
477.037	509.35
477.245	512.64
477.454	561.46
477.663	544.99
477.872	542.86
478.081	624.04
478.29	525.81
478.499	639.74
478.708	576.77
478.917	615.91
479.125	606.03
479.334	578.9
479.543	542.86
479.752	586.26
479.961	589.36
480.169	615.13
480.378	604.09
480.587	713.17
480.796	600.02
481.004	610.29
481.213	624.82
481.422	631.6
481.63	650.01
481.839	643.61
482.048	670.35
482.256	658.72
482.465	664.54
482.674	677.13
482.882	678.68
483.091	694.37
483.299	671.12
483.508	695.73
483.716	656.4
483.925	660.47
484.134	629.47
484.342	665.7
484.551	706
484.759	676.36
484.967	711.04
485.176	713.17
485.384	699.41
485.593	679.26
485.801	672.29
486.01	658.14
486.218	645.36
486.426	570.96
486.635	586.26
486.843	600.41
487.051	624.24
487.26	663.96
487.468	659.31
487.676	706
487.885	632.57
488.093	675
488.301	722.27
488.509	712.39
488.717	732.74
488.926	721.11
489.134	705.42
489.342	710.65
489.55	695.15
489.758	726.73
489.967	732.54
490.175	814.5
490.383	742.23
490.591	797.64
490.799	712.39
491.007	772.45
491.215	760.05
491.423	750.17
491.631	780.59
491.839	759.67
492.047	802.87
492.255	721.5
492.463	685.85
492.671	738.74
492.879	781.56
493.087	787.37
493.295	800.16
493.503	807.91
493.711	803.26
493.919	830
494.127	824.96
494.334	835.81
494.542	779.43
494.75	811.01
494.958	813.72
495.166	847.82
495.374	838.72
495.581	838.91
495.789	817.21
495.997	890.64
496.205	802.1
496.412	811.78
496.62	831.93
496.828	849.95
497.035	829.03
497.243	871.65
497.451	850.92
497.658	882.31
497.866	844.53
498.074	872.62
498.281	833.1
498.489	929.97
498.696	835.03
498.904	834.65
499.112	835.62
499.319	928.03
499.527	860.22
499.734	894.13
499.942	830.58
500.149	857.12
500.357	841.23
500.564	821.08
500.771	860.61
500.979	827.28
501.186	817.4
501.394	864.68
501.601	845.3
501.808	875.14
502.016	851.12
502.223	827.09
502.43	830
502.638	816.43
502.845	823.41
503.052	923.58
503.26	844.72
503.467	958.65
503.674	875.92
503.881	851.31
504.089	945.86
504.296	904.4
504.503	810.43
504.71	833.87
504.917	866.23
505.125	866.23
505.332	913.7
505.539	883.08
505.746	955.35
505.953	942.56
506.16	925.13
506.367	978.79
506.574	988.87
506.781	964.46
506.988	899.94
507.195	903.04
507.402	912.73
507.609	937.53
507.816	892
508.023	896.65
508.23	905.56
508.437	859.06
508.644	922.22
508.851	955.35
509.058	969.69
509.265	928.42
509.472	956.13
509.679	1052.42
509.885	932.3
510.092	958.45
510.299	945.47
510.506	959.23
510.713	950.31
510.92	957.29
511.126	977.44
511.333	1013.86
511.54	987.9
511.746	1017.74
511.953	1001.08
512.16	1020.26
512.367	978.6
512.573	940.63
512.78	1011.54
512.987	988.87
513.193	984.61
513.4	916.99
513.606	932.49
513.813	1017.93
514.02	951.67
514.226	1019.68
514.433	1003.21
514.639	938.11
514.846	970.66
515.052	965.04
515.259	967.95
515.465	970.85
515.672	995.84
515.878	1060.94
516.085	960.2
516.291	1023.36
516.497	946.25
516.704	980.93
516.91	909.82
517.117	916.02
517.323	870.88
517.529	902.26
517.736	893.74
517.942	944.7
518.148	900.71
518.354	910.21
518.561	957.29
518.767	952.83
518.973	969.49
519.179	1011.73
519.386	947.6
519.592	952.64
519.798	940.43
520.004	1045.64
520.21	981.7
520.417	1066.37
520.623	1047.58
520.829	1069.86
521.035	1081.09
521.241	1063.85
521.447	1090.39
521.653	1181.84
521.859	1060.94
522.065	1101.05
522.271	1181.26
522.477	1125.46
522.683	1141.16
522.889	1099.89
523.095	1096.01
523.301	1113.06
523.507	1071.41
523.713	1120.04
523.919	1081.29
524.125	1171.96
524.331	1096.59
524.537	1203.54
524.742	1183
524.948	1211.29
525.154	1169.44
525.36	1254.11
525.566	1207.42
525.772	1251.59
525.977	1127.98
526.183	1184.55
526.389	1189.79
526.595	1127.01
526.8	1151.42
527.006	1084.39
527.212	1073.54
527.417	1083.03
527.623	1056.68
527.829	1121.97
528.034	1169.25
528.24	1148.9
528.446	1122.56
528.651	1218.07
528.857	1201.8
529.062	1263.02
529.268	1218.07
529.473	1215.17
529.679	1231.05
529.884	1315.33
530.09	1265.93
530.295	1287.24
530.501	1281.23
530.706	1275.23
530.912	1225.82
531.117	1258.37
531.323	1299.06
531.528	1307.78
531.733	1316.69
531.939	1261.08
532.144	1298.67
532.35	1291.5
532.555	1302.93
532.76	1298.87
532.966	1295.18
533.171	1268.25
533.376	1244.03
533.581	1232.41
533.787	1272.13
533.992	1301.77
534.197	1361.45
534.402	1258.95
534.607	1298.48
534.813	1366.68
535.018	1298.48
535.223	1292.67
535.428	1319.98
535.633	1355.44
535.838	1361.06
536.043	1370.36
536.249	1441.66
536.454	1360.86
536.659	1350.21
536.864	1298.09
537.069	1300.03
537.274	1318.82
537.479	1350.6
537.684	1337.81
537.889	1294.8
538.094	1380.24
538.299	1351.18
538.504	1413.18
538.708	1329.86
538.913	1370.16
539.118	1335.87
539.323	1377.33
539.528	1343.43
539.733	1373.26
539.938	1396.32
540.142	1392.64
540.347	1347.88
540.552	1301.97
540.757	1357.18
540.962	1320.37
541.166	1310.88
541.371	1268.83
541.576	1315.92
541.781	1229.12
541.985	1354.08
542.19	1357.57
542.395	1395.35
542.599	1431.58
542.804	1393.61
543.008	1429.64
543.213	1333.35
543.418	1339.94
543.622	1399.42
543.827	1301.77
544.031	1418.21
544.236	1420.34
544.44	1389.15
544.645	1493.39
544.849	1350.6
545.054	1413.76
545.258	1490.09
545.463	1452.31
545.667	1395.74
545.872	1436.04
546.076	1424.99
546.281	1413.18
546.485	1375.2
546.689	1416.86
546.894	1452.31
547.098	1474.79
547.302	1388.38
547.507	1406.78
547.711	1441.66
547.915	1467.23
548.119	1398.06
548.324	1392.06
548.528	1452.31
548.732	1414.73
548.936	1476.14
549.141	1431.78
549.345	1411.63
549.549	1423.06
549.753	1415.31
549.957	1487.38
550.161	1487.77
550.366	1446.31
550.57	1392.83
550.774	1424.03
550.978	1400.78
551.182	1465.88
551.386	1392.64
551.59	1406.2
551.794	1411.43
551.998	1441.66
552.202	1424.22
552.406	1390.9
552.61	1456.38
552.814	1422.86
553.018	1490.09
553.222	1431.39
553.426	1403.1
553.63	1483.31
553.833	1398.84
554.037	1393.8
554.241	1452.51
554.445	1433.52
554.649	1423.64
554.853	1422.48
555.056	1486.03
555.26	1445.92
555.464	1431.19
555.668	1439.72
555.871	1444.95
556.075	1472.85
556.279	1388.18
556.483	1381.6
556.686	1405.23
556.89	1456.58
557.094	1442.24
557.297	1370.36
557.501	1437.59
557.704	1346.72
557.908	1450.38
558.112	1350.21
558.315	1475.95
558.519	1392.64
558.722	1409.49
558.926	1367.26
559.129	1318.24
559.333	1293.63
559.536	1309.91
559.74	1314.17
559.943	1297.9
560.147	1299.06
560.35	1357.96
560.553	1338.2
560.757	1312.82
560.96	1430.03
561.164	1323.08
561.367	1402.13
561.57	1345.17
561.774	1359.7
561.977	1374.43
562.18	1293.63
562.384	1389.73
562.587	1313.01
562.79	1304.87
562.993	1318.63
563.197	1385.28
563.4	1370.36
563.603	1380.24
563.806	1422.48
564.009	1304.68
564.212	1319.21
564.416	1281.82
564.619	1317.08
564.822	1281.43
565.025	1387.6
565.228	1290.15
565.431	1310.88
565.634	1250.82
565.837	1255.27
566.04	1239.19
566.243	1237.45
566.446	1148.32
566.649	1280.27
566.852	1244.42
567.055	1245.58
567.258	1315.92
567.461	1335.48
567.664	1295.96
567.867	1203.15
568.07	1271.35
568.273	1262.05
568.475	1303.32
568.678	1227.37
568.881	1258.57
569.084	1246.55
569.287	1150.65
569.489	1179.9
569.692	1251.01
569.895	1278.33
570.098	1150.84
570.3	1158.98
570.503	1119.84
570.706	1181.65
570.909	1153.55
571.111	1123.33
571.314	1144.64
571.516	1146.58
571.719	1169.44
571.922	1139.99
572.124	1142.32
572.327	1165.18
572.529	1079.35
572.732	1075.09
572.935	1160.72
573.137	1202.57
573.34	1152
573.542	1186.3
573.745	1190.37
573.947	1135.34
574.15	1151.42
574.352	1124.69
574.554	1176.03
574.757	1128.17
574.959	1106.67
575.162	1102.6
575.364	1088.84
575.566	1189.2
575.769	1119.26
575.971	1112.09
576.173	1022.58
576.376	1085.74
576.578	1120.62
576.78	1179.13
576.982	1024.71
577.185	1070.05
577.387	1061.91
577.589	1044.67
577.791	1080.12
577.993	1086.91
578.196	1075.47
578.398	1094.66
578.6	1108.61
578.802	1051.84
579.004	1038.86
579.206	1069.08
579.408	1107.25
579.61	1071.99
579.812	1112.29
580.014	1040.41
580.216	1069.08
580.418	1038.08
580.62	1048.16
580.822	1015.8
581.024	1080.32
581.226	1074.12
581.428	1054.16
581.63	1165.37
581.832	1042.54
582.034	1082.84
582.236	1084.97
582.438	1089.42
582.64	1137.09
582.841	1144.84
583.043	1147.74
583.245	1113.26
583.447	1095.04
583.649	1071.41
583.85	1087.29
584.052	1147.16
584.254	1054.55
584.456	1107.64
584.657	1033.63
584.859	1091.75
585.061	1062.11
585.262	1039.44
585.464	1041.18
585.666	1101.24
585.867	1036.14
586.069	1155.69
586.27	1063.85
586.472	1057.07
586.674	1038.66
586.875	1034.98
587.077	1035.76
587.278	1076.64
587.48	1013.86
587.681	1154.91
587.883	1066.56
588.084	986.93
588.285	1029.94
588.487	1017.74
588.688	1026.26
588.89	934.04
589.091	947.02
589.292	990.81
589.494	938.69
589.695	901.68
589.896	861.58
590.098	826.9
590.299	901.88
590.5	880.57
590.702	908.85
590.903	931.91
591.104	983.44
591.305	943.34
591.507	1032.66
591.708	968.72
591.909	944.89
592.11	1004.56
592.311	990.42
592.512	939.08
592.714	901.1
592.915	934.62
593.116	930.94
593.317	931.33
593.518	951.09
593.719	930.55
593.92	970.66
594.121	980.73
594.322	961.94
594.523	947.21
594.724	932.49
594.925	945.47
595.126	960.78
595.327	972.4
595.528	958.06
595.729	955.16
595.929	935.4
596.13	963.68
596.331	956.32
596.532	977.83
596.733	1025.68
596.934	975.69
597.135	975.31
597.335	946.25
597.536	894.71
597.737	938.5
597.938	916.6
598.138	955.16
598.339	930.16
598.54	949.93
598.74	938.88
598.941	953.41
599.142	1035.56
599.342	973.18
599.543	900.52
599.744	929.58
599.944	919.7
600.145	938.69
600.345	957.29
600.546	1033.63
600.746	1015.22
600.947	1011.15
601.147	976.47
601.348	996.62
601.548	938.3
601.749	939.27
601.949	897.42
602.15	933.46
602.35	915.83
602.551	967.17
602.751	890.64
602.951	924.16
603.152	867.2
603.352	986.16
603.552	920.67
603.753	945.66
603.953	965.81
604.153	929.78
604.354	920.67
604.554	906.14
604.754	934.04
604.954	900.52
605.155	948.38
605.355	945.08
605.555	978.99
605.755	1003.59
605.955	929.97
606.155	945.08
606.356	963.3
606.556	936.36
606.756	949.93
606.956	902.07
607.156	973.56
607.356	926.68
607.556	924.55
607.756	879.79
607.956	998.56
608.156	927.06
608.356	915.44
608.556	961.16
608.756	934.04
608.956	883.86
609.156	936.56
609.356	862.16
609.556	897.42
609.755	934.04
609.955	880.95
610.155	904.98
610.355	951.67
610.555	865.07
610.755	892
610.954	840.27
611.154	903.81
611.354	970.27
611.554	845.11
611.753	877.27
611.953	866.81
612.153	883.86
612.352	893.74
612.552	858.48
612.752	819.15
612.951	890.25
613.151	882.31
613.351	857.7
613.55	863.13
613.75	868.94
613.949	864.1
614.149	873.2
614.348	840.27
614.548	832.9
614.747	802.29
614.947	842.78
615.146	767.8
615.346	886.76
615.545	847.82
615.745	867.2
615.944	857.7
616.144	877.08
616.343	882.7
616.542	837.36
616.742	836
616.941	827.09
617.14	790.09
617.34	821.47
617.539	823.6
617.738	791.05
617.938	870.3
618.137	832.52
618.336	785.63
618.535	868.36
618.734	842.01
618.934	844.92
619.133	831.93
619.332	856.15
619.531	788.92
619.73	827.67
619.929	846.66
