Data from oakcork_FLMT105791__24__17-26-59-066.txt Node

Date: Mon Mar 20 17:26:59 GMT 2023
User: antho
Spectrometer: FLMT10579
Trigger mode: 0
Integration Time (sec): 1.000000E-1
Scans to average: 10
Electric dark correction enabled: true
Nonlinearity correction enabled: false
Boxcar width: 0
XAxis mode: Wavelengths
Number of Pixels in Spectrum: 3648
>>>>>Begin Spectral Data<<<<<
345.248	-167.53
345.464	-167.53
345.681	-167.53
345.898	-166.75
346.114	-165.4
346.331	-39.27
346.548	11.3
346.764	-19.12
346.981	-11.17
347.197	-8.46
347.414	27.38
347.631	-18.73
347.847	62.06
348.064	15.95
348.28	32.23
348.497	-51.67
348.713	-0.52
348.93	33
349.146	20.99
349.363	-14.85
349.579	16.92
349.796	-0.9
350.012	5.88
350.229	39.4
350.445	14.21
350.661	-9.43
350.878	6.46
351.094	24.28
351.311	40.75
351.527	43.08
351.743	-14.27
351.96	19.63
352.176	66.13
352.392	33
352.609	27
352.825	-18.92
353.041	14.79
353.257	0.84
353.474	7.43
353.69	36.68
353.906	16.34
354.122	-4
354.339	55.09
354.555	45.01
354.771	-8.07
354.987	92.87
355.203	62.26
355.42	0.06
355.636	-24.15
355.852	-12.53
356.068	4.33
356.284	-34.81
356.5	69.43
356.716	29.51
356.932	31.45
357.148	53.35
357.364	31.26
357.58	67.88
357.796	82.79
358.012	41.91
358.228	47.92
358.444	-27.84
358.66	50.25
358.876	21.38
359.092	-15.44
359.308	36.3
359.524	41.53
359.74	25.64
359.956	-3.42
360.172	7.23
360.388	69.62
360.604	37.07
360.819	85.12
361.035	34.55
361.251	54.31
361.467	-4.39
361.683	32.03
361.898	-0.32
362.114	41.14
362.33	26.22
362.546	67.68
362.762	28.74
362.977	29.13
363.193	-12.34
363.409	52.76
363.624	-15.44
363.84	25.83
364.056	6.85
364.271	31.65
364.487	33.97
364.703	-3.81
364.918	4.71
365.134	15.18
365.35	38.43
365.565	116.12
365.781	50.44
365.996	34.55
366.212	97.52
366.427	33.39
366.643	-10.2
366.858	12.85
367.074	2.2
367.289	63.61
367.505	112.24
367.72	-29.38
367.936	34.16
368.151	66.91
368.367	37.46
368.582	33.39
368.798	3.55
369.013	60.13
369.228	18.86
369.444	34.55
369.659	80.66
369.874	54.31
370.09	79.31
370.305	-32.48
370.52	5.3
370.736	79.31
370.951	34.36
371.166	75.04
371.381	107.4
371.597	61.68
371.812	0.06
372.027	8.59
372.242	39.2
372.458	105.08
372.673	-2.07
372.888	33.58
373.103	27.19
373.318	105.27
373.533	58.58
373.749	38.04
373.964	-1.49
374.179	70.78
374.394	30.87
374.609	95
374.824	8.59
375.039	81.63
375.254	6.26
375.469	77.76
375.684	57.41
375.899	70.01
376.114	57.41
376.329	33.78
376.544	76.79
376.759	76.59
376.974	30.87
377.189	4.91
377.404	-6.14
377.619	98.88
377.834	-5.94
378.049	-21.05
378.264	32.61
378.478	61.48
378.693	19.44
378.908	62.45
379.123	32.23
379.338	105.66
379.553	70.2
379.767	44.43
379.982	39.01
380.197	80.28
380.412	29.13
380.626	47.73
380.841	91.9
381.056	63.03
381.271	105.08
381.485	31.06
381.7	23.31
381.915	47.73
382.129	52.38
382.344	40.36
382.559	22.73
382.773	66.33
382.988	2.58
383.202	58
383.417	7.43
383.632	128.52
383.846	60.13
384.061	65.55
384.275	25.45
384.49	66.71
384.704	74.27
384.919	54.51
385.133	43.85
385.348	55.48
385.562	21.18
385.777	72.91
385.991	54.12
386.206	30.1
386.42	35.33
386.634	98.68
386.849	76.59
387.063	68.84
387.277	8.98
387.492	29.71
387.706	-4.2
387.92	38.62
388.135	70.39
388.349	56.83
388.563	44.63
388.778	57.61
388.992	65.74
389.206	93.64
389.42	94.23
389.635	51.41
389.849	80.86
390.063	87.25
390.277	35.91
390.491	93.26
390.706	54.31
390.92	94.03
391.134	55.28
391.348	80.86
391.562	16.53
391.776	44.63
391.99	43.46
392.205	80.47
392.419	30.29
392.633	55.86
392.847	115.73
393.061	15.56
393.275	99.65
393.489	50.25
393.703	73.88
393.917	97.33
394.131	27.58
394.345	52.57
394.559	96.36
394.773	55.67
394.986	74.66
395.2	53.73
395.414	80.47
395.628	23.9
395.842	67.29
396.056	60.51
396.27	7.23
396.484	75.24
396.697	106.24
396.911	94.42
397.125	73.88
397.339	87.83
397.553	77.76
397.766	139.76
397.98	99.84
398.194	125.81
398.408	79.5
398.621	99.07
398.835	99.26
399.049	71.94
399.262	134.14
399.476	114.76
399.69	105.66
399.903	132.78
400.117	102.17
400.331	113.02
400.544	75.82
400.758	208.15
400.971	119.99
401.185	116.31
401.398	63.42
401.612	144.41
401.826	129.1
402.039	135.3
402.253	109.92
402.466	116.51
402.68	87.83
402.893	116.51
403.106	96.94
403.32	110.31
403.533	120.96
403.747	137.63
403.96	103.53
404.174	114.96
404.387	50.63
404.6	108.56
404.814	136.85
405.027	95.19
405.24	116.12
405.454	98.88
405.667	123.87
405.88	50.05
406.094	125.23
406.307	148.28
406.52	143.24
406.733	69.43
406.947	75.04
407.16	155.84
407.373	163.59
407.586	90.16
407.799	83.76
408.012	139.37
408.226	119.03
408.439	172.69
408.652	83.38
408.865	138.4
409.078	141.11
409.291	145.96
409.504	113.6
409.717	152.93
409.93	131.04
410.143	115.73
410.357	83.96
410.57	58.96
410.783	101.78
410.996	128.52
411.209	104.69
411.421	174.63
411.634	111.47
411.847	75.24
412.06	149.83
412.273	126.97
412.486	140.92
412.699	224.04
412.912	132.98
413.125	168.24
413.338	117.09
413.55	171.53
413.763	126.39
413.976	141.89
414.189	113.41
414.402	126
414.615	168.24
414.827	99.65
415.04	166.11
415.253	151.38
415.466	177.73
415.678	224.62
415.891	123.87
416.104	158.36
416.316	133.56
416.529	106.43
416.742	159.13
416.954	178.12
417.167	163.2
417.38	134.14
417.592	161.26
417.805	113.6
418.017	87.83
418.23	174.82
418.442	111.86
418.655	106.82
418.868	131.62
419.08	187.03
419.293	200.21
419.505	152.74
419.718	160.87
419.93	172.89
420.142	150.02
420.355	179.28
420.567	199.04
420.78	165.72
420.992	157.97
421.205	192.84
421.417	116.12
421.629	148.67
421.842	147.7
422.054	104.69
422.266	184.9
422.479	187.42
422.691	143.83
422.903	191.29
423.115	142.66
423.328	146.34
423.54	166.3
423.752	147.12
423.964	131.23
424.177	172.89
424.389	151.57
424.601	244.19
424.813	214.93
425.025	203.89
425.238	178.31
425.45	167.46
425.662	139.37
425.874	445.49
426.086	154.48
426.298	187.42
426.51	181.8
426.722	174.82
426.934	146.92
427.146	198.46
427.358	149.44
427.57	210.47
427.782	158.16
427.994	172.5
428.206	174.05
428.418	160.1
428.63	196.33
428.842	186.26
429.054	189.16
429.266	198.85
429.478	143.44
429.69	178.51
429.902	141.31
430.114	179.47
430.325	183.35
430.537	144.6
430.749	144.21
430.961	84.34
431.173	182.19
431.384	192.26
431.596	93.84
431.808	163.01
432.02	198.46
432.231	224.23
432.443	239.73
432.655	164.75
432.867	148.67
433.078	213.77
433.29	282.16
433.502	222.87
433.713	242.83
433.925	215.51
434.136	253.87
434.348	172.89
434.56	151.57
434.771	282.74
434.983	122.9
435.194	179.09
435.406	215.71
435.617	244.96
435.829	269.95
436.04	249.42
436.252	264.34
436.463	271.7
436.675	256.78
436.886	227.91
437.098	252.13
437.309	292.04
437.521	221.91
437.732	236.24
437.943	239.34
438.155	270.54
438.366	178.89
438.578	274.6
438.789	254.07
439	265.11
439.211	220.36
439.423	244.19
439.634	254.45
439.845	279.25
440.057	229.66
440.268	268.02
440.479	222.49
440.69	226.94
440.902	239.34
441.113	254.65
441.324	226.94
441.535	269.18
441.746	302.7
441.957	221.13
442.168	243.41
442.38	260.65
442.591	316.84
442.802	237.99
443.013	260.65
443.224	274.99
443.435	258.14
443.646	222.1
443.857	248.25
444.068	268.6
444.279	236.44
444.49	336.99
444.701	277.12
444.912	341.64
445.123	310.45
445.334	298.24
445.545	275.38
445.756	254.07
445.967	249.8
446.178	290.88
446.388	314.13
446.599	305.22
446.81	292.62
447.021	279.45
447.232	324.98
447.443	342.03
447.653	249.42
447.864	335.44
448.075	287
448.286	307.74
448.496	308.7
448.707	326.92
448.918	265.69
449.129	352.49
449.339	269.95
449.55	311.22
449.761	299.21
449.971	344.55
450.182	301.73
450.393	348.03
450.603	284.68
450.814	362.95
451.024	343.19
451.235	336.6
451.446	384.85
451.656	386.4
451.867	303.67
452.077	343.77
452.288	369.35
452.498	371.48
452.709	305.99
452.919	333.31
453.13	268.79
453.34	353.27
453.55	276.74
453.761	357.53
453.971	319.94
454.182	324.01
454.392	324.4
454.602	376.32
454.813	344.16
455.023	360.63
455.233	260.07
455.444	347.07
455.654	270.92
455.864	316.45
456.075	303.86
456.285	310.06
456.495	351.33
456.705	351.72
456.916	374.19
457.126	402.87
457.336	333.7
457.546	317.23
457.756	294.75
457.967	376.13
458.177	326.14
458.387	343.97
458.597	322.65
458.807	322.27
459.017	302.7
459.227	317.42
459.437	327.69
459.647	375.16
459.857	387.75
460.068	312.39
460.278	390.66
460.488	364.7
460.698	402.28
460.908	352.1
461.117	318.78
461.327	344.16
461.537	384.07
461.747	361.79
461.957	375.55
462.167	466.41
462.377	408.29
462.587	374.77
462.797	411
463.007	388.14
463.216	386.2
463.426	413.33
463.636	406.16
463.846	325.95
464.056	383.49
464.265	418.75
464.475	332.53
464.685	389.88
464.895	386.98
465.104	351.91
465.314	414.88
465.524	373.61
465.733	355.01
465.943	459.83
466.153	456.15
466.362	421.08
466.572	389.3
466.782	372.06
466.991	385.82
467.201	458.66
467.41	338.15
467.62	429.21
467.829	380.58
468.039	433.86
468.249	398.41
468.458	395.31
468.668	430.76
468.877	419.33
469.086	466.03
469.296	415.85
469.505	404.03
469.715	480.75
469.924	414.68
470.134	455.37
470.343	452.46
470.552	408.68
470.762	443.55
470.971	399.57
471.18	422.24
471.39	427.66
471.599	385.04
471.808	432.7
472.018	423.6
472.227	496.64
472.436	493.73
472.645	442.39
472.855	417.01
473.064	509.04
473.273	474.16
473.482	477.65
473.691	505.74
473.901	504.19
474.11	487.15
474.319	569.88
474.528	468.35
474.737	514.27
474.946	492.38
475.155	484.05
475.364	537.52
475.573	493.35
475.783	505.55
475.992	485.01
476.201	532.09
476.41	490.83
476.619	467.38
476.828	505.55
477.037	486.37
477.245	494.51
477.454	526.67
477.663	529.77
477.872	521.05
478.081	596.42
478.29	495.28
478.499	590.61
478.708	524.73
478.917	618.12
479.125	559.22
479.334	567.55
479.543	552.05
479.752	558.44
479.961	550.11
480.169	596.81
480.378	547.98
480.587	675.47
480.796	609.01
481.004	575.69
481.213	614.63
481.422	603.01
481.63	592.93
481.839	605.52
482.048	630.52
482.256	619.09
482.465	628.19
482.674	654.35
482.882	653.96
483.091	710.34
483.299	624.51
483.508	681.86
483.716	607.85
483.925	663.07
484.134	616.18
484.342	630.71
484.551	667.91
484.759	678.18
484.967	666.36
485.176	679.73
485.384	684.38
485.593	664.62
485.801	674.89
486.01	673.14
486.218	630.13
486.426	573.94
486.635	577.24
486.843	579.37
487.051	603.39
487.26	621.99
487.468	634.2
487.676	655.51
487.885	629.94
488.093	671.4
488.301	690.58
488.509	674.3
488.717	736.3
488.926	695.42
489.134	682.44
489.342	669.85
489.55	665.59
489.758	692.9
489.967	665.2
490.175	776.22
490.383	704.53
490.591	771.37
490.799	669.46
491.007	788.23
491.215	750.64
491.423	746.96
491.631	717.9
491.839	755.29
492.047	776.6
492.255	696.78
492.463	676.24
492.671	708.99
492.879	760.33
493.087	732.82
493.295	778.15
493.503	751.8
493.711	779.51
493.919	793.65
494.127	803.15
494.334	795.78
494.542	746.19
494.75	792.1
494.958	807.8
495.166	818.65
495.374	823.1
495.581	807.02
495.789	801.4
495.997	871.73
496.205	782.42
496.412	800.43
496.62	790.55
496.828	832.02
497.035	803.53
497.243	838.99
497.451	798.88
497.658	817.87
497.866	782.42
498.074	839.96
498.281	790.17
498.489	868.63
498.696	827.75
498.904	773.31
499.112	778.15
499.319	899.44
499.527	835.7
499.734	851.2
499.942	741.54
500.149	805.47
500.357	835.12
500.564	755.29
500.771	832.4
500.979	800.24
501.186	797.53
501.394	841.12
501.601	792.68
501.808	834.15
502.016	790.55
502.223	793.85
502.43	824.46
502.638	820.97
502.845	799.47
503.052	902.54
503.26	849.06
503.467	913
503.674	837.05
503.881	837.63
504.089	925.6
504.296	852.16
504.503	813.8
504.71	829.5
504.917	758.78
505.125	868.44
505.332	851
505.539	862.82
505.746	882.58
505.953	885.1
506.16	864.95
506.367	907.58
506.574	958.34
506.781	943.03
506.988	842.67
507.195	892.46
507.402	876.58
507.609	931.99
507.816	871.93
508.023	860.11
508.23	850.81
508.437	861.08
508.644	900.6
508.851	964.34
509.058	919.98
509.265	908.55
509.472	944.58
509.679	1011.62
509.885	909.9
510.092	923.08
510.299	927.34
510.506	899.63
510.713	949.43
510.92	917.26
511.126	934.12
511.333	962.6
511.54	981.59
511.746	982.94
511.953	972.29
512.16	1008.33
512.367	944.19
512.573	927.73
512.78	954.46
512.987	972.09
513.193	937.03
513.4	909.32
513.606	933.34
513.813	947.1
514.02	956.21
514.226	1019.56
514.433	1030.41
514.639	941.29
514.846	959.11
515.052	933.15
515.259	945.36
515.465	964.34
515.672	953.88
515.878	1063.16
516.085	983.72
516.291	1012.78
516.497	972.09
516.704	951.17
516.91	935.67
517.117	880.65
517.323	817.87
517.529	901.18
517.736	908.55
517.942	914.94
518.148	918.23
518.354	950.39
518.561	950.78
518.767	907.96
518.973	989.14
519.179	1009.49
519.386	967.83
519.592	936.83
519.798	939.74
520.004	1043.59
520.21	997.86
520.417	1044.94
520.623	1064.32
520.829	1081.37
521.035	1049.98
521.241	1072.84
521.447	1094.16
521.653	1163.13
521.859	1050.76
522.065	1111.59
522.271	1156.93
522.477	1123.02
522.683	1171.65
522.889	1119.73
523.095	1121.86
523.301	1114.11
523.507	1074.78
523.713	1110.24
523.919	1092.41
524.125	1183.67
524.331	1118.57
524.537	1222.22
524.742	1197.03
524.948	1190.84
525.154	1203.62
525.36	1248.96
525.566	1215.44
525.772	1246.83
525.977	1123.6
526.183	1214.67
526.389	1225.52
526.595	1136.39
526.8	1158.87
527.006	1111.79
527.212	1070.52
527.417	1061.99
527.623	1079.43
527.829	1166.81
528.034	1166.62
528.24	1129.8
528.446	1158.09
528.651	1225.52
528.857	1242.37
529.062	1272.4
529.268	1240.05
529.473	1265.62
529.679	1236.75
529.884	1342.54
530.09	1275.7
530.295	1320.65
530.501	1293.91
530.706	1270.85
530.912	1239.47
531.117	1264.65
531.323	1265.04
531.528	1323.75
531.733	1304.95
531.939	1262.72
532.144	1332.66
532.35	1284.61
532.555	1325.49
532.76	1297.98
532.966	1348.55
533.171	1296.81
533.376	1246.25
533.581	1256.52
533.787	1243.92
533.992	1312.31
534.197	1328.2
534.402	1275.7
534.607	1325.1
534.813	1403.96
535.018	1302.43
535.223	1315.22
535.428	1328.4
535.633	1370.24
535.838	1366.18
536.043	1357.07
536.249	1430.89
536.454	1349.9
536.659	1366.95
536.864	1319.1
537.069	1324.33
537.274	1379.54
537.479	1384.78
537.684	1382.45
537.889	1304.76
538.094	1420.23
538.299	1361.72
538.504	1395.82
538.708	1365.79
538.913	1385.16
539.118	1344.48
539.323	1403.57
539.528	1338.28
539.733	1385.36
539.938	1365.01
540.142	1408.8
540.347	1354.36
540.552	1376.64
540.757	1340.41
540.962	1367.34
541.166	1303.6
541.371	1326.46
541.576	1363.08
541.781	1240.82
541.985	1358.23
542.19	1375.48
542.395	1417.71
542.599	1433.02
542.804	1407.06
543.008	1428.56
543.213	1422.17
543.418	1373.34
543.622	1408.22
543.827	1334.6
544.031	1441.35
544.236	1470.22
544.44	1424.11
544.645	1461.11
544.849	1421.2
545.054	1435.15
545.258	1504.71
545.463	1491.53
545.667	1415.97
545.872	1436.31
546.076	1477
546.281	1452.2
546.485	1406.09
546.689	1438.64
546.894	1429.14
547.098	1432.05
547.302	1436.12
547.507	1457.62
547.711	1451.81
547.915	1482.04
548.119	1412.87
548.324	1437.09
548.528	1480.29
548.732	1434.38
548.936	1482.42
549.141	1495.99
549.345	1417.13
549.549	1467.89
549.753	1438.44
549.957	1540.36
550.161	1500.06
550.366	1472.54
550.57	1454.33
550.774	1433.02
550.978	1467.7
551.182	1465.76
551.386	1439.99
551.59	1437.09
551.794	1441.54
551.998	1488.82
552.202	1441.35
552.406	1439.22
552.61	1474.48
552.814	1476.61
553.018	1523.31
553.222	1453.17
553.426	1470.02
553.63	1538.81
553.833	1422.56
554.037	1416.36
554.241	1496.57
554.445	1437.48
554.649	1468.09
554.853	1446.39
555.056	1513.81
555.26	1491.34
555.464	1464.79
555.668	1484.94
555.871	1501.8
556.075	1523.5
556.279	1471.77
556.483	1423.14
556.686	1478.94
556.89	1468.09
557.094	1477.77
557.297	1400.28
557.501	1445.23
557.704	1387.1
557.908	1483.2
558.112	1389.43
558.315	1509.55
558.519	1417.13
558.722	1415.39
558.926	1421.39
559.129	1347
559.333	1343.12
559.536	1354.16
559.74	1351.45
559.943	1356.3
560.147	1367.92
560.35	1363.46
560.553	1351.26
560.757	1330.14
560.96	1414.61
561.164	1381.29
561.367	1447.74
561.57	1390.59
561.774	1404.15
561.977	1400.66
562.18	1353.39
562.384	1439.8
562.587	1372.38
562.79	1357.26
562.993	1360.95
563.197	1396.01
563.4	1433.79
563.603	1432.05
563.806	1413.64
564.009	1347.38
564.212	1386.91
564.416	1282.09
564.619	1334.6
564.822	1304.18
565.025	1376.25
565.228	1329.17
565.431	1362.3
565.634	1238.88
565.837	1299.72
566.04	1292.55
566.243	1287.9
566.446	1235.78
566.649	1314.64
566.852	1249.15
567.055	1280.15
567.258	1304.56
567.461	1372.18
567.664	1342.93
567.867	1235.01
568.07	1298.56
568.273	1322.97
568.475	1363.46
568.678	1260.97
568.881	1250.51
569.084	1282.86
569.287	1190.84
569.489	1200.72
569.692	1248.77
569.895	1268.92
570.098	1212.53
570.3	1187.15
570.503	1149.57
570.706	1170.3
570.909	1162.74
571.111	1149.18
571.314	1168.17
571.516	1163.32
571.719	1155.38
571.922	1155.19
572.124	1155.77
572.327	1157.12
572.529	1118.18
572.732	1127.67
572.935	1174.17
573.137	1250.32
573.34	1157.7
573.542	1191.8
573.745	1211.18
573.947	1185.8
574.15	1169.72
574.352	1146.27
574.554	1193.55
574.757	1133.29
574.959	1125.93
575.162	1131.35
575.364	1123.22
575.566	1208.85
575.769	1109.07
575.971	1136.97
576.173	1032.16
576.376	1123.8
576.578	1163.71
576.78	1165.26
576.982	1037.39
577.185	1109.46
577.387	1049.21
577.589	1085.63
577.791	1128.84
577.993	1116.44
578.196	1098.42
578.398	1081.56
578.6	1137.17
578.802	1046.3
579.004	1044.17
579.206	1079.43
579.408	1117.6
579.61	1071.49
579.812	1117.02
580.014	1067.81
580.216	1039.71
580.418	1070.71
580.62	1049.21
580.822	1037.58
581.024	1068.58
581.226	1093.96
581.428	1074.78
581.63	1154.22
581.832	1036.22
582.034	1157.51
582.236	1062.77
582.438	1111.79
582.64	1168.17
582.841	1146.47
583.043	1178.82
583.245	1085.05
583.447	1141.24
583.649	1118.95
583.85	1093.38
584.052	1108.3
584.254	1013.56
584.456	1117.99
584.657	1032.93
584.859	1102.1
585.061	1093.38
585.262	1069.55
585.464	1049.4
585.666	1088.54
585.867	1063.54
586.069	1121.67
586.27	1072.46
586.472	1040.87
586.674	1059.67
586.875	1044.17
587.077	1064.12
587.278	1079.82
587.48	1022.08
587.681	1165.65
587.883	1074.97
588.084	989.73
588.285	1055.99
588.487	1036.03
588.688	1041.84
588.89	952.91
589.091	975.78
589.292	955.24
589.494	943.23
589.695	944.39
589.896	877.55
590.098	856.04
590.299	947.1
590.5	913
590.702	909.51
590.903	938.19
591.104	984.11
591.305	951.56
591.507	1013.17
591.708	978.29
591.909	963.57
592.11	1048.82
592.311	998.64
592.512	964.15
592.714	950.39
592.915	943.23
593.116	922.3
593.317	969.77
593.518	954.08
593.719	942.84
593.92	984.88
594.121	1012.01
594.322	959.89
594.523	983.33
594.724	947.68
594.925	957.56
595.126	983.33
595.327	984.49
595.528	973.06
595.729	985.46
595.929	954.85
596.13	938.77
596.331	958.92
596.532	972.48
596.733	1037.77
596.934	1004.84
597.135	989.53
597.335	1006.19
597.536	953.11
597.737	959.69
597.938	942.26
598.138	983.72
598.339	959.31
598.54	998.64
598.74	975.19
598.941	918.23
599.142	1012.39
599.342	995.34
599.543	926.76
599.744	963.96
599.944	948.84
600.145	935.09
600.345	961.83
600.546	1035.45
600.746	1018.4
600.947	1014.53
601.147	986.63
601.348	1007.16
601.548	909.32
601.749	966.86
601.949	914.16
602.15	943.42
602.35	928.7
602.551	981.01
602.751	946.52
602.951	964.15
603.152	900.02
603.352	951.94
603.552	941.68
603.753	974.03
603.953	973.64
604.153	970.16
604.354	956.98
604.554	953.3
604.754	969.96
604.954	888.2
605.155	925.6
605.355	934.89
605.555	985.66
605.755	981.39
605.955	947.49
606.155	987.59
606.356	963.96
606.556	998.44
606.756	957.18
606.956	947.88
607.156	992.63
607.356	914.55
607.556	942.26
607.756	932.18
607.956	981.01
608.156	975.19
608.356	933.34
608.556	950.98
608.756	948.46
608.956	915.33
609.156	923.08
609.356	906.8
609.556	906.03
609.755	939.35
609.955	895.18
610.155	943.81
610.355	910.68
610.555	887.23
610.755	917.85
610.954	854.1
611.154	914.94
611.354	953.3
611.554	901.96
611.753	874.06
611.953	881.61
612.153	921.33
612.352	916.88
612.552	832.6
612.752	832.21
612.951	886.65
613.151	886.85
613.351	854.1
613.55	847.32
613.75	931.21
613.949	868.25
614.149	881.03
614.348	899.25
614.548	844.8
614.747	826.78
614.947	842.87
615.146	796.56
615.346	887.23
615.545	872.31
615.745	884.33
615.944	882.39
616.144	847.13
616.343	884.91
616.542	845.77
616.742	879.29
616.941	864.56
617.14	814.77
617.34	822.52
617.539	813.22
617.738	835.12
617.938	897.89
618.137	818.45
618.336	792.1
618.535	857.78
618.734	826.59
618.934	865.73
619.133	861.66
619.332	852.16
619.531	815.74
619.73	819.42
619.929	865.15
620.128	865.73
