Data from oakcork_FLMT105791__267__17-34-13-053.txt Node

Date: Mon Mar 20 17:34:13 GMT 2023
User: antho
Spectrometer: FLMT10579
Trigger mode: 0
Integration Time (sec): 1.000000E-1
Scans to average: 10
Electric dark correction enabled: true
Nonlinearity correction enabled: false
Boxcar width: 0
XAxis mode: Wavelengths
Number of Pixels in Spectrum: 3648
>>>>>Begin Spectral Data<<<<<
345.248	-152.01
345.464	-152.01
345.681	-152.01
345.898	-164.22
346.114	-152.79
346.331	-35.57
346.548	2.6
346.764	4.54
346.981	-3.02
347.197	-20.26
347.414	7.64
347.631	-16
347.847	66.34
348.064	-1.08
348.28	41.35
348.497	-41.19
348.713	-5.34
348.93	33.41
349.146	23.52
349.363	-5.93
349.579	20.23
349.796	-8.25
350.012	-8.06
350.229	24.69
350.445	8.8
350.661	-13.29
350.878	10.54
351.094	1.63
351.311	15.19
351.527	6.47
351.743	4.15
351.96	4.15
352.176	67.7
352.392	17.52
352.609	21.78
352.825	-0.69
353.041	2.6
353.257	-17.74
353.474	-3.21
353.69	25.27
353.906	0.27
354.122	-15.42
354.339	43.67
354.555	10.35
354.771	-4.96
354.987	55.1
355.203	45.22
355.42	-20.46
355.636	-12.32
355.852	8.61
356.068	21.39
356.284	-8.44
356.5	57.04
356.716	15.97
356.932	3.76
357.148	37.67
357.364	28.37
357.58	36.12
357.796	35.73
358.012	62.66
358.228	25.27
358.444	-42.93
358.66	55.49
358.876	38.06
359.092	2.02
359.308	10.35
359.524	24.3
359.74	-4.18
359.956	1.44
360.172	34.37
360.388	24.69
360.604	7.83
360.819	86.3
361.035	6.09
361.251	31.27
361.467	-52.81
361.683	49.29
361.898	23.52
362.114	37.47
362.33	9.77
362.546	44.84
362.762	29.14
362.977	0.66
363.193	-0.11
363.409	18.68
363.624	-7.48
363.84	-18.71
364.056	0.86
364.271	55.49
364.487	19.65
364.703	15.39
364.918	2.6
365.134	7.83
365.35	-2.24
365.565	94.82
365.781	20.81
365.996	48.52
366.212	90.17
366.427	33.41
366.643	-16
366.858	-1.66
367.074	8.8
367.289	27.79
367.505	98.12
367.72	0.47
367.936	19.26
368.151	51.04
368.367	46.77
368.582	28.95
368.798	17.71
369.013	63.63
369.228	14.22
369.444	22.94
369.659	53.17
369.874	33.02
370.09	35.34
370.305	-28.79
370.52	7.44
370.736	61.11
370.951	17.32
371.166	72.54
371.381	77.19
371.597	60.72
371.812	-27.82
372.027	1.82
372.242	14.42
372.458	70.22
372.673	15.77
372.888	3.96
373.103	31.47
373.318	93.27
373.533	28.95
373.749	36.12
373.964	-22.98
374.179	29.14
374.394	-9.8
374.609	57.43
374.824	2.6
375.039	58.59
375.254	2.99
375.469	57.82
375.684	30.89
375.899	67.31
376.114	35.34
376.329	6.47
376.544	36.31
376.759	31.47
376.974	-7.28
377.189	6.86
377.404	23.14
377.619	39.8
377.834	-61.34
378.049	-6.7
378.264	-13.09
378.478	52.59
378.693	-0.89
378.908	52.78
379.123	25.66
379.338	42.32
379.553	49.29
379.767	7.44
379.982	28.37
380.197	61.69
380.412	12.87
380.626	61.89
380.841	87.85
381.056	31.66
381.271	98.31
381.485	18.49
381.7	-19.68
381.915	23.52
382.129	-8.06
382.344	43.48
382.559	-3.99
382.773	41.74
382.988	-25.88
383.202	24.3
383.417	11.9
383.632	112.26
383.846	23.33
384.061	28.37
384.275	25.46
384.49	30.5
384.704	51.81
384.919	18.49
385.133	34.76
385.348	71.77
385.562	-8.44
385.777	66.34
385.991	39.02
386.206	38.64
386.42	9.77
386.634	50.65
386.849	16.36
387.063	62.27
387.277	-20.65
387.492	22.17
387.706	14.22
387.92	10.35
388.135	58.79
388.349	20.23
388.563	51.62
388.778	37.67
388.992	34.37
389.206	36.89
389.42	77.97
389.635	58.4
389.849	59.95
390.063	71.38
390.277	53.94
390.491	70.22
390.706	65.95
390.92	46.97
391.134	53.75
391.348	51.04
391.562	9.77
391.776	29.14
391.99	-6.7
392.205	66.54
392.419	9.96
392.633	34.76
392.847	59.37
393.061	18.29
393.275	89.59
393.489	27.59
393.703	38.83
393.917	84.36
394.131	49.1
394.345	38.25
394.559	84.17
394.773	7.25
394.986	58.2
395.2	43.48
395.414	59.95
395.628	43.67
395.842	50.46
396.056	19.46
396.27	-6.31
396.484	39.61
396.697	43.67
396.911	76.8
397.125	64.4
397.339	55.69
397.553	59.75
397.766	115.17
397.98	66.73
398.194	74.67
398.408	36.31
398.621	51.62
398.835	51.23
399.049	71.77
399.262	93.47
399.476	81.65
399.69	91.92
399.903	121.17
400.117	46.77
400.331	59.37
400.544	28.95
400.758	149.65
400.971	82.04
401.185	82.42
401.398	27.98
401.612	100.83
401.826	69.64
402.039	94.05
402.253	22.36
402.466	66.54
402.68	45.42
402.893	42.32
403.106	69.83
403.32	64.99
403.533	68.67
403.747	63.24
403.96	101.8
404.174	93.85
404.387	30.5
404.6	56.27
404.814	85.91
405.027	47.16
405.24	59.17
405.454	49.29
405.667	89.59
405.88	22.36
406.094	61.11
406.307	95.4
406.52	89.4
406.733	53.55
406.947	38.44
407.16	126.21
407.373	120.59
407.586	46.97
407.799	62.08
408.012	82.23
408.226	86.3
408.439	124.66
408.652	31.27
408.865	56.46
409.078	115.17
409.291	92.3
409.504	26.82
409.717	73.51
409.93	81.45
410.143	114
410.357	32.24
410.57	56.07
410.783	62.08
410.996	88.62
411.209	96.37
411.421	108.19
411.634	72.74
411.847	44.84
412.06	81.65
412.273	67.7
412.486	56.27
412.699	161.47
412.912	85.72
413.125	106.25
413.338	68.28
413.55	109.55
413.763	100.05
413.976	89.2
414.189	34.57
414.402	65.18
414.615	113.81
414.827	57.24
415.04	93.08
415.253	113.23
415.466	100.64
415.678	125.63
415.891	83.2
416.104	77
416.316	77
416.529	46.77
416.742	109.74
416.954	116.52
417.167	86.1
417.38	81.26
417.592	110.9
417.805	61.89
418.017	35.73
418.23	112.07
418.442	74.29
418.655	58.4
418.868	80.29
419.08	115.36
419.293	119.82
419.505	110.9
419.718	99.09
419.93	131.05
420.142	85.52
420.355	118.85
420.567	122.53
420.78	119.24
420.992	79.13
421.205	136.29
421.417	41.93
421.629	54.14
421.842	45.81
422.054	41.93
422.266	86.1
422.479	97.73
422.691	80.29
422.903	123.89
423.115	69.25
423.328	75.64
423.54	121.95
423.752	75.84
423.964	88.04
424.177	130.09
424.389	116.52
424.601	151.78
424.813	113.23
425.025	129.7
425.238	117.3
425.45	78.94
425.662	73.7
425.874	344.56
426.086	103.54
426.298	104.7
426.51	121.75
426.722	101.41
426.934	66.34
427.146	126.21
427.358	32.44
427.57	134.15
427.782	84.55
427.994	89.4
428.206	51.81
428.418	63.05
428.63	113.42
428.842	137.84
429.054	101.02
429.266	143.84
429.478	74.09
429.69	94.82
429.902	44.06
430.114	110.9
430.325	101.99
430.537	98.12
430.749	84.94
430.961	54.14
431.173	85.91
431.384	130.28
431.596	47.55
431.808	78.74
432.02	113.42
432.231	125.44
432.443	129.89
432.655	99.09
432.867	67.12
433.078	138.03
433.29	150.23
433.502	119.24
433.713	120.01
433.925	103.93
434.136	144.23
434.348	55.69
434.56	65.57
434.771	176.97
434.983	77.58
435.194	91.53
435.406	92.5
435.617	150.82
435.829	168.25
436.04	139.77
436.252	135.12
436.463	166.7
436.675	129.12
436.886	113.42
437.098	120.79
437.309	180.85
437.521	124.47
437.732	113.04
437.943	117.3
438.155	107.42
438.366	100.44
438.578	184.92
438.789	119.82
439	128.92
439.211	119.24
439.423	138.03
439.634	147.72
439.845	142.1
440.057	157.21
440.268	159.92
440.479	95.99
440.69	117.69
440.902	99.28
441.113	119.62
441.324	110.52
441.535	147.91
441.746	191.89
441.957	88.82
442.168	102.77
442.38	168.83
442.591	163.02
442.802	123.89
443.013	117.49
443.224	138.8
443.435	119.24
443.646	123.3
443.857	139.97
444.068	95.21
444.279	98.89
444.49	180.85
444.701	130.28
444.912	225.99
445.123	163.41
445.334	157.98
445.545	136.09
445.756	160.7
445.967	127.57
446.178	161.28
446.388	200.8
446.599	190.15
446.81	151.98
447.021	140.35
447.232	177.55
447.443	196.54
447.653	118.65
447.864	165.54
448.075	156.05
448.286	164.96
448.496	156.05
448.707	205.65
448.918	132.8
449.129	232.58
449.339	134.93
449.55	171.93
449.761	149.46
449.971	178.33
450.182	145.58
450.393	173.1
450.603	160.5
450.814	189.37
451.024	180.27
451.235	203.52
451.446	211.85
451.656	220.37
451.867	163.6
452.077	185.88
452.288	226.96
452.498	229.67
452.709	178.33
452.919	202.35
453.13	141.9
453.34	225.02
453.55	142.1
453.761	196.93
453.971	160.5
454.182	209.13
454.392	166.7
454.602	232
454.813	184.72
455.023	220.37
455.233	166.12
455.444	191.7
455.654	120.59
455.864	184.33
456.075	166.51
456.285	163.6
456.495	153.72
456.705	208.36
456.916	209.52
457.126	231.8
457.336	167.87
457.546	114.78
457.756	156.24
457.967	215.53
458.177	138.8
458.387	192.86
458.597	138.42
458.807	163.41
459.017	160.31
459.227	183.37
459.437	172.32
459.647	223.67
459.857	215.33
460.068	145.97
460.278	219.4
460.488	194.41
460.698	251.76
460.908	178.52
461.117	152.56
461.327	138.22
461.537	184.92
461.747	208.94
461.957	201.19
462.167	274.04
462.377	226.57
462.587	187.82
462.797	219.98
463.007	186.08
463.216	211.07
463.426	224.44
463.636	217.27
463.846	173.48
464.056	207.2
464.265	226.76
464.475	183.75
464.685	168.83
464.895	223.86
465.104	188.98
465.314	236.26
465.524	195.38
465.733	189.37
465.943	275.78
466.153	263.58
466.362	214.37
466.572	200.03
466.782	188.98
466.991	211.27
467.201	250.79
467.41	172.9
467.62	206.23
467.829	179.3
468.039	245.36
468.249	210.88
468.458	199.45
468.668	218.63
468.877	227.54
469.086	254.28
469.296	243.62
469.505	179.1
469.715	261.64
469.924	231.22
470.134	279.08
470.343	254.86
470.552	213.78
470.762	219.98
470.971	200.03
471.18	245.36
471.39	223.67
471.599	193.63
471.808	228.51
472.018	184.92
472.227	281.21
472.436	252.34
472.645	232
472.855	193.25
473.064	272.68
473.273	229.28
473.482	254.86
473.691	261.64
473.901	255.44
474.11	268.81
474.319	307.95
474.528	226.57
474.737	289.35
474.946	290.31
475.155	271.91
475.364	311.24
475.573	267.06
475.783	286.05
475.992	292.64
476.201	310.46
476.41	256.99
476.619	224.63
476.828	258.73
477.037	259.31
477.245	247.69
477.454	299.03
477.663	253.89
477.872	271.91
478.081	342.43
478.29	232.19
478.499	337.98
478.708	282.37
478.917	349.21
479.125	284.89
479.334	308.72
479.543	248.46
479.752	314.14
479.961	312.79
480.169	306.4
480.378	283.73
480.587	391.64
480.796	312.21
481.004	289.73
481.213	323.64
481.422	302.71
481.63	318.79
481.839	327.51
482.048	362.97
482.256	312.98
482.465	317.44
482.674	354.44
482.882	336.23
483.091	393
483.299	347.47
483.508	359.09
483.716	336.62
483.925	357.54
484.134	293.22
484.342	302.33
484.551	370.53
484.759	362.78
484.967	348.83
485.176	381.38
485.384	380.79
485.593	380.21
485.801	356.19
486.01	350.76
486.218	344.76
486.426	272.3
486.635	336.81
486.843	315.31
487.051	324.22
487.26	326.54
487.468	337.39
487.676	369.56
487.885	331.97
488.093	363.36
488.301	359.68
488.509	387.77
488.717	368.78
488.926	377.5
489.134	346.11
489.342	353.86
489.55	347.47
489.758	365.68
489.967	334.1
490.175	477.67
490.383	338.94
490.591	428.26
490.799	356.19
491.007	414.31
491.215	430.39
491.423	368.78
491.631	386.61
491.839	368.2
492.047	412.57
492.255	374.21
492.463	347.47
492.671	382.34
492.879	408.5
493.087	402.11
493.295	390.09
493.503	407.14
493.711	407.72
493.919	439.89
494.127	417.41
494.334	448.41
494.542	358.71
494.75	419.93
494.958	416.06
495.166	492
495.374	432.52
495.581	438.72
495.789	412.37
495.997	480.57
496.205	425.94
496.412	410.44
496.62	397.84
496.828	424.19
497.035	403.85
497.243	454.03
497.451	432.91
497.658	453.26
497.866	436.59
498.074	473.99
498.281	412.37
498.489	506.15
498.696	450.35
498.904	449.77
499.112	432.52
499.319	508.47
499.527	417.02
499.734	484.64
499.942	404.24
500.149	421.29
500.357	444.15
500.564	395.13
500.771	423.03
500.979	420.71
501.186	443.76
501.394	455.39
501.601	452.87
501.808	481.93
502.016	435.24
502.223	447.64
502.43	462.17
502.638	442.79
502.845	390.29
503.052	526.3
503.26	430.39
503.467	516.22
503.674	427.68
503.881	473.02
504.089	522.42
504.296	482.12
504.503	399.39
504.71	473.41
504.917	434.07
505.125	465.46
505.332	477.86
505.539	480.57
505.746	537.92
505.953	512.74
506.16	490.45
506.367	520.1
506.574	538.5
506.781	542.96
506.988	444.34
507.195	487.55
507.402	455.58
507.609	501.11
507.816	456.36
508.023	467.59
508.23	469.72
508.437	449.77
508.644	491.62
508.851	548.77
509.058	525.72
509.265	528.24
509.472	521.45
509.679	578.61
509.885	494.91
510.092	516.42
510.299	505.57
510.506	522.23
510.713	543.74
510.92	538.12
511.126	513.51
511.333	552.65
511.54	546.45
511.746	575.12
511.953	579.77
512.16	575.9
512.367	525.52
512.573	522.62
512.78	542.38
512.987	572.6
513.193	517.97
513.4	466.82
513.606	510.22
513.813	555.75
514.02	519.32
514.226	573.19
514.433	564.85
514.639	495.1
514.846	559.24
515.052	543.35
515.259	568.92
515.465	579.19
515.672	553.04
515.878	624.53
516.085	539.09
516.291	595.85
516.497	542.38
516.704	530.75
516.91	506.73
517.117	484.45
517.323	470.11
517.529	518.94
517.736	519.9
517.942	532.69
518.148	502.47
518.354	522.81
518.561	512.74
518.767	566.6
518.973	573.57
519.179	577.06
519.386	537.34
519.592	518.55
519.798	536.76
520.004	627.43
520.21	557.49
520.417	617.36
520.623	619.3
520.829	620.07
521.035	594.69
521.241	608.45
521.447	617.17
521.653	687.5
521.859	573.19
522.065	586.36
522.271	700.67
522.477	634.8
522.683	698.73
522.889	641.77
523.095	653.78
523.301	647.97
523.507	613.68
523.713	667.93
523.919	615.81
524.125	703.96
524.331	633.83
524.537	702.61
524.742	687.88
524.948	722.18
525.154	681.49
525.36	765.38
525.566	706.48
525.772	740.39
525.977	685.17
526.183	719.27
526.389	716.36
526.595	689.43
526.8	645.07
527.006	617.55
527.212	637.7
527.417	632.28
527.623	602.44
527.829	678
528.034	695.63
528.24	694.08
528.446	655.53
528.651	729.93
528.857	733.8
529.062	760.15
529.268	708.81
529.473	750.46
529.679	725.08
529.884	829.51
530.09	767.32
530.295	789.99
530.501	795.03
530.706	773.33
530.912	713.65
531.117	776.43
531.323	760.73
531.528	752.79
531.733	758.02
531.939	767.51
532.144	759.76
532.35	766.74
532.555	798.32
532.76	809.56
532.966	790.38
533.171	780.49
533.376	727.41
533.581	737.29
533.787	769.26
533.992	791.93
534.197	831.64
534.402	762.28
534.607	796.77
534.813	872.33
535.018	760.93
535.223	779.72
535.428	777.98
535.633	841.91
535.838	820.02
536.043	812.85
536.249	863.42
536.454	804.52
536.659	814.01
536.864	794.44
537.069	783.98
537.274	825.83
537.479	825.64
537.684	834.16
537.889	781.85
538.094	884.92
538.299	832.61
538.504	843.27
538.708	848.69
538.913	869.42
539.118	832.42
539.323	857.02
539.528	809.94
539.733	813.24
539.938	823.12
540.142	868.26
540.347	794.64
540.552	807.81
540.757	821.57
540.962	835.71
541.166	803.16
541.371	776.04
541.576	819.05
541.781	763.06
541.985	809.56
542.19	820.79
542.395	908.37
542.599	879.11
542.804	867.1
543.008	873.49
543.213	820.41
543.418	788.44
543.622	862.45
543.827	815.76
544.031	892.87
544.236	931.23
544.44	845.21
544.645	918.83
544.849	816.73
545.054	871.17
545.258	918.83
545.463	950.41
545.667	834.16
545.872	880.86
546.076	862.84
546.281	863.42
546.485	863.42
546.689	886.67
546.894	898.1
547.098	893.64
547.302	849.47
547.507	858.96
547.711	867.29
547.915	886.09
548.119	839.01
548.324	858.57
548.528	933.94
548.732	869.23
548.936	890.74
549.141	888.41
549.345	852.96
549.549	909.34
549.753	885.7
549.957	956.61
550.161	923.09
550.366	870.59
550.57	859.35
550.774	868.46
550.978	901.97
551.182	895.58
551.386	881.24
551.59	880.66
551.794	839.97
551.998	915.54
552.202	889.19
552.406	848.69
552.61	881.24
552.814	888.22
553.018	957.19
553.222	892.29
553.426	851.6
553.63	938.59
553.833	881.82
554.037	838.81
554.241	924.06
554.445	897.91
554.649	892.09
554.853	897.71
555.056	909.72
555.26	898.87
555.464	903.91
555.668	909.14
555.871	929.87
556.075	922.12
556.279	872.72
556.483	827.77
556.686	895
556.89	890.16
557.094	874.27
557.297	858.77
557.501	921.35
557.704	811.88
557.908	913.02
558.112	847.34
558.315	881.05
558.519	853.92
558.722	883.57
558.926	819.24
559.129	816.53
559.333	836.1
559.536	821.96
559.74	813.82
559.943	816.34
560.147	778.17
560.35	825.25
560.553	841.14
560.757	764.8
560.96	889.77
561.164	833.39
561.367	890.74
561.57	811.3
561.774	807.62
561.977	823.12
562.18	807.43
562.384	884.54
562.587	810.91
562.79	803.36
562.993	797.16
563.197	877.76
563.4	901.39
563.603	878.14
563.806	936.27
564.009	819.44
564.212	822.15
564.416	790.76
564.619	834.55
564.822	778.17
565.025	840.36
565.228	797.54
565.431	790.96
565.634	719.46
565.837	810.14
566.04	781.66
566.243	777.39
566.446	677.42
566.649	834.16
566.852	721.21
567.055	755.69
567.258	810.72
567.461	852.57
567.664	821.57
567.867	729.54
568.07	804.71
568.273	774.1
568.475	782.04
568.678	767.71
568.881	758.41
569.084	793.48
569.287	684.01
569.489	715.2
569.692	744.85
569.895	757.05
570.098	730.7
570.3	703
570.503	661.34
570.706	691.37
570.909	701.83
571.111	661.53
571.314	678
571.516	676.45
571.719	707.65
571.922	690.01
572.124	668.31
572.327	698.35
572.529	643.32
572.732	667.73
572.935	685.17
573.137	728.96
573.34	670.45
573.542	735.55
573.745	708.61
573.947	694.47
574.15	649.52
574.352	664.63
574.554	735.74
574.757	662.12
574.959	696.6
575.162	642.55
575.364	643.9
575.566	760.34
575.769	642.93
575.971	696.41
576.173	598.57
576.376	647.78
576.578	692.34
576.78	697.76
576.982	580.16
577.185	637.9
577.387	608.25
577.589	625.3
577.791	701.64
577.993	648.17
578.196	651.07
578.398	704.74
578.6	676.45
578.802	581.32
579.004	587.91
579.206	618.52
579.408	660.76
579.61	636.35
579.812	643.13
580.014	599.15
580.216	644.29
580.418	635.18
580.62	613.87
580.822	584.03
581.024	626.27
581.226	665.99
581.428	603.8
581.63	713.07
581.832	601.28
582.034	670.45
582.236	670.06
582.438	655.14
582.64	687.88
582.841	686.14
583.043	712.1
583.245	647.78
583.447	659.21
583.649	642.55
583.85	621.43
584.052	671.41
584.254	623.56
584.456	676.84
584.657	621.23
584.859	631.7
585.061	604.77
585.262	605.73
585.464	614.45
585.666	648.75
585.867	595.85
586.069	666.76
586.27	643.13
586.472	612.9
586.674	609.03
586.875	631.5
587.077	603.99
587.278	640.22
587.48	598.18
587.681	713.46
587.883	625.11
588.084	574.74
588.285	597.02
588.487	586.36
588.688	601.67
588.89	560.59
589.091	507.7
589.292	596.24
589.494	542.77
589.695	545.09
589.896	502.66
590.098	515.45
590.299	548.39
590.5	516.03
590.702	501.89
590.903	569.5
591.104	579.58
591.305	590.43
591.507	623.37
591.708	584.42
591.909	552.45
592.11	648.36
592.311	580.35
592.512	566.21
592.714	518.94
592.915	524.17
593.116	533.27
593.317	548.19
593.518	542.77
593.719	552.45
593.92	584.62
594.121	610
594.322	543.35
594.523	563.89
594.724	503.44
594.925	556.14
595.126	549.35
595.327	570.47
595.528	575.7
595.729	554.97
595.929	567.18
596.13	568.15
596.331	564.47
596.532	554.2
596.733	596.82
596.934	604.57
597.135	590.04
597.335	608.25
597.536	526.88
597.737	564.27
597.938	562.14
598.138	593.72
598.339	564.47
598.54	565.05
598.74	556.14
598.941	588.68
599.142	609.8
599.342	571.83
599.543	564.27
599.744	565.63
599.944	530.56
600.145	542.57
600.345	530.56
600.546	609.61
600.746	594.11
600.947	626.66
601.147	563.69
601.348	575.51
601.548	526.69
601.749	568.54
601.949	529.79
602.15	535.99
602.35	555.17
602.551	603.8
602.751	503.05
602.951	526.69
603.152	487.74
603.352	560.79
603.552	562.34
603.753	580.93
603.953	567.95
604.153	541.99
604.354	560.4
604.554	548.58
604.754	546.06
604.954	514.09
605.155	582.68
605.355	557.49
605.555	572.02
605.755	605.93
605.955	578.03
606.155	608.06
606.356	550.13
606.556	566.4
606.756	582.87
606.956	492
607.156	583.45
607.356	540.25
607.556	568.54
607.756	519.13
607.956	591.59
608.156	570.09
608.356	548.77
608.556	591.78
608.756	568.34
608.956	506.73
609.156	548
609.356	533.66
609.556	524.55
609.755	578.61
609.955	499.95
610.155	537.73
610.355	522.23
610.555	534.63
610.755	533.47
610.954	489.68
611.154	527.27
611.354	572.99
611.554	505.57
611.753	525.72
611.953	468.17
612.153	548.58
612.352	502.66
612.552	494.72
612.752	424.39
612.951	536.37
613.151	502.66
613.351	463.52
613.55	493.17
613.75	523.97
613.949	522.62
614.149	517.97
614.348	521.07
614.548	493.17
614.747	460.42
614.947	494.91
615.146	457.52
615.346	537.34
615.545	508.67
615.745	488.13
615.944	526.88
616.144	460.23
616.343	524.75
616.542	481.16
616.742	468.95
616.941	478.64
617.14	452.67
617.34	490.45
617.539	477.86
617.738	478.83
617.938	499.17
618.137	487.36
618.336	458.49
618.535	503.63
618.734	475.92
618.934	502.85
619.133	494.14
619.332	486
619.531	451.71
619.73	482.9
619.929	521.26
620.128	495.88
620.328	539.28
620.527	443.18
620.726	470.5
620.925	468.37
621.124	476.31
621.323	469.53
621.522	446.47
621.721	446.47
621.92	476.12
622.119	466.62
622.318	441.44
622.517	451.12
622.715	477.09
622.914	401.91
623.113	449.57
623.312	394.55
623.511	463.14
623.71	461.39
623.909	443.18
624.107	516.8
624.306	430.01
624.505	415.28
624.704	465.07
624.902	443.37
625.101	498.79
625.3	475.73
625.499	416.25
625.697	418.57
625.896	401.14
626.095	475.73
626.293	400.56
626.492	412.18
