Data from oakcork_FLMT105791__165__17-31-38-058.txt Node

Date: Mon Mar 20 17:31:38 GMT 2023
User: antho
Spectrometer: FLMT10579
Trigger mode: 0
Integration Time (sec): 1.000000E-1
Scans to average: 10
Electric dark correction enabled: true
Nonlinearity correction enabled: false
Boxcar width: 0
XAxis mode: Wavelengths
Number of Pixels in Spectrum: 3648
>>>>>Begin Spectral Data<<<<<
345.248	-163.23
345.464	-163.23
345.681	-163.23
345.898	-138.43
346.114	-140.37
346.331	-17.34
346.548	22.57
346.764	-20.44
346.981	-30.32
347.197	-3.2
347.414	28.97
347.631	-18.31
347.847	47.18
348.064	23.54
348.28	3.97
348.497	-36.72
348.713	0.1
348.93	20.25
349.146	38.65
349.363	-4.55
349.579	38.07
349.796	30.71
350.012	-3.39
350.229	27.8
350.445	10.37
350.661	-8.62
350.878	9.98
351.094	5.91
351.311	15.21
351.527	21.8
351.743	-17.34
351.96	52.8
352.176	18.31
352.392	5.33
352.609	47.56
352.825	-5.91
353.041	20.63
353.257	-13.08
353.474	9.4
353.69	7.27
353.906	44.27
354.122	-11.33
354.339	61.9
354.555	5.91
354.771	-13.66
354.987	45.43
355.203	57.45
355.42	-14.24
355.636	8.04
355.852	0.48
356.068	10.17
356.284	-21.6
356.5	55.31
356.716	16.95
356.932	10.37
357.148	39.62
357.364	25.67
357.58	34.58
357.796	40.4
358.012	34.97
358.228	36.13
358.444	-56.09
358.66	60.74
358.876	33.03
359.092	-17.15
359.308	4.17
359.524	2.62
359.74	-8.82
359.956	-4.36
360.172	22.18
360.388	27.22
360.604	-3.97
360.819	85.15
361.035	15.6
361.251	20.63
361.467	10.17
361.683	59
361.898	28.38
362.114	41.56
362.33	28
362.546	20.44
362.762	22.38
362.977	51.05
363.193	-11.72
363.409	36.91
363.624	-12.5
363.84	10.17
364.056	7.65
364.271	34.97
364.487	33.42
364.703	-9.01
364.918	-9.98
365.134	20.44
365.35	25.87
365.565	103.56
365.781	45.63
365.996	31.48
366.212	91.93
366.427	44.46
366.643	-0.1
366.858	6.49
367.074	-9.78
367.289	51.63
367.505	91.93
367.72	-24.32
367.936	15.4
368.151	55.9
368.367	25.87
368.582	34.58
368.798	18.7
369.013	65.58
369.228	32.07
369.444	19.28
369.659	66.55
369.874	9.4
370.09	77.4
370.305	-31.87
370.52	-1.65
370.736	86.12
370.951	39.04
371.166	73.14
371.381	90.77
371.597	60.55
371.812	-16.37
372.027	9.78
372.242	18.7
372.458	76.82
372.673	15.98
372.888	36.72
373.103	45.05
373.318	111.7
373.533	63.84
373.749	36.13
373.964	-11.92
374.179	69.07
374.394	-11.53
374.609	85.35
374.824	-14.82
375.039	61.9
375.254	16.37
375.469	89.61
375.684	25.48
375.899	63.84
376.114	20.05
376.329	52.02
376.544	70.04
376.759	58.41
376.974	36.72
377.189	-3.78
377.404	42.92
377.619	55.12
377.834	-5.52
378.049	-2.42
378.264	10.75
378.478	35.17
378.693	20.83
378.908	52.41
379.123	-1.65
379.338	67.33
379.553	46.21
379.767	31.87
379.982	44.85
380.197	58.22
380.412	34.78
380.626	50.08
380.841	108.6
381.056	52.41
381.271	93.29
381.485	28.19
381.7	10.17
381.915	44.66
382.129	19.28
382.344	50.08
382.559	20.25
382.773	53.76
382.988	-8.43
383.202	42.14
383.417	8.43
383.632	114.8
383.846	18.5
384.061	51.83
384.275	13.85
384.49	74.88
384.704	53.38
384.919	40.59
385.133	46.21
385.348	57.06
385.562	24.7
385.777	86.9
385.991	51.63
386.206	15.98
386.42	18.89
386.634	84.96
386.849	54.93
387.063	66.94
387.277	19.67
387.492	27.42
387.706	21.22
387.92	22.18
388.135	38.27
388.349	70.81
388.563	34.39
388.778	49.5
388.992	76.05
389.206	76.43
389.42	114.99
389.635	53.38
389.849	66.94
390.063	71.01
390.277	57.64
390.491	97.55
390.706	74.3
390.92	91.93
391.134	55.9
391.348	83.6
391.562	11.33
391.776	57.25
391.99	25.67
392.205	109.56
392.419	45.24
392.633	62.87
392.847	87.86
393.061	20.05
393.275	104.72
393.489	53.76
393.703	50.08
393.917	69.85
394.131	28.19
394.345	64.03
394.559	83.02
394.773	22.18
394.986	58.03
395.2	67.33
395.414	65.2
395.628	33.81
395.842	81.86
396.056	63.06
396.27	15.02
396.484	56.28
396.697	76.43
396.911	102.4
397.125	73.14
397.339	87.86
397.553	55.31
397.766	132.81
397.98	100.65
398.194	118.09
398.408	54.35
398.621	97.94
398.835	106.46
399.049	67.71
399.262	128.55
399.476	98.13
399.69	78.37
399.903	121.38
400.117	62.68
400.331	99.68
400.544	54.73
400.758	187.64
400.971	76.82
401.185	104.14
401.398	59.38
401.612	137.66
401.826	80.31
402.039	114.02
402.253	96.97
402.466	96.78
402.68	80.5
402.893	58.03
403.106	77.6
403.32	71.98
403.533	125.45
403.747	84.18
403.96	112.28
404.174	100.85
404.387	54.35
404.6	94.65
404.814	111.31
405.027	106.08
405.24	89.03
405.454	93.1
405.667	117.31
405.88	24.51
406.094	103.36
406.307	142.5
406.52	108.6
406.733	83.6
406.947	59.58
407.16	143.47
407.373	122.16
407.586	83.41
407.799	65.2
408.012	122.74
408.226	110.73
408.439	143.66
408.652	67.71
408.865	120.61
409.078	120.8
409.291	119.45
409.504	77.4
409.717	116.35
409.93	105.5
410.143	114.99
410.357	79.73
410.57	63.65
410.783	94.65
410.996	98.33
411.209	114.21
411.421	114.21
411.634	100.65
411.847	62.68
412.06	110.92
412.273	99.68
412.486	91.74
412.699	160.52
412.912	89.61
413.125	139.98
413.338	111.11
413.55	124.1
413.763	115.38
413.976	110.53
414.189	79.92
414.402	78.76
414.615	143.28
414.827	81.66
415.04	131.07
415.253	116.54
415.466	131.84
415.678	170.79
415.891	98.91
416.104	105.5
416.316	110.34
416.529	85.93
416.742	119.06
416.954	147.34
417.167	97.55
417.38	90.19
417.592	135.14
417.805	93.87
418.017	62.48
418.23	121.96
418.442	101.23
418.655	101.23
418.868	108.4
419.08	141.14
419.293	159.74
419.505	83.8
419.718	112.28
419.93	143.28
420.142	120.22
420.355	164.01
420.567	149.28
420.78	126.61
420.992	122.74
421.205	143.08
421.417	62.29
421.629	84.18
421.842	75.46
422.054	52.8
422.266	158.58
422.479	128.75
422.691	91.55
422.903	155.29
423.115	95.61
423.328	99.88
423.54	127.78
423.752	96.78
423.964	78.18
424.177	98.91
424.389	100.46
424.601	206.63
424.813	108.79
425.025	124.87
425.238	127.2
425.45	113.25
425.662	106.66
425.874	318.04
426.086	112.28
426.298	141.92
426.51	120.61
426.722	109.76
426.934	121.96
427.146	141.92
427.358	96.78
427.57	158.97
427.782	119.06
427.994	116.35
428.206	101.04
428.418	58.03
428.63	125.06
428.842	126.81
429.054	112.86
429.266	139.21
429.478	129.13
429.69	106.08
429.902	76.63
430.114	129.13
430.325	130.88
430.537	101.62
430.749	129.13
430.961	72.36
431.173	122.16
431.384	144.63
431.596	31.87
431.808	91.35
432.02	124.1
432.231	127.97
432.443	142.89
432.655	111.7
432.867	101.23
433.078	130.3
433.29	173.69
433.502	170.59
433.713	143.08
433.925	115.96
434.136	164.2
434.348	89.61
434.56	81.08
434.771	226.2
434.983	102.2
435.194	107.05
435.406	112.28
435.617	181.25
435.829	167.3
436.04	130.88
436.252	154.71
436.463	165.56
436.675	155.68
436.886	142.89
437.098	139.01
437.309	180.48
437.521	128.16
437.732	149.28
437.943	146.38
438.155	127.39
438.366	100.65
438.578	181.64
438.789	151.22
439	159.94
439.211	118.09
439.423	144.44
439.634	145.79
439.845	137.85
440.057	138.63
440.268	178.54
440.479	116.35
440.69	153.35
440.902	136.11
441.113	132.62
441.324	124.29
441.535	148.12
441.746	194.62
441.957	122.35
442.168	120.41
442.38	164.78
442.591	184.35
442.802	103.36
443.013	155.09
443.224	163.43
443.435	148.51
443.646	112.28
443.857	139.79
444.068	125.65
444.279	119.45
444.49	198.3
444.701	117.31
444.912	251.19
445.123	191.52
445.334	164.59
445.545	167.11
445.756	139.79
445.967	125.06
446.178	154.9
446.388	185.51
446.599	164.98
446.81	185.71
447.021	147.93
447.232	189.78
447.443	205.28
447.653	114.6
447.864	173.5
448.075	164.01
448.286	162.07
448.496	159.55
448.707	180.09
448.918	138.82
449.129	227.75
449.339	128.75
449.55	164.2
449.761	130.3
449.971	216.13
450.182	140.95
450.393	167.49
450.603	128.55
450.814	139.59
451.024	177.76
451.235	180.09
451.446	198.11
451.656	217.68
451.867	137.85
452.077	176.79
452.288	199.85
452.498	192.1
452.709	179.12
452.919	179.12
453.13	146.76
453.34	205.86
453.55	127
453.761	165.36
453.971	182.22
454.182	205.47
454.392	177.57
454.602	226.39
454.813	185.9
455.023	207.99
455.233	153.35
455.444	155.48
455.654	136.88
455.864	146.76
456.075	171.95
456.285	155.68
456.495	155.68
456.705	176.6
456.916	189.78
457.126	192.88
457.336	178.93
457.546	111.7
457.756	151.03
457.967	189.78
458.177	155.09
458.387	160.33
458.597	155.68
458.807	155.87
459.017	190.36
459.227	154.13
459.437	154.32
459.647	193.46
459.857	196.17
460.068	141.53
460.278	201.98
460.488	205.66
460.698	245.77
460.908	162.46
461.117	123.9
461.327	149.48
461.537	185.51
461.747	163.43
461.957	186.29
462.167	265.92
462.377	215.74
462.587	173.89
462.797	206.05
463.007	168.08
463.216	205.66
463.426	194.43
463.636	208.57
463.846	135.91
464.056	168.46
464.265	208.76
464.475	160.52
464.685	183.96
464.895	245.57
465.104	182.61
465.314	226.97
465.524	189.78
465.733	155.68
465.943	253.52
466.153	220.58
466.362	194.04
466.572	185.51
466.782	171.76
466.991	176.99
467.201	221.94
467.41	145.79
467.62	191.71
467.829	194.43
468.039	178.93
468.249	203.53
468.458	179.7
468.668	196.75
468.877	196.17
469.086	248.09
469.296	219.22
469.505	156.45
469.715	244.41
469.924	219.61
470.134	232.79
470.343	251.58
470.552	237.24
470.762	184.54
470.971	177.38
471.18	194.62
471.39	192.1
471.599	190.16
471.808	208.76
472.018	143.66
472.227	241.7
472.436	246.35
472.645	184.54
472.855	188.42
473.064	209.93
473.273	219.22
473.482	221.55
473.691	220.19
473.901	233.56
474.11	218.26
474.319	305.83
474.528	222.71
474.737	235.11
474.946	238.41
475.155	226.78
475.364	218.26
475.573	220.97
475.783	201.4
475.992	203.53
476.201	253.32
476.41	221.74
476.619	178.93
476.828	211.48
477.037	200.63
477.245	184.54
477.454	274.83
477.663	188.61
477.872	188.03
478.081	256.23
478.29	163.62
478.499	270.76
478.708	220.97
478.917	277.35
479.125	238.99
479.334	257.39
479.543	214.58
479.752	227.56
479.961	228.33
480.169	263.4
480.378	206.24
480.587	335.47
480.796	246.54
481.004	229.88
481.213	223.68
481.422	239.76
481.63	211.28
481.839	267.08
482.048	276.38
482.256	227.36
482.465	246.74
482.674	247.12
482.882	256.23
483.091	288.78
483.299	255.26
483.508	256.23
483.716	259.91
483.925	240.92
484.134	264.95
484.342	207.79
484.551	277.74
484.759	273.09
484.967	262.24
485.176	275.22
485.384	295.76
485.593	300.6
485.801	260.11
486.01	272.12
486.218	271.92
486.426	225.81
486.635	250.42
486.843	236.86
487.051	267.47
487.26	238.79
487.468	274.83
487.676	256.62
487.885	251
488.093	256.42
488.301	252.74
488.509	271.92
488.717	285.68
488.926	273.28
489.134	261.85
489.342	254.1
489.55	239.57
489.758	263.21
489.967	225.62
490.175	340.12
490.383	260.3
490.591	304.86
490.799	220.39
491.007	288.01
491.215	282.77
491.423	255.07
491.631	275.61
491.839	260.69
492.047	313.77
492.255	244.41
492.463	224.46
492.671	257.78
492.879	326.17
493.087	283.94
493.295	269.79
493.503	304.86
493.711	291.3
493.919	309.32
494.127	321.14
494.334	319.78
494.542	258.56
494.75	270.18
494.958	291.88
495.166	305.44
495.374	324.62
495.581	262.43
495.789	304.09
495.997	318.23
496.205	300.21
496.412	281.22
496.62	278.71
496.828	306.6
497.035	295.76
497.243	309.32
497.451	254.49
497.658	305.83
497.866	275.41
498.074	337.02
498.281	288.59
498.489	327.34
498.696	304.09
498.904	286.07
499.112	283.16
499.319	362.02
499.527	295.17
499.734	356.79
499.942	255.07
500.149	285.49
500.357	301.18
500.564	280.64
500.771	327.14
500.979	284.32
501.186	269.6
501.394	304.28
501.601	320.55
501.808	336.64
502.016	310.09
502.223	342.06
502.43	350
502.638	294.79
502.845	276.38
503.052	357.95
503.26	307.57
503.467	388.37
503.674	299.82
503.881	319.39
504.089	391.85
504.296	340.51
504.503	302.15
504.71	323.07
504.917	278.71
505.125	330.05
505.332	330.24
505.539	350.78
505.746	367.44
505.953	368.02
506.16	319.78
506.367	388.56
506.574	388.17
506.781	367.44
506.988	327.92
507.195	330.63
507.402	337.99
507.609	378.68
507.816	345.16
508.023	309.51
508.23	324.24
508.437	307.77
508.644	345.55
508.851	390.11
509.058	355.82
509.265	360.08
509.472	338.77
509.679	437.77
509.885	329.85
510.092	314.55
510.299	348.84
510.506	367.05
510.713	360.27
510.92	324.43
511.126	375.39
511.333	403.28
511.54	376.35
511.746	384.88
511.953	396.7
512.16	376.55
512.367	353.88
512.573	356.59
512.78	396.89
512.987	365.5
513.193	403.28
513.4	305.25
513.606	388.17
513.813	392.24
514.02	400.77
514.226	466.25
514.433	431.57
514.639	401.54
514.846	357.37
515.052	352.14
515.259	380.42
515.465	364.54
515.672	408.52
515.878	452.5
516.085	366.86
516.291	418.59
516.497	357.56
516.704	369.77
516.91	362.6
517.117	325.2
517.323	334.12
517.529	345.55
517.736	386.82
517.942	396.89
518.148	382.94
518.354	381.39
518.561	390.69
518.767	394.18
518.973	433.32
519.179	425.37
519.386	387.4
519.592	370.35
519.798	377.52
520.004	438.74
520.21	395.73
520.417	416.07
520.623	417.23
520.829	459.08
521.035	438.16
521.241	413.55
521.447	450.75
521.653	541.43
521.859	430.41
522.065	442.42
522.271	540.46
522.477	478.46
522.683	475.17
522.889	454.43
523.095	496.67
523.301	468.38
523.507	432.35
523.713	489.5
523.919	442.23
524.125	494.93
524.331	433.7
524.537	526.31
524.742	493.76
524.948	496.86
525.154	517.01
525.36	573.98
525.566	515.66
525.772	537.16
525.977	490.66
526.183	518.56
526.389	567
526.595	503.84
526.8	498.41
527.006	472.65
527.212	486.4
527.417	449.4
527.623	437.77
527.829	514.69
528.034	509.07
528.24	491.44
528.446	457.34
528.651	522.05
528.857	536.58
529.062	551.31
529.268	530
529.473	503.65
529.679	486.98
529.884	585.02
530.09	559.64
530.295	598.58
530.501	587.73
530.706	554.21
530.912	507.52
531.117	539.3
531.323	547.43
531.528	553.83
531.733	558.67
531.939	523.6
532.144	571.84
532.35	562.93
532.555	614.08
532.76	594.13
532.966	561.38
533.171	576.3
533.376	573.2
533.581	538.33
533.787	582.89
533.992	590.06
534.197	626.48
534.402	553.25
534.607	575.91
534.813	653.61
535.018	583.47
535.223	585.02
535.428	591.99
535.633	617.18
535.838	603.04
536.043	591.03
536.249	650.12
536.454	587.54
536.659	608.85
536.864	554.41
537.069	596.06
537.274	608.08
537.479	635.01
537.684	616.99
537.889	606.33
538.094	651.48
538.299	606.72
538.504	633.26
538.708	612.73
538.913	647.6
539.118	623.96
539.323	631.52
539.528	621.44
539.733	631.33
539.938	658.64
540.142	646.24
540.347	613.11
540.552	582.11
540.757	631.52
540.962	624.16
541.166	586.57
541.371	594.71
541.576	626.87
541.781	534.26
541.985	628.81
542.19	616.79
542.395	673.17
542.599	668.14
542.804	672.4
543.008	696.04
543.213	645.08
543.418	587.54
543.622	653.22
543.827	619.31
544.031	678.99
544.236	691.19
544.44	622.99
544.645	680.34
544.849	622.22
545.054	675.5
545.258	713.67
545.463	712.31
545.667	641.79
545.872	659.42
546.076	708.63
546.281	651.28
546.485	612.92
546.689	677.63
546.894	681.7
547.098	684.02
547.302	621.64
547.507	652.83
547.711	653.8
547.915	705.92
548.119	629
548.324	646.83
548.528	719.87
548.732	673.76
548.936	685.57
549.141	697.97
549.345	641.59
549.549	655.74
549.753	654.38
549.957	724.32
550.161	720.64
550.366	682.67
550.57	681.7
550.774	650.31
550.978	667.94
551.182	689.64
551.386	644.89
551.59	672.01
551.794	683.25
551.998	692.55
552.202	644.31
552.406	624.74
552.61	688.67
552.814	669.49
553.018	736.92
553.222	649.15
553.426	659.03
553.63	733.24
553.833	679.96
554.037	613.31
554.241	711.92
554.445	677.44
554.649	681.7
554.853	664.84
555.056	704.76
555.26	717.74
555.464	692.74
555.668	660
555.871	712.89
556.075	746.41
556.279	666.59
556.483	631.91
556.686	693.71
556.89	664.07
557.094	707.08
557.297	625.71
557.501	732.07
557.704	641.59
557.908	721.81
558.112	641.01
558.315	711.54
558.519	667.17
558.722	700.11
558.926	653.8
559.129	631.33
559.333	583.28
559.536	633.65
559.74	635.39
559.943	642.76
560.147	599.16
560.35	650.7
560.553	592.96
560.757	572.62
560.96	678.79
561.164	647.02
561.367	677.44
561.57	626.09
561.774	692.16
561.977	653.8
562.18	610.98
562.384	678.41
562.587	648.18
562.79	652.64
562.993	603.62
563.197	687.12
563.4	698.17
563.603	687.12
563.806	723.16
564.009	642.76
564.212	656.51
564.416	578.63
564.619	638.11
564.822	584.44
565.025	657.29
565.228	585.99
565.431	634.43
565.634	525.15
565.837	596.06
566.04	598.97
566.243	578.24
566.446	532.32
566.649	626.48
566.852	543.36
567.055	582.5
567.258	606.53
567.461	662.91
567.664	631.33
567.867	546.08
568.07	609.63
568.273	555.96
568.475	634.23
568.678	578.82
568.881	566.81
569.084	582.31
569.287	543.95
569.489	538.13
569.692	631.33
569.895	576.88
570.098	512.95
570.3	537.75
570.503	470.13
570.706	534.26
570.909	521.28
571.111	494.73
571.314	517.6
571.516	527.09
571.719	540.65
571.922	510.43
572.124	525.73
572.327	508.3
572.529	484.85
572.732	479.43
572.935	536.78
573.137	569.33
573.34	534.65
573.542	543.17
573.745	543.95
573.947	543.17
574.15	520.11
574.352	474.58
574.554	564.1
574.757	480.2
574.959	527.86
575.162	455.98
575.364	512.75
575.566	576.69
575.769	471.48
575.971	492.02
576.173	456.95
576.376	482.14
576.578	526.7
576.78	572.81
576.982	461.8
577.185	498.8
577.387	457.73
577.589	453.27
577.791	494.93
577.993	480.59
578.196	484.85
578.398	498.61
578.6	522.83
578.802	454.43
579.004	432.73
579.206	452.11
579.408	497.25
579.61	448.62
579.812	504.81
580.014	480.01
580.216	470.71
580.418	440.68
580.62	434.28
580.822	425.57
581.024	475.94
581.226	482.72
581.428	472.45
581.63	523.8
581.832	459.86
582.034	511.01
582.236	452.11
582.438	464.51
582.64	523.21
582.841	530.96
583.043	559.45
583.245	482.91
583.447	528.45
583.649	482.14
583.85	477.49
584.052	500.55
584.254	451.72
584.456	494.93
584.657	447.46
584.859	473.23
585.061	490.47
585.262	456.18
585.464	436.61
585.666	495.51
585.867	462.57
586.069	509.26
586.27	511.78
586.472	467.03
586.674	449.78
586.875	436.22
587.077	454.63
587.278	470.13
587.48	474.58
587.681	544.72
587.883	471.29
588.084	432.15
588.285	439.71
588.487	448.62
588.688	455.02
588.89	425.37
589.091	407.55
589.292	439.13
589.494	422.08
589.695	432.54
589.896	361.24
590.098	354.46
590.299	432.54
590.5	357.75
590.702	406.38
590.903	423.63
591.104	479.43
591.305	412.58
591.507	480.78
591.708	440.68
591.909	445.91
592.11	510.81
592.311	467.61
592.512	436.8
592.714	388.95
592.915	378.68
593.116	406
593.317	408.32
593.518	391.27
593.719	412.2
593.92	468.58
594.121	484.46
594.322	427.7
594.523	434.09
594.724	426.15
594.925	401.35
595.126	442.03
595.327	465.67
595.528	435.83
595.729	447.85
595.929	423.24
596.13	420.72
596.331	427.31
596.532	417.82
596.733	489.11
596.934	456.57
597.135	434.48
597.335	434.48
597.536	398.83
597.737	428.47
597.938	375.58
598.138	450.17
598.339	425.57
598.54	442.23
598.74	405.22
598.941	444.36
599.142	472.84
599.342	422.27
599.543	417.43
599.744	442.81
599.944	406
600.145	394.76
600.345	440.29
600.546	493.18
600.746	466.45
600.947	500.55
601.147	448.04
601.348	490.28
601.548	406
601.749	421.88
601.949	407.93
602.15	420.14
602.35	430.02
602.551	462.38
602.751	394.57
602.951	403.67
603.152	343.61
603.352	421.69
603.552	430.02
603.753	433.9
603.953	436.8
604.153	435.64
604.354	417.62
604.554	409.68
604.754	407.74
604.954	387.79
605.155	430.41
605.355	411.62
605.555	451.14
605.755	454.24
605.955	411.81
606.155	448.04
606.356	435.64
606.556	424.02
606.756	454.82
606.956	381.39
607.156	472.65
607.356	395.53
607.556	444.17
607.756	422.27
607.956	466.06
608.156	461.8
608.356	379.65
608.556	437.19
608.756	435.06
608.956	382.75
609.156	427.7
609.356	378.49
609.556	395.73
609.755	422.27
609.955	403.87
610.155	439.52
610.355	438.35
610.555	396.31
610.755	413.75
610.954	350
611.154	405.8
611.354	465.67
611.554	401.93
611.753	392.82
611.953	366.47
612.153	416.46
612.352	437.77
612.552	353.88
612.752	321.52
612.951	425.95
613.151	418.4
613.351	354.07
613.55	396.89
613.75	408.32
613.949	409.29
614.149	390.89
614.348	366.67
614.548	372.29
614.747	342.25
614.947	380.23
615.146	330.63
615.346	390.11
615.545	387.2
615.745	374.22
615.944	420.33
616.144	417.82
616.343	414.52
616.542	367.44
616.742	411.42
616.941	368.99
617.14	338.19
617.34	375.58
617.539	405.42
617.738	328.11
617.938	438.55
618.137	373.84
618.336	349.62
618.535	381
618.734	373.64
618.934	364.73
619.133	394.18
619.332	377.32
619.531	329.08
619.73	355.04
619.929	394.76
620.128	394.18
620.328	425.37
620.527	359.11
620.726	357.56
620.925	387.98
621.124	351.17
621.323	379.07
621.522	356.59
621.721	336.44
621.92	355.24
622.119	409.1
622.318	375.97
622.517	356.2
622.715	351.55
622.914	306.99
623.113	348.45
623.312	324.62
623.511	388.95
623.71	334.12
623.909	356.4
624.107	382.36
624.306	298.66
624.505	309.9
624.704	343.42
624.902	344.39
625.101	394.95
625.3	353.88
625.499	326.75
