Data from oakcork_FLMT105791__178__17-31-51-057.txt Node

Date: Mon Mar 20 17:31:51 GMT 2023
User: antho
Spectrometer: FLMT10579
Trigger mode: 0
Integration Time (sec): 1.000000E-1
Scans to average: 10
Electric dark correction enabled: true
Nonlinearity correction enabled: false
Boxcar width: 0
XAxis mode: Wavelengths
Number of Pixels in Spectrum: 3648
>>>>>Begin Spectral Data<<<<<
345.248	-137.38
345.464	-137.38
345.681	-137.38
345.898	-155.21
346.114	-140.29
346.331	-30.82
346.548	28.66
346.764	-0.4
346.981	-13.77
347.197	-18.42
347.414	0.57
347.631	13.16
347.847	62.37
348.064	17.23
348.28	5.8
348.497	-61.24
348.713	-3.12
348.93	36.21
349.146	20.13
349.363	2.7
349.579	30.4
349.796	6.96
350.012	-7.96
350.229	22.26
350.445	17.23
350.661	-8.73
350.878	-26.56
351.094	30.21
351.311	16.45
351.527	16.65
351.743	-8.93
351.96	38.15
352.176	23.04
352.392	44.74
352.609	50.55
352.825	-4.67
353.041	10.45
353.257	-11.25
353.474	33.5
353.69	31.95
353.906	20.13
354.122	-0.02
354.339	55.01
354.555	-2.34
354.771	2.5
354.987	79.03
355.203	33.5
355.42	3.86
355.636	5.41
355.852	21.88
356.068	5.41
356.284	-13.38
356.5	65.47
356.716	10.45
356.932	17.61
357.148	28.85
357.364	3.86
357.58	57.53
357.796	80.39
358.012	52.49
358.228	32.73
358.444	-45.16
358.66	50.75
358.876	21.1
359.092	-18.03
359.308	34.47
359.524	50.16
359.74	-20.17
359.956	7.93
360.172	47.45
360.388	37.96
360.604	-13.97
360.819	75.93
361.035	18.78
361.251	49.78
361.467	-19
361.683	55.4
361.898	56.75
362.114	53.46
362.33	13.16
362.546	77.48
362.762	14.51
362.977	7.73
363.193	1.53
363.409	77.29
363.624	3.08
363.84	2.7
364.056	5.41
364.271	43.38
364.487	31.95
364.703	-6.8
364.918	-27.92
365.134	7.73
365.35	27.3
365.565	99.38
365.781	21.49
365.996	40.09
366.212	83.3
366.427	16.45
366.643	-7.38
366.858	25.95
367.074	-3.5
367.289	66.05
367.505	98.6
367.72	-6.22
367.936	-5.83
368.151	45.71
368.367	59.66
368.582	26.72
368.798	17.23
369.013	79.42
369.228	24.98
369.444	46.29
369.659	33.7
369.874	31.18
370.09	61.98
370.305	-21.13
370.52	-7.57
370.736	43.77
370.951	-0.98
371.166	66.25
371.381	87.75
371.597	40.67
371.812	-15.71
372.027	4.83
372.242	26.53
372.458	82.13
372.673	12.19
372.888	6.77
373.103	36.8
373.318	100.34
373.533	60.24
373.749	41.45
373.964	-33.15
374.179	39.9
374.394	28.66
374.609	80.2
374.824	-9.12
375.039	68.76
375.254	-9.32
375.469	56.95
375.684	23.23
375.899	45.13
376.114	2.89
376.329	48.61
376.544	96.28
376.759	61.21
376.974	18.78
377.189	1.34
377.404	22.46
377.619	46.48
377.834	-25.59
378.049	37.76
378.264	6.96
378.478	49.97
378.693	4.05
378.908	39.31
379.123	6.18
379.338	44.74
379.553	32.73
379.767	38.93
379.982	44.55
380.197	40.86
380.412	53.65
380.626	49
380.841	84.65
381.056	62.56
381.271	68.18
381.485	-1.76
381.7	-8.93
381.915	41.06
382.129	23.62
382.344	40.09
382.559	-5.25
382.773	39.7
382.988	-5.44
383.202	44.55
383.417	-13.58
383.632	96.28
383.846	28.27
384.061	38.73
384.275	39.12
384.49	58.3
384.704	55.98
384.919	33.31
385.133	34.08
385.348	41.25
385.562	-15.52
385.777	80.2
385.991	34.66
386.206	32.15
386.42	10.64
386.634	68.96
386.849	52.49
387.063	31.56
387.277	2.12
387.492	21.49
387.706	8.7
387.92	12.96
388.135	31.56
388.349	45.13
388.563	49.97
388.778	38.35
388.992	53.65
389.206	66.05
389.42	114.49
389.635	29.82
389.849	58.69
390.063	67.8
390.277	43.77
390.491	88.72
390.706	50.36
390.92	76.32
391.134	52.1
391.348	72.64
391.562	-2.15
391.776	45.32
391.99	4.44
392.205	38.35
392.419	20.52
392.633	42.61
392.847	67.41
393.061	32.92
393.275	72.64
393.489	59.85
393.703	39.9
393.917	47.84
394.131	33.11
394.345	49.78
394.559	73.22
394.773	14.13
394.986	42.61
395.2	28.46
395.414	58.11
395.628	43.38
395.842	45.13
396.056	17.61
396.27	4.83
396.484	85.04
396.697	55.78
396.911	72.64
397.125	61.21
397.339	93.18
397.553	65.47
397.766	85.23
397.98	82.33
398.194	88.14
398.408	24.4
398.621	83.68
398.835	60.82
399.049	75.74
399.262	100.54
399.476	76.32
399.69	98.21
399.903	106.74
400.117	32.73
400.331	94.15
400.544	44.55
400.758	181.14
400.971	61.4
401.185	92.98
401.398	37.38
401.612	113.13
401.826	99.38
402.039	72.64
402.253	45.51
402.466	87.56
402.68	72.06
402.893	91.63
403.106	68.57
403.32	59.46
403.533	86.59
403.747	80.39
403.96	83.1
404.174	80.2
404.387	46.48
404.6	47.65
404.814	83.1
405.027	75.74
405.24	76.9
405.454	57.72
405.667	99.38
405.88	22.46
406.094	85.62
406.307	111.78
406.52	93.95
406.733	29.82
406.947	20.71
407.16	123.4
407.373	86.2
407.586	67.8
407.799	37.96
408.012	119.91
408.226	66.63
408.439	103.64
408.652	47.26
408.865	83.1
409.078	123.01
409.291	109.06
409.504	41.25
409.717	107.9
409.93	108.68
410.143	80
410.357	30.6
410.57	59.46
410.783	56.17
410.996	88.72
411.209	76.51
411.421	120.11
411.634	63.92
411.847	50.36
412.06	80.39
412.273	66.83
412.486	92.01
412.699	177.84
412.912	60.43
413.125	81.94
413.338	96.66
413.55	124.95
413.763	82.13
413.976	102.86
414.189	62.37
414.402	75.55
414.615	146.84
414.827	45.71
415.04	117.59
415.253	101.51
415.466	115.26
415.678	142.19
415.891	106.16
416.104	80.97
416.316	96.08
416.529	68.38
416.742	107.13
416.954	139.68
417.167	86.59
417.38	85.43
417.592	116.43
417.805	58.11
418.017	67.21
418.23	79.23
418.442	75.74
418.655	66.25
418.868	101.7
419.08	129.41
419.293	132.31
419.505	105.77
419.718	95.5
419.93	129.41
420.142	76.9
420.355	147.04
420.567	121.27
420.78	105.58
420.992	92.21
421.205	133.09
421.417	31.95
421.629	88.91
421.842	84.07
422.054	60.05
422.266	112.36
422.479	120.69
422.691	79.42
422.903	135.61
423.115	72.64
423.328	71.86
423.54	96.86
423.752	107.9
423.964	88.91
424.177	111.39
424.389	86.98
424.601	177.26
424.813	121.46
425.025	132.51
425.238	118.56
425.45	87.95
425.662	94.34
425.874	381.86
426.086	75.55
426.298	116.81
426.51	119.91
426.722	108.68
426.934	80.78
427.146	134.64
427.358	44.55
427.57	156.53
427.782	110.42
427.994	93.95
428.206	77.87
428.418	70.51
428.63	128.24
428.842	133.86
429.054	118.17
429.266	154.98
429.478	85.23
429.69	97.83
429.902	67.21
430.114	132.31
430.325	103.64
430.537	112.16
430.749	79.42
430.961	37.96
431.173	98.02
431.384	118.36
431.596	41.45
431.808	85.62
432.02	110.61
432.231	129.99
432.443	166.8
432.655	131.93
432.867	68.18
433.078	99.96
433.29	191.99
433.502	142.78
433.713	159.63
433.925	112.74
434.136	132.7
434.348	83.49
434.56	78.45
434.771	218.72
434.983	66.25
435.194	95.31
435.406	129.99
435.617	157.11
435.829	200.9
436.04	159.83
436.252	176.68
436.463	189.86
436.675	173.58
436.886	148.59
437.098	144.33
437.309	183.66
437.521	161.76
437.732	152.46
437.943	146.84
438.155	134.25
438.366	85.62
438.578	186.95
438.789	138.32
439	169.13
439.211	143.55
439.423	163.12
439.634	177.26
439.845	156.73
440.057	158.86
440.268	165.64
440.479	106.74
440.69	161.57
440.902	161.38
441.113	144.33
441.324	100.15
441.535	145.49
441.746	199.35
441.957	126.69
442.168	108.48
442.38	135.99
442.591	172.42
442.802	122.43
443.013	136.58
443.224	188.11
443.435	139.68
443.646	151.3
443.857	148.78
444.068	153.82
444.279	85.23
444.49	212.72
444.701	143.36
444.912	232.48
445.123	173.58
445.334	172.81
445.545	170.87
445.756	156.92
445.967	132.7
446.178	187.53
446.388	192.57
446.599	191.21
446.81	157.5
447.021	152.85
447.232	201.87
447.443	220.08
447.653	146.65
447.864	207.87
448.075	188.89
448.286	220.47
448.496	195.86
448.707	217.17
448.918	155.18
449.129	252.63
449.339	132.89
449.55	196.06
449.761	188.69
449.971	235.19
450.182	160.02
450.393	199.16
450.603	160.21
450.814	222.02
451.024	213.88
451.235	228.22
451.446	257.09
451.656	233.84
451.867	175.33
452.077	210.59
452.288	223.96
452.498	232.67
452.709	222.21
452.919	203.22
453.13	161.96
453.34	226.28
453.55	152.85
453.761	222.99
453.971	211.36
454.182	219.11
454.392	204.19
454.602	246.04
454.813	191.79
455.023	237.91
455.233	187.34
455.444	200.32
455.654	160.41
455.864	183.07
456.075	197.02
456.285	179.98
456.495	210.97
456.705	224.73
456.916	259.41
457.126	268.52
457.336	224.34
457.546	131.54
457.756	195.09
457.967	224.54
458.177	191.41
458.387	190.05
458.597	184.62
458.807	200.71
459.017	197.41
459.227	179.59
459.437	195.09
459.647	239.84
459.857	242.75
460.068	172.81
460.278	230.54
460.488	239.07
460.698	283.44
460.908	209.42
461.117	168.16
461.327	193.15
461.537	243.33
461.747	188.89
461.957	197.22
462.167	292.93
462.377	225.31
462.587	230.35
462.797	266.77
463.007	242.17
463.216	256.51
463.426	258.44
463.636	246.04
463.846	156.14
464.056	190.82
464.265	240.81
464.475	219.69
464.685	218.72
464.895	229.38
465.104	207.49
465.314	245.07
465.524	205.94
465.733	180.17
465.943	288.28
466.153	283.44
466.362	264.06
466.572	224.15
466.782	207.29
466.991	217.76
467.201	281.89
467.41	168.35
467.62	233.06
467.829	222.21
468.039	242.36
468.249	223.96
468.458	236.36
468.668	248.95
468.877	251.27
469.086	284.02
469.296	270.07
469.505	218.72
469.715	289.25
469.924	257.28
470.134	281.5
470.343	272.97
470.552	241.59
470.762	247.21
470.971	213.3
471.18	267.55
471.39	258.25
471.599	217.95
471.808	287.12
472.018	239.65
472.227	303.2
472.436	275.1
472.645	253.79
472.855	248.17
473.064	313.27
473.273	254.96
473.482	291.96
473.691	310.37
473.901	302.42
474.11	280.92
474.319	348.92
474.528	289.83
474.737	316.57
474.946	293.32
475.155	312.89
475.364	332.65
475.573	296.03
475.783	285.18
475.992	313.27
476.201	321.6
476.41	302.81
476.619	259.61
476.828	307.65
477.037	283.63
477.245	296.61
477.454	337.1
477.663	269.1
477.872	287.89
478.081	375.08
478.29	251.27
478.499	365.97
478.708	336.91
478.917	358.22
479.125	286.15
479.334	342.92
479.543	307.07
479.752	322.96
479.961	315.99
480.169	337.88
480.378	299.32
480.587	445.21
480.796	353.38
481.004	367.91
481.213	373.33
481.422	332.07
481.63	334.59
481.839	385.73
482.048	402.59
482.256	346.99
482.465	355.9
482.674	363.07
482.882	375.85
483.091	433.01
483.299	365.2
483.508	395.23
483.716	400.65
483.925	370.23
484.134	367.72
484.342	370.43
484.551	387.67
484.759	410.53
484.967	395.23
485.176	410.53
485.384	414.99
485.593	409.18
485.801	395.81
486.01	373.53
486.218	358.03
486.426	329.35
486.635	360.74
486.843	348.73
487.051	369.27
487.26	355.7
487.468	384.57
487.676	423.13
487.885	359
488.093	367.33
488.301	383.8
488.509	407.63
488.717	416.54
488.926	410.34
489.134	416.54
489.342	390.38
489.55	385.54
489.758	402.98
489.967	374.88
490.175	475.83
490.383	394.84
490.591	473.11
490.799	384.38
491.007	436.5
491.215	420.03
491.423	427.39
491.631	421.97
491.839	444.83
492.047	449.28
492.255	400.27
492.463	379.92
492.671	405.5
492.879	439.98
493.087	455.87
493.295	466.14
493.503	434.95
493.711	464.2
493.919	479.12
494.127	492.1
494.334	490.55
494.542	433.2
494.75	441.34
494.958	423.9
495.166	500.05
495.374	459.94
495.581	453.55
495.789	493.26
495.997	497.91
496.205	471.37
496.412	456.84
496.62	454.32
496.828	464.98
497.035	441.92
497.243	482.41
497.451	446.18
497.658	520
497.866	467.88
498.074	530.85
498.281	458.2
498.489	562.04
498.696	513.61
498.904	454.51
499.112	469.43
499.319	556.43
499.527	478.54
499.734	530.66
499.942	443.28
500.149	473.31
500.357	480.28
500.564	437.85
500.771	483.19
500.979	497.14
501.186	452
501.394	469.82
501.601	518.65
501.808	515.16
502.016	498.5
502.223	474.47
502.43	474.08
502.638	495.01
502.845	449.28
503.052	551.39
503.26	497.33
503.467	568.63
503.674	513.8
503.881	526.01
504.089	572.7
504.296	562.63
504.503	485.9
504.71	525.23
504.917	483.96
505.125	525.43
505.332	524.85
505.539	527.56
505.746	617.07
505.953	542.67
506.16	537.63
506.367	583.16
506.574	591.3
506.781	595.95
506.988	516.51
507.195	575.03
507.402	535.11
507.609	570.18
507.816	553.33
508.023	518.84
508.23	513.03
508.437	528.53
508.644	573.28
508.851	600.6
509.058	603.12
509.265	587.23
509.472	588.98
509.679	662.21
509.885	548.29
510.092	567.47
510.299	579.09
510.506	602.54
510.713	580.45
510.92	588.01
511.126	628.69
511.333	629.47
511.54	594.01
511.746	631.6
511.953	647.1
512.16	632.57
512.367	584.71
512.573	617.26
512.78	614.36
512.987	616.1
513.193	620.94
513.4	562.24
513.606	583.74
513.813	621.14
514.02	609.51
514.226	682.56
514.433	627.92
514.639	600.02
514.846	609.71
515.052	587.43
515.259	617.07
515.465	631.99
515.672	624.82
515.878	717.04
516.085	640.71
516.291	704.64
516.497	634.89
516.704	621.72
516.91	604.48
517.117	593.63
517.323	564.95
517.529	603.7
517.736	614.36
517.942	601.96
518.148	591.88
518.354	640.71
518.561	624.24
518.767	652.14
518.973	659.31
519.179	672.87
519.386	616.88
519.592	624.04
519.798	644.77
520.004	701.16
520.21	690.69
520.417	719.17
520.623	743
520.829	728.86
521.035	702.9
521.241	734.29
521.447	747.27
521.653	826.7
521.859	735.64
522.065	754.82
522.271	839.88
522.477	793.38
522.683	813.14
522.889	759.47
523.095	800.74
523.301	781.37
523.507	765.67
523.713	782.14
523.919	747.46
524.125	814.11
524.331	781.37
524.537	841.04
524.742	819.92
524.948	837.36
525.154	848.6
525.36	932.49
525.566	868.36
525.772	888.7
525.977	756.18
526.183	873.59
526.389	866.23
526.595	839.49
526.8	800.93
527.006	799.77
527.212	784.47
527.417	772.45
527.623	748.62
527.829	834.26
528.034	827.67
528.24	840.46
528.446	841.82
528.651	897.03
528.857	898.97
529.062	972.4
529.268	891.22
529.473	922.8
529.679	895.68
529.884	947.21
530.09	937.33
530.295	996.43
530.501	951.67
530.706	950.31
530.912	886.18
531.117	959.03
531.323	946.05
531.528	980.93
531.733	951.28
531.939	920.86
532.144	966.01
532.35	971.24
532.555	996.04
532.76	981.89
532.966	1015.41
533.171	988.48
533.376	915.63
533.581	912.15
533.787	962.91
533.992	986.74
534.197	1024.13
534.402	981.7
534.607	975.89
534.813	1077.61
535.018	991
535.223	977.44
535.428	1004.18
535.633	1023.36
535.838	1046.61
536.043	1016.19
536.249	1096.21
536.454	1026.84
536.659	1009.21
536.864	999.91
537.069	1015.22
537.274	1030.72
537.479	1018.32
537.684	1026.65
537.889	1002.82
538.094	1100.66
538.299	1048.93
538.504	1059.59
538.708	1029.17
538.913	1085.55
539.118	1030.33
539.323	1050.87
539.528	1052.03
539.733	1051.64
539.938	1077.8
540.142	1084
540.347	1046.8
540.552	984.61
540.757	1030.33
540.962	1049.71
541.166	1039.63
541.371	982.48
541.576	1043.89
541.781	951.86
541.985	1054.55
542.19	1054.55
542.395	1104.34
542.599	1129.72
542.804	1072.76
543.008	1143.67
543.213	1021.23
543.418	1004.56
543.622	1068.5
543.827	1040.02
544.031	1104.92
544.236	1117.13
544.44	1101.82
544.645	1166.54
544.849	1083.61
545.054	1156.46
545.258	1190.95
545.463	1146.77
545.667	1098.92
545.872	1096.4
546.076	1119.07
546.281	1123.52
546.485	1072.18
546.689	1112.67
546.894	1144.06
547.098	1105.51
547.302	1078.38
547.507	1138.64
547.711	1131.08
547.915	1153.55
548.119	1081.48
548.324	1092.14
548.528	1203.15
548.732	1132.44
548.936	1148.71
549.141	1162.47
549.345	1132.82
549.549	1111.71
549.753	1141.16
549.957	1202.38
550.161	1223.11
550.366	1165.57
550.57	1106.47
550.774	1117.32
550.978	1126.62
551.182	1133.21
551.386	1124.49
551.59	1146.97
551.794	1139.41
551.998	1133.41
552.202	1127.59
552.406	1117.52
552.61	1162.27
552.814	1151.04
553.018	1203.15
553.222	1125.85
553.426	1145.8
553.63	1218.65
553.833	1127.98
554.037	1113.45
554.241	1136.12
554.445	1148.71
554.649	1143.29
554.853	1129.53
555.056	1169.25
555.26	1196.57
555.464	1165.76
555.668	1172.93
555.871	1172.35
556.075	1188.62
556.279	1144.25
556.483	1096.98
556.686	1134.57
556.89	1116.94
557.094	1137.86
557.297	1080.51
557.501	1150.07
557.704	1081.87
557.908	1128.17
558.112	1128.37
558.315	1169.64
558.519	1146
558.722	1114.03
558.926	1095.62
559.129	1034.59
559.333	1033.04
559.536	1040.79
559.74	1045.64
559.943	1043.7
560.147	1049.13
560.35	1079.74
560.553	1043.12
560.757	1045.44
560.96	1162.27
561.164	1051.06
561.367	1128.56
561.57	1068.11
561.774	1082.06
561.977	1067.72
562.18	1018.9
562.384	1133.41
562.587	1075.67
562.79	1032.46
562.993	1074.89
563.197	1069.86
563.4	1103.57
563.603	1078.19
563.806	1114.81
564.009	1016.58
564.212	1056.87
564.416	988.29
564.619	1069.27
564.822	987.71
565.025	1085.16
565.228	1024.71
565.431	1034.59
565.634	953.8
565.837	1001.08
566.04	977.24
566.243	1014.06
566.446	914.86
566.649	1018.32
566.852	931.71
567.055	977.05
567.258	1030.72
567.461	1046.61
567.664	1048.16
567.867	918.54
568.07	975.5
568.273	998.17
568.475	1031.69
568.678	1002.43
568.881	948.38
569.084	945.47
569.287	880.18
569.489	926.87
569.692	945.47
569.895	982.28
570.098	922.22
570.3	878.82
570.503	824.57
570.706	890.64
570.909	895.29
571.111	851.7
571.314	816.24
571.516	887.93
571.719	874.17
571.922	836.78
572.124	875.14
572.327	856.54
572.529	830.58
572.732	843.95
572.935	870.3
573.137	893.35
573.34	850.34
573.542	873.59
573.745	880.57
573.947	896.06
574.15	849.76
574.352	834.84
574.554	889.67
574.757	812.56
574.959	809.07
575.162	820.89
575.364	816.24
575.566	901.68
575.769	790.86
575.971	847.05
576.173	737.39
576.376	861
576.578	854.41
576.78	891.8
576.982	745.52
577.185	783.69
577.387	769.35
577.589	782.34
577.791	805
577.993	821.67
578.196	755.21
578.398	795.51
578.6	819.34
578.802	742.81
579.004	760.05
579.206	796.28
579.408	772.07
579.61	774.39
579.812	807.72
580.014	758.31
580.216	786.4
580.418	774
580.62	765.29
580.822	763.35
581.024	776.91
581.226	802.68
581.428	760.64
581.63	837.17
581.832	724.21
582.034	799
582.236	788.92
582.438	822.63
582.64	825.35
582.841	837.17
583.043	878.05
583.245	789.31
583.447	789.89
583.649	782.14
583.85	751.92
584.052	816.82
584.254	749.2
584.456	848.4
584.657	741.26
584.859	814.5
585.061	778.85
585.262	766.25
585.464	744.17
585.666	814.69
585.867	786.99
586.069	817.02
586.27	800.35
586.472	787.37
586.674	759.28
586.875	747.46
587.077	755.6
587.278	789.89
587.48	747.46
587.681	866.42
587.883	768.39
588.084	668.61
588.285	724.02
588.487	715.88
588.688	729.64
588.89	704.06
589.091	670.74
589.292	698.44
589.494	671.71
589.695	664.73
589.896	613.58
590.098	589.94
590.299	708.9
590.5	666.47
590.702	654.85
590.903	649.42
591.104	734.67
591.305	667.83
591.507	739.32
591.708	706
591.909	688.95
592.11	743.97
592.311	728.67
592.512	688.37
592.714	650.78
592.915	645.36
593.116	696.89
593.317	699.61
593.518	646.91
593.719	667.06
593.92	669.77
594.121	730.22
594.322	694.76
594.523	694.37
594.724	636.25
594.925	674.03
595.126	700.38
595.327	691.47
595.528	654.85
595.729	707.35
595.929	689.34
596.13	680.04
596.331	705.81
596.532	699.41
596.733	741.45
596.934	711.23
597.135	711.62
597.335	711.04
597.536	673.06
597.737	690.11
597.938	672.29
598.138	719.95
598.339	685.85
598.54	680.81
598.74	665.89
598.941	722.85
599.142	738.35
599.342	705.42
599.543	650.78
599.744	655.82
599.944	713.17
600.145	676.94
600.345	713.17
600.546	758.31
600.746	742.42
600.947	767.61
601.147	695.73
601.348	727.31
601.548	667.44
601.749	697.28
601.949	646.52
602.15	652.33
602.35	693.21
602.551	721.11
602.751	669.96
602.951	668.8
603.152	625.59
603.352	681.39
603.552	684.88
603.753	728.09
603.953	697.86
604.153	681.97
604.354	665.7
604.554	697.67
604.754	688.95
604.954	631.41
605.155	715.69
605.355	642.64
605.555	706.97
605.755	705.61
605.955	696.51
606.155	712.59
606.356	685.27
606.556	720.72
606.756	642.26
606.956	619.78
607.156	698.06
607.356	656.79
607.556	696.12
607.756	675.97
607.956	677.91
608.156	672.87
608.356	622.88
608.556	679.84
608.756	655.62
608.956	663.96
609.156	674.22
609.356	639.93
609.556	627.92
609.755	653.88
609.955	623.85
610.155	659.5
610.355	635.86
610.555	633.73
610.755	631.02
610.954	604.67
611.154	640.71
611.354	672.29
611.554	606.99
611.753	610.87
611.953	576.19
612.153	670.74
612.352	656.59
612.552	597.89
612.752	543.25
612.951	587.43
613.151	634.12
613.351	581.23
613.55	618.62
613.75	626.37
613.949	607.19
614.149	636.06
614.348	604.28
614.548	579.09
614.747	548.48
614.947	563.21
615.146	542.28
615.346	620.94
615.545	604.86
615.745	627.14
615.944	608.74
616.144	605.25
616.343	651.36
616.542	583.36
616.742	594.01
616.941	580.06
617.14	556.04
617.34	611.64
617.539	574.06
617.738	538.99
617.938	633.73
618.137	577.74
618.336	566.89
618.535	590.91
618.734	602.93
618.934	604.28
619.133	582.39
619.332	619.2
619.531	605.64
619.73	583.16
619.929	612.81
620.128	600.99
620.328	616.29
620.527	552.94
620.726	552.74
620.925	594.59
621.124	555.65
621.323	577.35
621.522	559.72
621.721	522.52
621.92	551.19
622.119	575.8
622.318	537.83
622.517	558.94
622.715	551.78
622.914	518.26
623.113	544.8
623.312	498.5
623.511	561.08
623.71	523.1
623.909	533.37
624.107	618.81
