Data from oakcork_FLMT105791__286__17-34-32-052.txt Node

Date: Mon Mar 20 17:34:32 GMT 2023
User: antho
Spectrometer: FLMT10579
Trigger mode: 0
Integration Time (sec): 1.000000E-1
Scans to average: 10
Electric dark correction enabled: true
Nonlinearity correction enabled: false
Boxcar width: 0
XAxis mode: Wavelengths
Number of Pixels in Spectrum: 3648
>>>>>Begin Spectral Data<<<<<
345.248	-135.41
345.464	-135.41
345.681	-135.41
345.898	-161.96
346.114	-131.54
346.331	-21.3
346.548	2.92
346.764	13.58
346.981	36.44
347.197	-7.73
347.414	-4.63
347.631	-19.94
347.847	30.82
348.064	-3.47
348.28	23.07
348.497	-36.8
348.713	-12.96
348.93	31.98
349.146	18.62
349.363	-12
349.579	11.25
349.796	-6.57
350.012	8.15
350.229	13.97
350.445	-11.03
350.661	-34.66
350.878	-5.02
351.094	37.8
351.311	22.3
351.527	14.55
351.743	-32.92
351.96	34.31
352.176	25.59
352.392	13.38
352.609	42.83
352.825	-8.9
353.041	13.19
353.257	1.76
353.474	13.77
353.69	14.74
353.906	33.73
354.122	-13.74
354.339	49.42
354.555	22.49
354.771	-18.58
354.987	31.4
355.203	58.72
355.42	-13.35
355.636	-27.11
355.852	-14.71
356.068	4.67
356.284	-26.53
356.5	24.62
356.716	12.42
356.932	-5.6
357.148	20.36
357.364	2.34
357.58	31.02
357.796	73.83
358.012	34.5
358.228	23.07
358.444	-51.91
358.66	47.87
358.876	33.73
359.092	0.6
359.308	12.03
359.524	21.13
359.74	4.47
359.956	-12.96
360.172	17.26
360.388	43.03
360.604	13.77
360.819	83.13
361.035	18.03
361.251	33.15
361.467	-6.18
361.683	20.94
361.898	-3.08
362.114	33.34
362.33	9.51
362.546	35.28
362.762	-3.47
362.977	30.82
363.193	-28.08
363.409	21.52
363.624	-21.1
363.84	-15.68
364.056	-1.73
364.271	14.16
364.487	3.5
364.703	-18.78
364.918	-49.58
365.134	-14.13
365.35	0.02
365.565	101.93
365.781	18.81
365.996	30.24
366.212	70.73
366.427	24.62
366.643	4.08
366.858	25.59
367.074	-14.9
367.289	47.68
367.505	78.29
367.72	-27.5
367.936	0.6
368.151	61.05
368.367	14.35
368.582	13.19
368.798	-20.91
369.013	55.43
369.228	7.96
369.444	15.52
369.659	41.67
369.874	19.97
370.09	76.16
370.305	-53.46
370.52	5.83
370.736	39.93
370.951	-1.34
371.166	46.13
371.381	90.11
371.597	19.58
371.812	-11.22
372.027	-17.23
372.242	16.29
372.458	73.06
372.673	-3.28
372.888	-10.25
373.103	19.39
373.318	103.67
373.533	6.8
373.749	12.8
373.964	-18
374.179	38.77
374.394	6.8
374.609	51.17
374.824	-15.29
375.039	44.77
375.254	-10.64
375.469	58.33
375.684	24.23
375.899	36.83
376.114	14.55
376.329	3.5
376.544	53.88
376.759	43.03
376.974	-4.44
377.189	12.61
377.404	29.85
377.619	31.98
377.834	-49.78
378.049	-28.27
378.264	-5.41
378.478	22.49
378.693	-8.51
378.908	18.81
379.123	-8.31
379.338	50.97
379.553	-0.18
379.767	19.78
379.982	33.15
380.197	34.89
380.412	22.88
380.626	26.95
380.841	70.15
381.056	22.3
381.271	59.3
381.485	14.93
381.7	-9.09
381.915	0.6
382.129	8.15
382.344	-2.31
382.559	22.1
382.773	54.27
382.988	-40.86
383.202	46.32
383.417	4.28
383.632	91.66
383.846	25.4
384.061	44.77
384.275	1.57
384.49	11.83
384.704	38.77
384.919	45.55
385.133	13.97
385.348	28.3
385.562	17.45
385.777	42.06
385.991	-6.77
386.206	-6.38
386.42	-7.35
386.634	52.91
386.849	24.62
387.063	19.97
387.277	-33.89
387.492	22.49
387.706	-20.71
387.92	15.71
388.135	68.99
388.349	34.12
388.563	26.37
388.778	33.15
388.992	50.58
389.206	29.08
389.42	79.26
389.635	18.42
389.849	34.31
390.063	49.23
390.277	32.37
390.491	72.67
390.706	24.62
390.92	73.45
391.134	14.16
391.348	45.74
391.562	-9.67
391.776	15.71
391.99	13.58
392.205	31.98
392.419	25.98
392.633	27.53
392.847	69.77
393.061	-2.12
393.275	58.33
393.489	20.36
393.703	34.7
393.917	43.03
394.131	0.02
394.345	48.84
394.559	43.22
394.773	8.73
394.986	55.82
395.2	27.14
395.414	47.48
395.628	-14.32
395.842	42.25
396.056	19.97
396.27	-26.53
396.484	23.65
396.697	26.37
396.911	49.42
397.125	50.58
397.339	55.82
397.553	48.65
397.766	106.38
397.98	47.87
398.194	72.67
398.408	25.2
398.621	63.76
398.835	43.61
399.049	36.25
399.262	77.71
399.476	78.87
399.69	63.18
399.903	109.1
400.117	46.52
400.331	67.05
400.544	18.62
400.758	153.08
400.971	37.02
401.185	53.49
401.398	22.68
401.612	66.67
401.826	53.68
402.039	68.99
402.253	16.29
402.466	55.82
402.68	40.51
402.893	45.35
403.106	50.58
403.32	36.44
403.533	42.25
403.747	75.38
403.96	25.59
404.174	64.73
404.387	-0.95
404.6	69.77
404.814	77.32
405.027	58.92
405.24	39.35
405.454	44.97
405.667	95.15
405.88	-4.25
406.094	69.96
406.307	69.96
406.52	69.57
406.733	20.75
406.947	-17.81
407.16	138.55
407.373	89.33
407.586	41.87
407.799	39.35
408.012	53.68
408.226	48.45
408.439	108.13
408.652	-0.76
408.865	64.73
409.078	89.14
409.291	81.78
409.504	25.78
409.717	62.98
409.93	70.73
410.143	52.91
410.357	21.91
410.57	20.36
410.783	30.43
410.996	65.5
411.209	43.22
411.421	99.6
411.634	37.02
411.847	47.68
412.06	55.04
412.273	74.03
412.486	36.44
412.699	134.48
412.912	46.52
413.125	66.86
413.338	61.05
413.55	85.65
413.763	33.73
413.976	70.15
414.189	35.08
414.402	33.53
414.615	113.75
414.827	22.1
415.04	76.35
415.253	53.88
415.466	93.79
415.678	111.42
415.891	53.1
416.104	53.68
416.316	54.85
416.529	39.73
416.742	55.82
416.954	97.86
417.167	56.2
417.38	62.4
417.592	96.5
417.805	7.18
418.017	9.12
418.23	78.29
418.442	54.46
418.655	74.22
418.868	90.11
419.08	90.88
419.293	70.73
419.505	43.61
419.718	73.83
419.93	74.61
420.142	46.13
420.355	88.95
420.567	119.36
420.78	75.77
420.992	55.04
421.205	111.81
421.417	44
421.629	43.42
421.842	27.72
422.054	6.99
422.266	69.96
422.479	81.2
422.691	39.73
422.903	90.3
423.115	19.78
423.328	54.65
423.54	62.98
423.752	78.68
423.964	49.23
424.177	65.12
424.389	61.63
424.601	139.13
424.813	52.52
425.025	83.71
425.238	67.25
425.45	76.55
425.662	62.6
425.874	326.87
426.086	77.9
426.298	105.8
426.51	86.81
426.722	68.02
426.934	66.47
427.146	102.31
427.358	69.96
427.57	106
427.782	71.12
427.994	79.65
428.206	54.46
428.418	24.04
428.63	103.86
428.842	110.26
429.054	85.26
429.266	84.1
429.478	50.2
429.69	70.15
429.902	9.51
430.114	91.46
430.325	79.65
430.537	34.12
430.749	54.07
430.961	18.81
431.173	72.67
431.384	93.21
431.596	-5.22
431.808	45.74
432.02	83.33
432.231	87.98
432.443	106.38
432.655	91.08
432.867	35.67
433.078	77.32
433.29	111.42
433.502	108.51
433.713	112.39
433.925	71.32
434.136	119.75
434.348	45.74
434.56	40.9
434.771	165.67
434.983	25.01
435.194	70.35
435.406	54.46
435.617	122.08
435.829	119.17
436.04	93.79
436.252	115.49
436.463	119.56
436.675	109.87
436.886	89.33
437.098	106.77
437.309	130.99
437.521	87.2
437.732	105.41
437.943	95.53
438.155	96.89
438.366	57.95
438.578	121.88
438.789	85.65
439	102.7
439.211	105.61
439.423	111.03
439.634	109.1
439.845	132.54
440.057	88.36
440.268	109.87
440.479	74.03
440.69	120.33
440.902	50.78
441.113	80.23
441.324	84.68
441.535	92.43
441.746	141.45
441.957	68.41
442.168	80.03
442.38	124.21
442.591	114.91
442.802	92.24
443.013	91.66
443.224	92.24
443.435	91.46
443.646	67.25
443.857	101.93
444.068	66.47
444.279	62.98
444.49	153.27
444.701	99.8
444.912	178.65
445.123	121.3
445.334	138.55
445.545	105.61
445.756	91.85
445.967	74.42
446.178	122.66
446.388	147.26
446.599	141.06
446.81	120.53
447.021	60.27
447.232	147.65
447.443	150.56
447.653	89.53
447.864	153.66
448.075	83.33
448.286	121.69
448.496	130.6
448.707	145.13
448.918	106.96
449.129	176.13
449.339	64.34
449.55	117.23
449.761	86.62
449.971	149.59
450.182	104.45
450.393	124.01
450.603	80.81
450.814	127.89
451.024	124.79
451.235	132.54
451.446	163.35
451.656	164.9
451.867	114.71
452.077	132.35
452.288	172.26
452.498	166.83
452.709	116.07
452.919	130.99
453.13	101.73
453.34	135.06
453.55	69.77
453.761	151.72
453.971	130.8
454.182	132.73
454.392	143.78
454.602	184.46
454.813	107.74
455.023	176.52
455.233	99.02
455.444	142.81
455.654	76.35
455.864	113.75
456.075	125.37
456.285	120.72
456.495	113.55
456.705	169.35
456.916	160.44
457.126	171.09
457.336	134.09
457.546	48.65
457.756	85.65
457.967	184.46
458.177	118.98
458.387	107.35
458.597	98.05
458.807	115.68
459.017	129.25
459.227	133.12
459.437	111.81
459.647	161.8
459.857	168.38
460.068	105.22
460.278	166.06
460.488	156.56
460.698	185.63
460.908	120.72
461.117	102.9
461.327	106.77
461.537	150.17
461.747	150.17
461.957	135.64
462.167	252.86
462.377	140.87
462.587	151.91
462.797	147.46
463.007	138.74
463.216	171.29
463.426	182.72
463.636	166.45
463.846	119.17
464.056	112
464.265	197.25
464.475	108.13
464.685	148.04
464.895	145.71
465.104	144.75
465.314	184.66
465.524	121.3
465.733	112.58
465.943	190.08
466.153	192.6
466.362	141.84
466.572	165.28
466.782	149.2
466.991	147.26
467.201	203.45
467.41	96.11
467.62	174.19
467.829	122.46
468.039	152.3
468.249	154.82
468.458	141.65
468.668	159.47
468.877	181.94
469.086	195.89
469.296	189.5
469.505	131.76
469.715	239.29
469.924	171.09
470.134	215.85
470.343	208.49
470.552	139.13
470.762	153.46
470.971	142.42
471.18	170.51
471.39	180.2
471.599	122.08
471.808	208.68
472.018	132.15
472.227	195.12
472.436	199.96
472.645	144.55
472.855	139.13
473.064	214.11
473.273	174.97
473.482	192.6
473.691	231.74
473.901	204.03
474.11	147.85
474.319	268.16
474.528	184.66
474.737	203.84
474.946	199.77
475.155	217.98
475.364	223.21
475.573	192.41
475.783	179.81
475.992	204.61
476.201	242.78
476.41	176.13
476.619	152.3
476.828	205.97
477.037	162.18
477.245	172.84
477.454	210.62
477.663	185.04
477.872	192.02
478.081	235.23
478.29	164.9
478.499	262.35
478.708	198.22
478.917	244.14
479.125	209.26
479.334	207.13
479.543	170.32
479.752	223.99
479.961	198.8
480.169	250.34
480.378	206.36
480.587	298.77
480.796	239.88
481.004	207.52
481.213	226.7
481.422	228.64
481.63	194.15
481.839	255.37
482.048	277.85
482.256	228.64
482.465	216.04
482.674	250.14
482.882	256.54
483.091	267.19
483.299	250.92
483.508	271.07
483.716	218.95
483.925	238.71
484.134	195.89
484.342	215.85
484.551	273.39
484.759	253.24
484.967	262.16
485.176	259.64
485.384	248.4
485.593	292.19
485.801	260.8
486.01	250.34
486.218	256.34
486.426	207.33
486.635	260.02
486.843	243.75
487.051	232.32
487.26	214.88
487.468	272.04
487.676	276.69
487.885	209.65
488.093	271.07
488.301	264.48
488.509	270.68
488.717	290.25
488.926	267.77
489.134	231.16
489.342	256.15
489.55	236.19
489.758	258.28
489.967	231.93
490.175	340.04
490.383	262.35
490.591	314.27
490.799	252.08
491.007	304.97
491.215	260.41
491.423	247.43
491.631	261.77
491.839	274.56
492.047	317.76
492.255	239.29
492.463	215.66
492.671	276.49
492.879	284.63
493.087	264.09
493.295	281.53
493.503	315.24
493.711	320.47
493.919	301.87
494.127	319.89
494.334	327.84
494.542	260.99
494.75	300.32
494.958	281.92
495.166	328.42
495.374	288.31
495.581	287.92
495.789	298.39
495.997	331.71
496.205	302.07
496.412	271.84
496.62	272.23
496.828	318.15
497.035	306.52
497.243	346.24
497.451	326.67
497.658	317.37
497.866	314.27
498.074	358.45
498.281	298.19
498.489	390.42
498.696	326.29
498.904	299.55
499.112	292.77
499.319	368.72
499.527	286.57
499.734	318.92
499.942	235.61
500.149	324.54
500.357	275.33
500.564	279.01
500.771	295.87
500.979	278.04
501.186	279.21
501.394	302.07
501.601	325.32
501.808	318.54
502.016	280.56
502.223	287.54
502.43	275.72
502.638	303.42
502.845	268.74
503.052	347.79
503.26	267
503.467	351.67
503.674	296.84
503.881	327.64
504.089	408.63
504.296	354.38
504.503	267.19
504.71	336.36
504.917	277.66
505.125	310.01
505.332	281.72
505.539	358.06
505.746	384.6
505.953	340.24
506.16	322.02
506.367	359.8
506.574	365.23
506.781	371.43
506.988	288.51
507.195	349.92
507.402	335.01
507.609	378.21
507.816	329.39
508.023	347.99
508.23	364.07
508.437	325.32
508.644	335.59
508.851	393.52
509.058	356.9
509.265	363.29
509.472	345.27
509.679	400.88
509.885	355.35
510.092	342.75
510.299	352.83
510.506	360.77
510.713	360.39
510.92	371.24
511.126	359.42
511.333	391.58
511.54	368.52
511.746	399.33
511.953	402.24
512.16	379.18
512.367	361.16
512.573	360.58
512.78	370.27
512.987	379.95
513.193	378.6
513.4	308.46
513.606	363.29
513.813	362.13
514.02	385.77
514.226	424.9
514.433	427.23
514.639	330.36
514.846	372.01
515.052	351.86
515.259	381.89
515.465	386.54
515.672	378.4
515.878	471.02
516.085	363.87
516.291	439.43
516.497	360.97
516.704	376.08
516.91	358.25
517.117	346.24
517.323	314.27
517.529	360.19
517.736	358.25
517.942	386.54
518.148	353.02
518.354	388.87
518.561	387.32
518.767	390.22
518.973	396.04
519.179	413.47
519.386	349.73
519.592	362.52
519.798	375.11
520.004	446.22
520.21	379.95
520.417	413.86
520.623	458.23
520.829	431.1
521.035	425.49
521.241	407.47
521.447	443.12
521.653	503.76
521.859	405.92
522.065	400.69
522.271	530.88
522.477	423.74
522.683	493.49
522.889	463.85
523.095	440.6
523.301	427.81
523.507	433.04
523.713	474.5
523.919	435.75
524.125	488.84
524.331	411.54
524.537	525.46
524.742	506.47
524.948	507.25
525.154	504.15
525.36	554.91
525.566	484.38
525.772	508.02
525.977	434.78
526.183	506.47
526.389	535.92
526.595	471.79
526.8	472.76
527.006	446.8
527.212	427.23
527.417	432.46
527.623	430.33
527.829	479.15
528.034	469.08
528.24	477.6
528.446	462.49
528.651	516.55
528.857	515.58
529.062	553.55
529.268	462.88
529.473	516.16
529.679	516.93
529.884	566.53
530.09	527.01
530.295	564.21
530.501	539.8
530.706	546.77
530.912	494.85
531.117	519.84
531.323	530.11
531.528	558.78
531.733	567.7
531.939	515
532.144	589.98
532.35	545.22
532.555	567.11
532.76	557.23
532.966	553.36
533.171	571.38
533.376	536.7
533.581	489.81
533.787	554.33
533.992	565.18
534.197	593.08
534.402	543.09
534.607	565.76
534.813	627.37
535.018	531.66
535.223	530.88
535.428	556.07
535.633	584.94
535.838	589.01
536.043	522.36
536.249	644.23
536.454	558.01
536.659	556.65
536.864	543.28
537.069	547.74
537.274	597.34
537.479	575.83
537.684	577.77
537.889	553.75
538.094	659.14
538.299	596.76
538.504	594.24
538.708	573.31
538.913	597.53
539.118	563.63
539.323	606.64
539.528	571.76
539.733	593.66
539.938	603.35
540.142	634.54
540.347	571.18
540.552	568.47
540.757	587.07
540.962	608.77
541.166	527.2
541.371	554.71
541.576	598.5
541.781	495.23
541.985	559.17
542.19	579.51
542.395	623.3
542.599	646.36
542.804	609.93
543.008	648.1
543.213	552.39
543.418	546.38
543.622	616.52
543.827	556.46
544.031	641.51
544.236	667.48
544.44	581.84
544.645	683.94
544.849	624.27
545.054	613.81
545.258	683.75
545.463	675.03
545.667	605.09
545.872	607.8
546.076	612.06
546.281	621.36
546.485	601.99
546.689	621.56
546.894	645.39
547.098	626.59
547.302	581.45
547.507	611.09
547.711	612.45
547.915	659.53
548.119	588.43
548.324	606.64
548.528	681.81
548.732	612.84
548.936	637.25
549.141	669.03
549.345	603.54
549.549	604.31
549.753	617.1
549.957	689.37
550.161	656.63
550.366	625.04
550.57	579.9
550.774	619.23
550.978	585.52
551.182	643.84
551.386	623.49
551.59	608.96
551.794	638.41
551.998	625.63
552.202	591.53
552.406	572.93
552.61	619.43
552.814	604.89
553.018	734.12
553.222	604.89
553.426	591.72
553.63	685.49
553.833	589.01
554.037	562.27
554.241	657.21
554.445	616.71
554.649	632.79
554.853	600.44
555.056	658.56
555.26	638.8
555.464	632.41
555.668	623.49
555.871	654.88
556.075	662.44
556.279	607.61
556.483	565.18
556.686	658.37
556.89	618.46
557.094	666.89
557.297	569.44
557.501	674.64
557.704	563.24
557.908	653.72
558.112	599.66
558.315	673.09
558.519	592.11
558.722	601.02
558.926	604.7
559.129	604.51
559.333	570.99
559.536	570.02
559.74	563.63
559.943	565.56
560.147	553.16
560.35	584.16
560.553	568.28
560.757	522.75
560.96	636.86
561.164	569.05
561.367	634.73
561.57	561.69
561.774	604.31
561.977	566.92
562.18	561.69
562.384	658.56
562.587	612.84
562.79	560.14
562.993	593.66
563.197	601.21
563.4	661.28
563.603	629.69
563.806	672.13
564.009	567.5
564.212	600.83
564.416	537.86
564.619	611.68
564.822	542.12
565.025	599.86
565.228	574.09
565.431	572.35
565.634	509.18
565.837	547.93
566.04	511.12
566.243	557.62
566.446	493.68
566.649	575.06
566.852	486.71
567.055	533.79
567.258	559.56
567.461	599.66
567.664	571.57
567.867	522.36
568.07	553.75
568.273	538.63
568.475	618.46
568.678	524.49
568.881	537.28
569.084	535.15
569.287	460.17
569.489	501.43
569.692	564.6
569.895	543.67
570.098	473.15
570.3	481.87
570.503	444.47
570.706	474.7
570.909	469.66
571.111	464.62
571.314	447.96
571.516	491.17
571.719	493.3
571.922	491.94
572.124	478.38
572.327	513.06
572.529	420.64
572.732	467.33
572.935	504.15
573.137	542.31
573.34	467.92
573.542	513.83
573.745	481.28
573.947	509.77
574.15	472.37
574.352	460.55
574.554	497.95
574.757	464.82
574.959	455.71
575.162	463.85
575.364	456.68
575.566	553.75
575.769	471.98
575.971	469.47
576.173	398.36
576.376	462.1
576.578	485.55
576.78	533.21
576.982	396.04
577.185	424.52
577.387	411.15
577.589	428.59
577.791	466.37
577.993	487.87
578.196	425.68
578.398	471.21
578.6	510.73
578.802	409.79
579.004	402.82
579.206	426.07
579.408	440.79
579.61	424.71
579.812	480.12
580.014	444.08
580.216	437.88
580.418	416.96
580.62	409.99
580.822	376.08
581.024	419.09
581.226	468.5
581.428	448.15
581.63	489.23
581.832	413.47
582.034	487.48
582.236	450.28
582.438	450.67
582.64	467.92
582.841	503.95
583.043	501.05
583.245	453.77
583.447	482.25
583.649	429.55
583.85	433.23
584.052	466.37
584.254	399.33
584.456	501.24
584.657	377.82
584.859	456.87
585.061	431.3
585.262	423.74
585.464	414.44
585.666	470.43
585.867	392.16
586.069	474.31
586.27	432.85
586.472	461.33
586.674	424.9
586.875	418.12
587.077	428.78
587.278	444.28
587.48	412.31
587.681	517.13
587.883	457.26
588.084	402.82
588.285	422.39
588.487	391.39
588.688	455.32
588.89	372.59
589.091	362.52
589.292	418.32
589.494	381.12
589.695	377.24
589.896	339.27
590.098	334.81
590.299	383.83
590.5	357.09
590.702	349.92
590.903	378.4
591.104	425.68
591.305	392.55
591.507	428.97
591.708	411.15
591.909	385.19
592.11	464.23
592.311	415.99
592.512	386.15
592.714	375.69
592.915	371.62
593.116	375.69
593.317	382.67
593.518	391.97
593.719	383.83
593.92	395.65
594.121	422.39
594.322	352.25
594.523	409.79
594.724	342.56
594.925	392.55
595.126	424.71
595.327	380.15
595.528	395.65
595.729	385.96
595.929	380.34
596.13	389.64
596.331	387.12
596.532	408.05
596.733	417.54
596.934	406.3
597.135	408.63
597.335	430.33
597.536	371.62
597.737	403.4
597.938	407.08
598.138	415.8
598.339	364.84
598.54	390.03
598.74	370.65
598.941	418.7
599.142	398.36
599.342	391.77
599.543	370.65
599.744	367.36
599.944	398.36
600.145	390.22
600.345	409.79
600.546	436.14
600.746	435.56
600.947	452.8
601.147	392.55
601.348	437.69
601.548	337.72
601.749	390.61
601.949	362.13
602.15	335.78
602.35	402.62
602.551	444.08
602.751	352.44
602.951	374.34
603.152	343.14
603.352	401.07
603.552	353.99
603.753	411.34
603.953	398.75
604.153	377.44
604.354	366.2
604.554	381.12
604.754	404.37
604.954	326.87
605.155	397.59
605.355	361.94
605.555	422.97
605.755	426.84
605.955	396.04
606.155	417.74
606.356	382.47
606.556	409.99
606.756	393.71
606.956	340.43
607.156	431.68
607.356	362.71
607.556	398.55
607.756	385.77
607.956	423.74
608.156	406.11
608.356	342.56
608.556	426.84
608.756	401.65
608.956	352.44
609.156	373.37
609.356	345.47
609.556	342.37
609.755	366
609.955	377.44
610.155	390.03
610.355	384.02
610.555	347.4
610.755	356.32
610.954	315.05
611.154	354.19
611.354	399.33
611.554	310.79
611.753	354.19
611.953	321.64
612.153	377.63
612.352	377.24
612.552	318.34
612.752	318.73
612.951	351.09
613.151	356.7
613.351	324.93
613.55	364.65
613.75	368.52
613.949	386.74
614.149	366.97
614.348	383.83
614.548	313.5
614.747	315.63
614.947	337.33
615.146	308.07
615.346	369.69
615.545	344.69
615.745	369.3
615.944	365.42
616.144	350.31
616.343	379.95
616.542	298.58
616.742	332.29
616.941	345.08
617.14	301.87
617.34	348.57
617.539	352.64
617.738	330.16
617.938	403.4
618.137	338.11
618.336	269.91
618.535	372.01
618.734	321.44
618.934	351.09
619.133	336.17
619.332	369.69
619.531	324.74
619.73	323.77
619.929	346.82
620.128	338.69
620.328	358.45
620.527	330.74
620.726	317.96
620.925	317.18
621.124	307.88
621.323	368.91
621.522	303.23
621.721	268.16
621.92	276.11
622.119	344.11
622.318	291.99
622.517	306.33
622.715	302.84
622.914	280.56
623.113	315.05
623.312	279.21
623.511	343.92
623.71	300.91
623.909	299.55
624.107	341.4
624.306	275.14
624.505	279.4
624.704	307.11
624.902	288.89
625.101	363.29
625.3	310.59
625.499	289.47
625.697	262.54
625.896	279.01
626.095	302.84
626.293	257.12
626.492	287.34
626.69	318.34
