Data from oakcork_FLMT105791__238__17-33-09-055.txt Node

Date: Mon Mar 20 17:33:09 GMT 2023
User: antho
Spectrometer: FLMT10579
Trigger mode: 0
Integration Time (sec): 1.000000E-1
Scans to average: 10
Electric dark correction enabled: true
Nonlinearity correction enabled: false
Boxcar width: 0
XAxis mode: Wavelengths
Number of Pixels in Spectrum: 3648
>>>>>Begin Spectral Data<<<<<
345.248	-152.88
345.464	-152.88
345.681	-152.88
345.898	-154.82
346.114	-155.4
346.331	-49.23
346.548	10.83
346.764	6.96
346.981	-3.7
347.197	-12.42
347.414	6.18
347.631	-32.76
347.847	78.26
348.064	2.7
348.28	30.21
348.497	-42.83
348.713	5.8
348.93	37.57
349.146	18.39
349.363	12.38
349.579	21.3
349.796	1.53
350.012	-0.21
350.229	27.3
350.445	13.55
350.661	-9.51
350.878	3.47
351.094	28.46
351.311	16.45
351.527	7.35
351.743	3.67
351.96	60.82
352.176	55.4
352.392	27.5
352.609	39.51
352.825	2.7
353.041	20.71
353.257	9.48
353.474	34.86
353.69	24.4
353.906	49.2
354.122	-37.99
354.339	51.52
354.555	28.46
354.771	4.05
354.987	83.88
355.203	69.73
355.42	-6.99
355.636	-11.83
355.852	14.51
356.068	13.16
356.284	-23.27
356.5	69.73
356.716	33.89
356.932	1.53
357.148	39.7
357.364	14.71
357.58	36.41
357.796	35.05
358.012	50.16
358.228	54.62
358.444	-45.93
358.66	53.26
358.876	23.62
359.092	-20.17
359.308	7.93
359.524	42.41
359.74	18.39
359.956	7.15
360.172	11.8
360.388	48.03
360.604	-7.57
360.819	88.72
361.035	45.9
361.251	44.35
361.467	-16.87
361.683	66.25
361.898	42.8
362.114	59.46
362.33	16.65
362.546	65.08
362.762	26.14
362.977	35.25
363.193	-0.4
363.409	55.4
363.624	12.38
363.84	8.31
364.056	-0.79
364.271	28.46
364.487	41.64
364.703	14.71
364.918	10.83
365.134	16.84
365.35	23.62
365.565	92.4
365.781	29.24
365.996	54.23
366.212	99.76
366.427	54.81
366.643	-8.54
366.858	26.72
367.074	-3.89
367.289	76.51
367.505	101.51
367.72	-15.13
367.936	3.47
368.151	67.21
368.367	49.2
368.582	39.7
368.798	18.97
369.013	76.51
369.228	37.18
369.444	43.77
369.659	78.84
369.874	60.82
370.09	92.98
370.305	-17.65
370.52	18.97
370.736	84.07
370.951	37.57
371.166	60.82
371.381	108.09
371.597	91.63
371.812	19.94
372.027	0.18
372.242	46.48
372.458	117.39
372.673	24.59
372.888	31.95
373.103	47.65
373.318	97.83
373.533	59.08
373.749	62.56
373.964	-13.77
374.179	74
374.394	0.76
374.609	88.33
374.824	7.35
375.039	65.86
375.254	10.06
375.469	71.67
375.684	56.75
375.899	99.96
376.114	44.93
376.329	28.46
376.544	83.1
376.759	67.21
376.974	46.29
377.189	28.08
377.404	41.45
377.619	81.55
377.834	10.45
378.049	10.06
378.264	37.18
378.478	71.48
378.693	1.92
378.908	67.99
379.123	34.66
379.338	83.49
379.553	49.2
379.767	67.02
379.982	66.63
380.197	57.33
380.412	33.11
380.626	61.98
380.841	120.49
381.056	64.31
381.271	103.25
381.485	31.95
381.7	39.9
381.915	83.68
382.129	25.75
382.344	47.26
382.559	33.11
382.773	92.21
382.988	-3.31
383.202	53.65
383.417	42.61
383.632	154.01
383.846	55.78
384.061	52.49
384.275	39.31
384.49	75.35
384.704	73.8
384.919	73.61
385.133	56.75
385.348	67.41
385.562	13.55
385.777	98.21
385.991	36.6
386.206	37.38
386.42	23.62
386.634	64.11
386.849	61.6
387.063	58.88
387.277	46.68
387.492	51.33
387.706	21.88
387.92	41.06
388.135	58.11
388.349	71.28
388.563	59.08
388.778	65.66
388.992	74.77
389.206	98.6
389.42	129.41
389.635	60.24
389.849	94.92
390.063	83.88
390.277	52.3
390.491	129.02
390.706	95.5
390.92	89.3
391.134	59.85
391.348	76.32
391.562	34.28
391.776	65.86
391.99	61.6
392.205	105.58
392.419	41.64
392.633	56.36
392.847	106.35
393.061	66.83
393.275	130.76
393.489	41.64
393.703	58.5
393.917	87.56
394.131	40.86
394.345	78.06
394.559	120.69
394.773	72.25
394.986	68.38
395.2	80.2
395.414	116.62
395.628	75.74
395.842	87.36
396.056	98.6
396.27	32.15
396.484	96.28
396.697	97.63
396.911	100.34
397.125	96.66
397.339	96.28
397.553	67.41
397.766	142.97
397.98	129.79
398.194	126.31
398.408	76.51
398.621	129.99
398.835	141.81
399.049	121.08
399.262	152.85
399.476	152.27
399.69	127.08
399.903	171.45
400.117	111.39
400.331	154.21
400.544	99.76
400.758	245.46
400.971	135.41
401.185	165.83
401.398	116.43
401.612	187.53
401.826	169.71
402.039	156.34
402.253	135.22
402.466	173
402.68	129.21
402.893	148.39
403.106	133.09
403.32	126.11
403.533	159.63
403.747	122.04
403.96	151.88
404.174	187.53
404.387	95.11
404.6	161.96
404.814	209.42
405.027	172.81
405.24	143.36
405.454	149.56
405.667	174.16
405.88	119.53
406.094	172.81
406.307	194.7
406.52	146.07
406.733	149.56
406.947	125.92
407.16	207.49
407.373	191.79
407.586	153.82
407.799	122.04
408.012	202.64
408.226	163.89
408.439	216.01
408.652	137.35
408.865	190.24
409.078	240.04
409.291	200.32
409.504	128.83
409.717	189.27
409.93	192.18
410.143	178.81
410.357	135.03
410.57	126.89
410.783	174.36
410.996	179.39
411.209	163.7
411.421	229.77
411.634	188.89
411.847	169.13
412.06	226.28
412.273	178.23
412.486	198.57
412.699	278.98
412.912	198.77
413.125	187.34
413.338	199.74
413.55	204.97
413.763	206.91
413.976	224.15
414.189	186.95
414.402	176.68
414.615	240.23
414.827	152.27
415.04	215.43
415.253	222.21
415.466	216.01
415.678	273.75
415.891	214.27
416.104	199.54
416.316	217.56
416.529	210.39
416.742	240.62
416.954	264.45
417.167	211.56
417.38	202.26
417.592	251.08
417.805	201.87
418.017	158.66
418.23	251.47
418.442	190.05
418.655	201.87
418.868	231.51
419.08	236.36
419.293	272.59
419.505	227.64
419.718	225.12
419.93	245.07
420.142	185.79
420.355	250.11
420.567	267.16
420.78	248.95
420.992	202.64
421.205	276.65
421.417	228.99
421.629	231.71
421.842	208.07
422.054	210.01
422.266	256.7
422.479	257.67
422.691	219.89
422.903	273.94
423.115	200.51
423.328	231.51
423.54	242.75
423.752	251.66
423.964	209.42
424.177	238.68
424.389	235.58
424.601	345.63
424.813	265.81
425.025	273.75
425.238	268.91
425.45	251.86
425.662	256.31
425.874	501.6
426.086	239.26
426.298	258.44
426.51	270.84
426.722	271.23
426.934	256.31
427.146	277.43
427.358	236.94
427.57	266
427.782	256.31
427.994	243.33
428.206	247.79
428.418	229.77
428.63	299.9
428.842	287.7
429.054	257.47
429.266	295.84
429.478	209.62
429.69	243.91
429.902	200.32
430.114	268.91
430.325	241.78
430.537	187.34
430.749	212.14
430.961	168.74
431.173	221.05
431.384	255.54
431.596	175.33
431.808	249.53
432.02	265.22
432.231	294.48
432.443	327.61
432.655	297
432.867	273.55
433.078	294.29
433.29	354.93
433.502	332.84
433.713	350.86
433.925	310.56
434.136	328
434.348	293.32
434.56	223.76
434.771	365.78
434.983	245.85
435.194	271.42
435.406	294.29
435.617	354.35
435.829	407.63
436.04	354.15
436.252	359.58
436.463	384.96
436.675	375.85
436.886	346.21
437.098	364.03
437.309	404.53
437.521	342.53
437.732	365
437.943	339.24
438.155	356.87
438.366	307.65
438.578	393.87
438.789	352.8
439	378.37
439.211	349.5
439.423	353.19
439.634	343.11
439.845	363.07
440.057	368.68
440.268	384.38
440.479	366.36
440.69	367.13
440.902	359.77
441.113	388.83
441.324	354.15
441.535	402.78
441.746	438.63
441.957	383.99
442.168	369.46
442.38	431.07
442.591	425.65
442.802	382.44
443.013	390.58
443.224	432.82
443.435	398.13
443.646	411.31
443.857	420.22
444.068	365
444.279	401.04
444.49	481.64
444.701	435.92
444.912	517.87
445.123	466.72
445.334	454.51
445.545	444.25
445.756	436.3
445.967	377.6
446.178	451.03
446.388	441.92
446.599	431.65
446.81	419.25
447.021	396.2
447.232	456.26
447.443	495.78
447.653	429.91
447.864	502.37
448.075	439.98
448.286	456.26
448.496	483.38
448.707	468.27
448.918	435.72
449.129	517.87
449.339	416.15
449.55	447.73
449.761	457.42
449.971	508.38
450.182	450.64
450.393	505.08
450.603	483.77
450.814	533.76
451.024	502.76
451.235	529.11
451.446	568.05
451.656	571.54
451.867	500.82
452.077	502.37
452.288	564.95
452.498	521.94
452.709	489.39
452.919	493.65
453.13	466.91
453.34	497.53
453.55	392.9
453.761	506.05
453.971	511.67
454.182	500.24
454.392	518.45
454.602	549.06
454.813	529.11
455.023	550.23
455.233	472.92
455.444	526.78
455.654	442.12
455.864	495.59
456.075	495.01
456.285	482.61
456.495	492.88
456.705	545.38
456.916	569.21
457.126	619.01
457.336	545.38
457.546	459.55
457.756	491.33
457.967	578.13
458.177	498.69
458.387	545.96
458.597	507.41
458.807	522.33
459.017	525.81
459.227	540.34
459.437	522.13
459.647	575.41
459.857	525.62
460.068	537.83
460.278	584.33
460.488	556.23
460.698	613
460.908	538.79
461.117	519.23
461.327	520.78
461.537	561.66
461.747	606.22
461.957	557.2
462.167	681.2
462.377	585.29
462.587	565.53
462.797	605.25
463.007	579.29
463.216	601.57
463.426	642.84
463.636	623.85
463.846	526.98
464.056	550.81
464.265	607.58
464.475	565.73
464.685	574.83
464.895	599.05
465.104	581.23
465.314	633.15
465.524	574.83
465.733	550.03
465.943	660.66
466.153	667.64
466.362	654.27
466.572	618.04
466.782	601.18
466.991	598.66
467.201	646.52
467.41	555.65
467.62	620.17
467.829	613.39
468.039	646.71
468.249	622.69
468.458	644.97
468.668	672.48
468.877	669.57
469.086	692.05
469.296	703.29
469.505	648.26
469.715	716.07
469.924	689.14
470.134	717.04
470.343	706.97
470.552	645.55
470.762	642.64
470.971	647.49
471.18	680.81
471.39	685.27
471.599	645.36
471.808	695.34
472.018	643.42
472.227	755.02
472.436	755.4
472.645	728.86
472.855	691.08
473.064	785.24
473.273	750.75
473.482	763.74
473.691	768.58
473.901	768.19
474.11	748.62
474.319	847.43
474.528	733.32
474.737	819.73
474.946	791.44
475.155	773.23
475.364	846.66
475.573	771.68
475.783	808.68
475.992	819.15
476.201	829.42
476.41	807.72
476.619	780.4
476.828	800.93
477.037	771.1
477.245	835.23
477.454	850.53
477.663	826.12
477.872	829.8
478.081	944.5
478.29	829.22
478.499	931.13
478.708	854.8
478.917	924.35
479.125	886.96
479.334	910.79
479.543	904.2
479.752	933.85
479.961	897.23
480.169	948.96
480.378	886.76
480.587	1030.72
480.796	942.76
481.004	955.35
481.213	969.49
481.422	965.04
481.63	985.96
481.839	1004.18
482.048	1021.42
482.256	991.58
482.465	1012.51
482.674	1030.91
482.882	1008.63
483.091	1058.81
483.299	1020.84
483.508	1047.58
483.716	1050.87
483.925	1063.46
484.134	994.29
484.342	1020.26
484.551	1043.51
484.759	1068.89
484.967	1103.37
485.176	1060.36
485.384	1114.03
485.593	1104.73
485.801	1068.31
486.01	1049.51
486.218	989.64
486.426	947.6
486.635	942.95
486.843	958.84
487.051	963.1
487.26	968.91
487.468	1054.74
487.676	1066.95
487.885	1035.76
488.093	1097.56
488.301	1110.74
488.509	1130.31
488.717	1151.42
488.926	1114.81
489.134	1137.47
489.342	1116.55
489.55	1093.69
489.758	1170.8
489.967	1137.47
490.175	1219.24
490.383	1137.09
490.591	1259.15
490.799	1181.07
491.007	1226.6
491.215	1234.15
491.423	1210.71
491.631	1206.64
491.839	1186.88
492.047	1239.38
492.255	1164.79
492.463	1124.3
492.671	1177.77
492.879	1224.08
493.087	1218.27
493.295	1212.84
493.503	1258.76
493.711	1297.51
493.919	1281.82
494.127	1301.77
494.334	1297.32
494.542	1229.5
494.75	1324.83
494.958	1285.3
495.166	1317.85
495.374	1314.95
495.581	1328.31
495.789	1323.47
495.997	1389.35
496.205	1283.95
496.412	1318.63
496.62	1344.98
496.828	1315.92
497.035	1322.31
497.243	1354.66
497.451	1334.13
497.658	1368.03
497.866	1350.6
498.074	1370.75
498.281	1315.33
498.489	1372.1
498.696	1346.91
498.904	1321.53
499.112	1297.32
499.319	1410.27
499.527	1359.31
499.734	1409.3
499.942	1317.27
500.149	1354.66
500.357	1335.1
500.564	1299.25
500.771	1366.1
500.979	1309.52
501.186	1306.81
501.394	1363.38
501.601	1325.02
501.808	1349.63
502.016	1327.93
502.223	1312.82
502.43	1318.05
502.638	1332.77
502.845	1328.7
503.052	1445.92
503.26	1385.08
503.467	1460.84
503.674	1313.59
503.881	1403.3
504.089	1430.42
504.296	1363.19
504.503	1303.13
504.71	1353.11
504.917	1330.45
505.125	1383.53
505.332	1352.53
505.539	1415.5
505.746	1491.64
505.953	1482.93
506.16	1448.83
506.367	1484.28
506.574	1501.33
506.781	1507.53
506.988	1433.13
507.195	1474.59
507.402	1460.84
507.609	1513.54
507.816	1437.2
508.023	1449.6
508.23	1447.08
508.437	1382.18
508.644	1465.29
508.851	1484.86
509.058	1527.68
509.265	1515.28
509.472	1519.93
509.679	1585.03
509.885	1540.08
510.092	1519.16
510.299	1503.46
510.506	1500.17
510.713	1517.41
510.92	1482.15
511.126	1515.28
511.333	1566.43
511.54	1568.56
511.746	1607.7
511.953	1565.66
512.16	1583.87
512.367	1549.38
512.573	1561.97
512.78	1572.24
512.987	1559.26
513.193	1543.57
513.4	1486.61
513.606	1523.42
513.813	1558.49
514.02	1523.81
514.226	1574.37
514.433	1576.7
514.639	1516.25
514.846	1520.32
515.052	1520.51
515.259	1559.46
515.465	1563.14
515.672	1561.59
515.878	1629.98
516.085	1569.34
516.291	1628.82
516.497	1573.21
516.704	1532.33
516.91	1483.12
517.117	1419.96
517.323	1388.38
517.529	1452.89
517.736	1414.14
517.942	1436.04
518.148	1461.03
518.354	1500.94
518.561	1506.56
518.767	1493.58
518.973	1520.9
519.179	1547.06
519.386	1502.88
519.592	1508.11
519.798	1535.43
520.004	1656.72
520.21	1621.65
520.417	1648
520.623	1691.78
520.829	1650.52
521.035	1720.27
521.241	1687.72
521.447	1692.56
521.653	1809.78
521.859	1693.14
522.065	1730.15
522.271	1782.07
522.477	1755.72
522.683	1797.96
522.889	1734.8
523.095	1746.81
523.301	1750.3
523.507	1730.73
523.713	1734.6
523.919	1687.13
524.125	1790.6
524.331	1799.12
524.537	1854.92
524.742	1863.06
524.948	1847.36
525.154	1873.71
525.36	1989.57
525.566	1852.01
525.772	1911.69
525.977	1822.95
526.183	1868.09
526.389	1826.25
526.595	1779.36
526.8	1798.54
527.006	1734.6
527.212	1690.62
527.417	1701.08
527.623	1705.35
527.829	1782.85
528.034	1769.09
528.24	1797.76
528.446	1792.53
528.651	1887.28
528.857	1898.9
529.062	1932.42
529.268	1927.38
529.473	1955.47
529.679	1938.04
529.884	1981.82
530.09	1977.76
530.295	1983.18
530.501	1975.82
530.706	1966.32
530.912	1959.74
531.117	1984.92
531.323	1961.29
531.528	2029.49
531.733	2039.37
531.939	1960.9
532.144	2013.99
532.35	1996.36
532.555	2024.45
532.76	2008.56
532.966	1996.74
533.171	1982.79
533.376	1946.76
533.581	1939.78
533.787	1969.42
533.992	1986.67
534.197	2030.65
534.402	2010.11
534.607	1993.06
534.813	2077.15
535.018	2052.74
535.223	2030.65
535.428	2083.35
535.633	2085.67
535.838	2165.3
536.043	2121.52
536.249	2186.42
536.454	2085.48
536.659	2109.5
536.864	2106.02
537.069	2080.83
537.274	2114.15
537.479	2125.39
537.684	2111.25
537.889	2054.29
538.094	2172.28
538.299	2090.32
538.504	2173.05
538.708	2155.42
538.913	2204.44
539.118	2120.93
539.323	2175.38
539.528	2108.73
539.733	2103.69
539.938	2135.08
540.142	2130.43
540.347	2078.7
540.552	2097.3
540.757	2111.83
540.962	2075.4
541.166	2049.05
541.371	2043.05
541.576	2067.27
541.781	2042.47
541.985	2168.4
542.19	2103.11
542.395	2175.18
542.599	2193.98
542.804	2160.27
543.008	2207.73
543.213	2134.88
543.418	2112.41
543.622	2196.11
543.827	2156.2
544.031	2200.95
544.236	2250.36
544.44	2241.64
544.645	2276.13
544.849	2181
545.054	2236.8
545.258	2280
545.463	2294.92
545.667	2194.95
545.872	2259.27
546.076	2222.65
546.281	2247.84
546.485	2243
546.689	2235.63
546.894	2282.13
547.098	2247.45
547.302	2215.87
547.507	2239.31
547.711	2233.31
547.915	2287.56
548.119	2208.7
548.324	2200.95
548.528	2267.8
548.732	2293.18
548.936	2312.36
549.141	2294.34
549.345	2248.61
549.549	2294.14
549.753	2294.34
549.957	2297.83
550.161	2317.2
550.366	2247.26
550.57	2248.81
550.774	2255.01
550.978	2265.28
551.182	2292.98
551.386	2246.1
551.59	2225.95
551.794	2274.58
551.998	2278.26
552.202	2260.43
552.406	2245.13
552.61	2296.28
552.814	2275.55
553.018	2317.59
553.222	2264.89
553.426	2267.02
553.63	2332.12
553.833	2261.79
554.037	2248.23
554.241	2313.71
554.445	2307.51
554.649	2259.66
554.853	2279.42
555.056	2324.37
555.26	2363.12
555.464	2311.97
555.668	2297.44
555.871	2317.59
556.075	2373.97
556.279	2288.33
556.483	2236.6
556.686	2247.06
556.89	2236.99
557.094	2268.18
557.297	2162.2
557.501	2289.3
557.704	2146.32
557.908	2244.35
558.112	2185.65
558.315	2279.23
558.519	2208.51
558.722	2210.06
558.926	2186.62
559.129	2148.06
559.333	2154.65
559.536	2174.02
559.74	2127.72
559.943	2105.24
560.147	2123.65
560.35	2122.48
560.553	2179.64
560.757	2098.85
560.96	2214.13
561.164	2147.67
561.367	2251.91
561.57	2163.56
561.774	2180.42
561.977	2178.87
562.18	2125.58
562.384	2191.27
562.587	2129.07
562.79	2140.12
562.993	2117.45
563.197	2165.3
563.4	2213.35
563.603	2159.49
563.806	2208.31
564.009	2135.66
564.212	2159.3
564.416	2041.89
564.619	2123.07
564.822	2085.67
565.025	2165.69
565.228	2141.67
565.431	2129.85
565.634	2020.19
565.837	2046.73
566.04	2027.55
566.243	2045.76
566.446	1936.1
566.649	2061.07
566.852	1973.49
567.055	2017.09
567.258	2031.42
567.461	2122.48
567.664	2059.32
567.867	1984.34
568.07	2054.67
568.273	2021.15
568.475	2044.99
568.678	1960.51
568.881	1965.94
569.084	2000.04
569.287	1835.93
569.489	1890.76
569.692	1943.27
569.895	1981.24
570.098	1885.73
570.3	1902.97
570.503	1820.82
570.706	1833.22
570.909	1872.16
571.111	1833.8
571.314	1817.14
571.516	1827.8
571.719	1875.65
571.922	1832.25
572.124	1830.12
572.327	1834.96
572.529	1845.62
572.732	1826.05
572.935	1848.91
573.137	1894.83
573.34	1867.13
573.542	1851.04
573.745	1836.13
573.947	1856.86
574.15	1815.59
574.352	1833.61
574.554	1868.48
574.757	1806.48
574.959	1816.56
575.162	1781.49
575.364	1767.93
575.566	1857.83
575.769	1765.6
575.971	1803.19
576.173	1673.18
576.376	1771.61
576.578	1807.26
576.78	1830.9
576.982	1713.68
577.185	1778.78
577.387	1751.46
577.589	1744.1
577.791	1775.1
577.993	1814.04
578.196	1769.48
578.398	1792.73
578.6	1778
578.802	1723.75
579.004	1704.18
579.206	1721.43
579.408	1782.46
579.61	1703.99
579.812	1787.69
580.014	1738.48
580.216	1769.67
580.418	1735.57
580.62	1738.48
580.822	1757.85
581.024	1757.08
581.226	1816.17
581.428	1752.82
581.63	1865.58
581.832	1763.86
582.034	1849.69
582.236	1752.82
582.438	1811.33
582.64	1825.28
582.841	1845.81
583.043	1880.11
583.245	1796.8
583.447	1809.78
583.649	1802.22
583.85	1805.9
584.052	1824.5
584.254	1785.17
584.456	1847.36
584.657	1749.72
584.859	1806.29
585.061	1758.82
585.262	1761.73
585.464	1727.63
585.666	1817.53
585.867	1742.55
586.069	1803.77
586.27	1750.68
586.472	1773.55
586.674	1712.32
586.875	1750.49
587.077	1700.31
587.278	1774.32
587.48	1741.97
587.681	1822.95
587.883	1784.01
588.084	1691.01
588.285	1728.4
588.487	1666.6
588.688	1687.13
588.89	1627.85
589.091	1566.24
589.292	1574.57
589.494	1525.74
589.695	1518.57
589.896	1439.91
590.098	1450.57
590.299	1525.74
590.5	1525.36
590.702	1547.44
590.903	1576.31
591.104	1622.04
591.305	1618.35
591.507	1657.3
591.708	1653.81
591.909	1614.29
592.11	1675.32
592.311	1673.18
592.512	1575.73
592.714	1544.54
592.915	1605.37
593.116	1605.76
593.317	1637.34
593.518	1622.81
593.719	1616.03
593.92	1642.38
594.121	1698.76
594.322	1619.13
594.523	1612.35
594.724	1548.22
594.925	1588.9
595.126	1606.92
595.327	1583.48
595.528	1594.33
595.729	1605.76
595.929	1594.52
596.13	1599.56
596.331	1621.07
596.532	1627.65
596.733	1697.21
596.934	1647.8
597.135	1636.95
597.335	1629.4
597.536	1576.12
597.737	1649.74
597.938	1605.76
598.138	1622.62
598.339	1599.95
598.54	1637.15
598.74	1586
598.941	1623.39
599.142	1682.68
599.342	1635.99
599.543	1594.52
599.744	1654.59
599.944	1623.59
600.145	1594.52
600.345	1634.63
600.546	1689.27
600.746	1667.95
600.947	1651.68
601.147	1642.57
601.348	1646.45
601.548	1575.92
601.749	1617.77
601.949	1583.29
602.15	1592.2
602.35	1577.47
602.551	1611.57
602.751	1597.82
602.951	1604.6
603.152	1550.16
603.352	1633.85
603.552	1622.62
603.753	1662.34
603.953	1643.93
604.153	1640.44
604.354	1653.04
604.554	1634.82
604.754	1639.67
604.954	1586.97
605.155	1658.65
605.355	1622.81
605.555	1643.54
605.755	1683.07
605.955	1610.99
606.155	1669.7
606.356	1606.92
606.556	1645.29
606.756	1655.36
606.956	1563.14
607.156	1675.7
607.356	1607.31
607.556	1621.84
607.756	1606.15
607.956	1645.48
608.156	1606.34
608.356	1556.94
608.556	1616.61
608.756	1619.32
608.956	1565.66
609.156	1590.26
609.356	1570.31
609.556	1562.17
609.755	1613.7
609.955	1548.02
610.155	1597.62
610.355	1572.24
610.555	1565.66
610.755	1554.03
610.954	1511.79
611.154	1591.81
611.354	1580.96
611.554	1571.47
611.753	1520.51
611.953	1481.18
612.153	1586.19
612.352	1564.49
612.552	1507.72
612.752	1496.87
612.951	1571.86
613.151	1547.83
613.351	1524.58
613.55	1516.25
613.75	1543.96
613.949	1508.5
614.149	1490.87
614.348	1534.27
614.548	1492.42
614.747	1462
614.947	1488.54
615.146	1429.26
615.346	1505.4
615.545	1501.72
615.745	1516.83
615.944	1515.86
