Data from oakcork_FLMT105791__264__17-34-10-053.txt Node

Date: Mon Mar 20 17:34:10 GMT 2023
User: antho
Spectrometer: FLMT10579
Trigger mode: 0
Integration Time (sec): 1.000000E-1
Scans to average: 10
Electric dark correction enabled: true
Nonlinearity correction enabled: false
Boxcar width: 0
XAxis mode: Wavelengths
Number of Pixels in Spectrum: 3648
>>>>>Begin Spectral Data<<<<<
345.248	-173.23
345.464	-173.23
345.681	-173.23
345.898	-156.18
346.114	-154.82
346.331	-33.15
346.548	40.67
346.764	7.15
346.981	-25.01
347.197	-15.71
347.414	20.91
347.631	-20.36
347.847	45.32
348.064	7.93
348.28	5.22
348.497	-55.62
348.713	22.65
348.93	31.18
349.146	9.48
349.363	11.22
349.579	12.96
349.796	-7.18
350.012	2.12
350.229	35.44
350.445	8.12
350.661	-21.72
350.878	-10.09
351.094	21.1
351.311	16.26
351.527	29.43
351.743	-5.83
351.96	44.35
352.176	35.44
352.392	-29.08
352.609	60.63
352.825	-14.93
353.041	26.33
353.257	-4.47
353.474	2.31
353.69	19.36
353.906	51.91
354.122	-18.42
354.339	38.73
354.555	-1.95
354.771	-7.18
354.987	54.62
355.203	46.29
355.42	-16.48
355.636	0.95
355.852	-6.02
356.068	11.61
356.284	-39.54
356.5	61.79
356.716	-6.02
356.932	3.67
357.148	25.17
357.364	-19.39
357.58	45.32
357.796	45.32
358.012	54.62
358.228	16.84
358.444	-69.38
358.66	58.3
358.876	19.16
359.092	-0.4
359.308	14.32
359.524	19.75
359.74	11.22
359.956	8.7
360.172	10.45
360.388	36.21
360.604	24.01
360.819	73.8
361.035	20.33
361.251	46.87
361.467	2.5
361.683	51.71
361.898	17.23
362.114	12.19
362.33	33.89
362.546	49.97
362.762	0.37
362.977	12.96
363.193	-25.2
363.409	40.09
363.624	-6.22
363.84	-9.7
364.056	3.28
364.271	29.63
364.487	26.33
364.703	3.67
364.918	-20.94
365.134	-25.4
365.35	1.73
365.565	111.39
365.781	41.06
365.996	15.87
366.212	88.33
366.427	39.9
366.643	-11.06
366.858	2.7
367.074	-12.42
367.289	40.48
367.505	97.83
367.72	-42.64
367.936	18.58
368.151	40.48
368.367	51.33
368.582	-12.42
368.798	-12.42
369.013	41.25
369.228	16.65
369.444	28.27
369.659	41.25
369.874	21.1
370.09	70.9
370.305	-35.47
370.52	20.33
370.736	41.25
370.951	7.54
371.166	45.71
371.381	83.49
371.597	37.18
371.812	-0.4
372.027	-11.64
372.242	16.45
372.458	68.57
372.673	15.68
372.888	-3.12
373.103	49.78
373.318	98.41
373.533	29.63
373.749	31.76
373.964	1.92
374.179	68.96
374.394	7.35
374.609	64.5
374.824	1.15
375.039	51.91
375.254	-7.38
375.469	61.79
375.684	2.31
375.899	20.71
376.114	34.08
376.329	15.68
376.544	47.26
376.759	69.15
376.974	14.51
377.189	12.38
377.404	-0.21
377.619	29.24
377.834	-44.38
378.049	7.54
378.264	-9.12
378.478	28.46
378.693	10.06
378.908	23.43
379.123	5.8
379.338	51.71
379.553	46.87
379.767	19.36
379.982	36.6
380.197	50.16
380.412	20.52
380.626	13.74
380.841	70.31
381.056	34.66
381.271	88.91
381.485	0.18
381.7	-17.84
381.915	40.28
382.129	15.48
382.344	41.83
382.559	11.03
382.773	49.58
382.988	-3.12
383.202	36.41
383.417	20.33
383.632	93.76
383.846	32.73
384.061	34.66
384.275	17.23
384.49	15.87
384.704	60.82
384.919	33.5
385.133	22.07
385.348	41.83
385.562	-10.48
385.777	45.9
385.991	29.43
386.206	13.93
386.42	14.13
386.634	31.95
386.849	41.25
387.063	36.02
387.277	-0.98
387.492	23.62
387.706	-14.35
387.92	-7.96
388.135	62.95
388.349	33.31
388.563	29.63
388.778	26.33
388.992	46.29
389.206	60.63
389.42	80
389.635	25.95
389.849	57.72
390.063	79.81
390.277	27.69
390.491	96.66
390.706	25.95
390.92	52.68
391.134	43
391.348	38.15
391.562	1.73
391.776	21.88
391.99	18.2
392.205	84.26
392.419	12.77
392.633	13.93
392.847	54.81
393.061	6.18
393.275	70.51
393.489	16.45
393.703	8.7
393.917	77.48
394.131	6.38
394.345	68.76
394.559	64.5
394.773	19.55
394.986	10.64
395.2	42.8
395.414	73.22
395.628	19.94
395.842	23.04
396.056	30.4
396.27	-16.48
396.484	34.66
396.697	50.55
396.911	72.06
397.125	67.6
397.339	43.38
397.553	41.45
397.766	96.47
397.98	70.9
398.194	76.71
398.408	18.39
398.621	52.68
398.835	50.75
399.049	37.96
399.262	72.25
399.476	58.5
399.69	61.21
399.903	89.11
400.117	52.1
400.331	53.85
400.544	29.05
400.758	126.89
400.971	38.35
401.185	71.28
401.398	41.45
401.612	92.4
401.826	77.1
402.039	74.19
402.253	56.56
402.466	51.71
402.68	40.67
402.893	41.06
403.106	40.86
403.32	59.66
403.533	59.27
403.747	54.81
403.96	71.48
404.174	82.13
404.387	8.12
404.6	47.84
404.814	61.01
405.027	48.03
405.24	41.45
405.454	48.42
405.667	87.56
405.88	12
406.094	62.18
406.307	102.48
406.52	51.52
406.733	35.44
406.947	22.65
407.16	114.49
407.373	82.33
407.586	53.46
407.799	24.4
408.012	71.28
408.226	60.43
408.439	100.34
408.652	28.85
408.865	58.5
409.078	90.46
409.291	82.91
409.504	11.41
409.717	63.15
409.93	91.24
410.143	60.24
410.357	3.08
410.57	32.53
410.783	49
410.996	77.68
411.209	34.47
411.421	94.15
411.634	53.85
411.847	43.96
412.06	53.46
412.273	45.13
412.486	56.36
412.699	158.66
412.912	64.31
413.125	103.06
413.338	46.29
413.55	81.75
413.763	54.04
413.976	93.18
414.189	46.29
414.402	54.81
414.615	125.34
414.827	29.43
415.04	77.48
415.253	81.94
415.466	87.95
415.678	144.71
415.891	72.06
416.104	62.18
416.316	61.79
416.529	32.34
416.742	92.6
416.954	100.93
417.167	72.45
417.38	70.31
417.592	121.46
417.805	49.78
418.017	4.25
418.23	76.32
418.442	36.99
418.655	41.83
418.868	66.44
419.08	92.21
419.293	116.23
419.505	83.1
419.718	85.43
419.93	94.53
420.142	67.41
420.355	125.34
420.567	114.49
420.78	105.19
420.992	59.66
421.205	118.75
421.417	57.53
421.629	64.31
421.842	40.48
422.054	18.78
422.266	98.02
422.479	97.05
422.691	61.01
422.903	89.69
423.115	38.73
423.328	70.9
423.54	76.9
423.752	56.75
423.964	55.78
424.177	91.43
424.389	70.7
424.601	170.48
424.813	78.84
425.025	138.32
425.238	104.8
425.45	65.66
425.662	85.43
425.874	344.08
426.086	84.07
426.298	81.75
426.51	83.3
426.722	53.46
426.934	68.57
427.146	94.92
427.358	55.78
427.57	106.35
427.782	85.81
427.994	80
428.206	49.97
428.418	21.49
428.63	91.43
428.842	94.34
429.054	96.86
429.266	120.49
429.478	55.98
429.69	80.78
429.902	41.64
430.114	94.53
430.325	88.53
430.537	53.65
430.749	50.16
430.961	21.49
431.173	48.42
431.384	77.48
431.596	4.25
431.808	68.96
432.02	59.27
432.231	98.99
432.443	119.14
432.655	97.05
432.867	48.61
433.078	97.24
433.29	127.28
433.502	101.31
433.713	101.31
433.925	85.62
434.136	112.74
434.348	72.64
434.56	38.15
434.771	170.29
434.983	73.22
435.194	61.98
435.406	67.99
435.617	129.41
435.829	151.69
436.04	95.11
436.252	121.08
436.463	139.48
436.675	115.07
436.886	95.11
437.098	95.11
437.309	142
437.521	110.81
437.732	96.28
437.943	115.07
438.155	102.67
438.366	55.59
438.578	155.56
438.789	113.71
439	133.67
439.211	88.53
439.423	117.98
439.634	100.93
439.845	103.25
440.057	120.49
440.268	121.66
440.479	90.08
440.69	106.16
440.902	86.2
441.113	100.93
441.324	104.41
441.535	134.44
441.746	159.83
441.957	57.53
442.168	81.16
442.38	118.94
442.591	116.81
442.802	82.91
443.013	89.5
443.224	90.46
443.435	76.13
443.646	88.14
443.857	98.02
444.068	112.36
444.279	94.34
444.49	161.96
444.701	107.13
444.912	192.76
445.123	126.69
445.334	116.62
445.545	141.23
445.756	101.12
445.967	80.78
446.178	130.76
446.388	134.83
446.599	129.41
446.81	157.89
447.021	93.95
447.232	165.06
447.443	146.26
447.653	77.48
447.864	152.66
448.075	121.85
448.286	114.88
448.496	118.75
448.707	148.2
448.918	104.99
449.129	193.34
449.339	96.28
449.55	131.73
449.761	82.13
449.971	166.8
450.182	108.87
450.393	166.99
450.603	112.16
450.814	162.34
451.024	136.77
451.235	178.04
451.446	194.51
451.656	179.2
451.867	98.02
452.077	140.64
452.288	148.59
452.498	193.73
452.709	105.77
452.919	135.41
453.13	105.19
453.34	154.59
453.55	88.91
453.761	189.27
453.971	148.01
454.182	142.58
454.392	162.34
454.602	196.06
454.813	179.01
455.023	180.94
455.233	115.46
455.444	133.28
455.654	84.07
455.864	160.79
456.075	123.59
456.285	132.7
456.495	125.34
456.705	144.13
456.916	158.08
457.126	185.21
457.336	127.08
457.546	80.97
457.756	112.94
457.967	190.63
458.177	118.56
458.387	139.09
458.597	122.04
458.807	117.2
459.017	120.3
459.227	130.57
459.437	132.51
459.647	187.14
459.857	157.69
460.068	103.06
460.278	156.53
460.488	177.84
460.698	189.86
460.908	152.46
461.117	114.88
461.327	132.89
461.537	127.66
461.747	146.26
461.957	129.02
462.167	242.56
462.377	160.6
462.587	151.11
462.797	172.03
463.007	162.15
463.216	174.74
463.426	205.16
463.636	186.95
463.846	110.81
464.056	161.38
464.265	184.24
464.475	119.72
464.685	151.11
464.895	186.76
465.104	125.53
465.314	162.73
465.524	146.26
465.733	155.95
465.943	213.88
466.153	226.28
466.362	198.38
466.572	172.42
466.782	160.21
466.991	129.02
467.201	211.94
467.41	141.42
467.62	155.76
467.829	141.42
468.039	174.94
468.249	137.54
468.458	163.51
468.668	189.86
468.877	186.76
469.086	202.64
469.296	190.05
469.505	133.09
469.715	215.04
469.924	187.92
470.134	205.16
470.343	217.17
470.552	149.94
470.762	170.68
470.971	142.39
471.18	148.78
471.39	176.88
471.599	137.16
471.808	215.43
472.018	149.75
472.227	206.52
472.436	205.36
472.645	166.41
472.855	147.62
473.064	228.61
473.273	178.43
473.482	201.87
473.691	246.43
473.901	230.74
474.11	180.36
474.319	244.88
474.528	196.25
474.737	233.64
474.946	200.51
475.155	220.47
475.364	225.89
475.573	210.01
475.783	199.16
475.992	214.27
476.201	235.39
476.41	197.99
476.619	176.29
476.828	204.97
477.037	193.73
477.245	196.83
477.454	261.54
477.663	186.76
477.872	214.27
478.081	242.94
478.29	197.61
478.499	272.39
478.708	188.89
478.917	286.73
479.125	234.42
479.334	224.54
479.543	188.5
479.752	230.35
479.961	223.96
480.169	254.76
480.378	225.51
480.587	315.4
480.796	250.89
481.004	226.67
481.213	244.88
481.422	248.56
481.63	213.11
481.839	217.37
482.048	290.6
482.256	240.23
482.465	246.43
482.674	247.59
482.882	271.62
483.091	275.49
483.299	236.94
483.508	270.07
483.716	235.19
483.925	268.13
484.134	251.66
484.342	236.55
484.551	296.22
484.759	287.89
484.967	269.49
485.176	292.15
485.384	295.64
485.593	292.93
485.801	284.4
486.01	269.29
486.218	275.88
486.426	209.23
486.635	246.62
486.843	248.37
487.051	227.44
487.26	238.68
487.468	297.58
487.676	284.02
487.885	255.92
488.093	273.17
488.301	274.72
488.509	272.97
488.717	320.64
488.926	269.49
489.134	251.27
489.342	290.41
489.55	239.46
489.758	286.15
489.967	251.47
490.175	371.4
490.383	228.61
490.591	321.6
490.799	232.87
491.007	299.9
491.215	286.54
491.423	287.89
491.631	291.77
491.839	291.19
492.047	311.14
492.255	266.19
492.463	242.36
492.671	299.52
492.879	343.3
493.087	304.55
493.295	312.11
493.503	341.17
493.711	330.9
493.919	362.29
494.127	330.32
494.334	338.65
494.542	287.31
494.75	324.51
494.958	296.22
495.166	342.14
495.374	314.44
495.581	331.68
495.789	335.36
495.997	368.88
496.205	315.79
496.412	319.67
496.62	309.98
496.828	312.3
497.035	294.09
497.243	351.44
497.451	325.87
497.658	333.42
497.866	330.71
498.074	364.42
498.281	291.77
498.489	405.11
498.696	339.04
498.904	322.38
499.112	302.04
499.319	381.67
499.527	320.25
499.734	379.53
499.942	281.3
500.149	326.45
500.357	320.64
500.564	288.09
500.771	352.22
500.979	322.19
501.186	316.95
501.394	341.75
501.601	364.62
501.808	338.65
502.016	345.24
502.223	321.8
502.43	342.34
502.638	353.19
502.845	310.17
503.052	400.65
503.26	296.61
503.467	383.6
503.674	352.22
503.881	338.27
504.089	410.53
504.296	373.14
504.503	339.82
504.71	357.64
504.917	311.92
505.125	341.95
505.332	331.49
505.539	360.35
505.746	437.66
505.953	386.7
506.16	365.2
506.367	442.89
506.574	422.35
506.781	412.08
506.988	322.19
507.195	376.05
507.402	368.88
507.609	387.28
507.816	348.34
508.023	367.52
508.23	357.25
508.437	340.4
508.644	385.73
508.851	407.63
509.058	401.04
509.265	373.72
509.472	402.98
509.679	492.68
509.885	376.05
510.092	385.93
510.299	380.12
510.506	390.77
510.713	426.81
510.92	400.07
511.126	424.68
511.333	449.86
511.54	427.2
511.746	450.06
511.953	439.6
512.16	441.34
512.367	380.31
512.573	385.73
512.78	421
512.987	405.11
513.193	421.58
513.4	341.75
513.606	384.96
513.813	413.44
514.02	387.09
514.226	493.07
514.433	475.83
514.639	389.42
514.846	392.32
515.052	410.73
515.259	401.23
515.465	435.33
515.672	401.23
515.878	493.07
516.085	413.83
516.291	466.33
516.497	408.6
516.704	404.33
516.91	380.12
517.117	367.72
517.323	372.17
517.529	380.5
517.736	399.3
517.942	393.1
518.148	388.25
518.354	409.18
518.561	388.25
518.767	429.72
518.973	442.89
519.179	454.13
519.386	393.68
519.592	397.94
519.798	377.21
520.004	500.63
520.21	410.53
520.417	463.43
520.623	471.76
520.829	487.06
521.035	482.41
521.241	481.06
521.447	477.57
521.653	535.31
521.859	445.6
522.065	511.86
522.271	551.19
522.477	491.71
522.683	511.48
522.889	555.46
523.095	496.56
523.301	470.79
523.507	468.46
523.713	520.78
523.919	480.09
524.125	530.08
524.331	481.06
524.537	532.01
524.742	534.53
524.948	529.5
525.154	540.34
525.36	611.64
525.566	545.58
525.772	545.96
525.977	507.02
526.183	558.17
526.389	586.84
526.595	516.32
526.8	501.01
527.006	467.3
527.212	463.43
527.417	485.51
527.623	457.03
527.829	545.58
528.034	555.46
528.24	520.58
528.446	502.56
528.651	590.53
528.857	512.45
529.062	600.99
529.268	534.92
529.473	544.03
529.679	536.47
529.884	601.76
530.09	589.94
530.295	610.48
530.501	590.14
530.706	578.71
530.912	534.14
531.117	545.58
531.323	570.18
531.528	589.17
531.733	581.03
531.939	556.81
532.144	586.46
532.35	606.03
532.555	624.82
532.76	621.52
532.966	610.68
533.171	607.38
533.376	588.98
533.581	578.51
533.787	585.29
533.992	620.17
534.197	643.81
534.402	575.99
534.607	566.69
534.813	685.07
535.018	585.49
535.223	589.75
535.428	594.4
535.633	644.39
535.838	645.55
536.043	600.21
536.249	688.37
536.454	613.97
536.659	645.55
536.864	582.58
537.069	622.88
537.274	643.42
537.479	635.86
537.684	638.57
537.889	590.53
538.094	682.36
538.299	642.06
538.504	639.54
538.708	620.94
538.913	635.09
539.118	609.13
539.323	636.06
539.528	617.46
539.733	618.62
539.938	654.07
540.142	643.61
540.347	619.59
540.552	607.58
540.757	668.61
540.962	611.26
541.166	587.04
541.371	574.25
541.576	614.94
541.781	566.31
541.985	620.94
542.19	641.09
542.395	674.42
542.599	685.07
542.804	662.99
543.008	683.72
543.213	623.66
543.418	586.65
543.622	651.94
543.827	625.4
544.031	681.78
544.236	719.37
544.44	636.83
544.645	749.59
544.849	643.03
545.054	686.62
545.258	736.42
545.463	704.64
545.667	659.89
545.872	666.67
546.076	662.41
546.281	685.27
546.485	646.91
546.689	653.11
546.894	694.37
547.098	634.51
547.302	605.83
547.507	660.66
547.711	683.72
547.915	723.05
548.119	626.95
548.324	665.12
548.528	706.58
548.732	675
548.936	661.24
549.141	694.37
549.345	666.47
549.549	668.22
549.753	678.49
549.957	751.72
550.161	720.34
550.366	662.99
550.57	660.66
550.774	676.36
550.978	645.94
551.182	706.39
551.386	670.93
551.59	667.25
551.794	689.72
551.998	678.1
552.202	674.22
552.406	632.57
552.61	674.22
552.814	673.45
553.018	724.02
553.222	671.12
553.426	671.12
553.63	731.38
553.833	677.71
554.037	626.56
554.241	699.8
554.445	678.1
554.649	663.57
554.853	676.16
555.056	716.07
555.26	696.12
555.464	680.81
555.668	673.45
555.871	726.92
556.075	726.54
556.279	668.8
556.483	636.06
556.686	692.44
556.89	668.61
557.094	693.99
557.297	629.27
557.501	690.5
557.704	615.71
557.908	689.34
558.112	633.54
558.315	702.12
558.519	650.2
558.722	680.23
558.926	686.24
559.129	626.76
559.333	638.96
559.536	614.55
559.74	623.07
559.943	615.33
560.147	611.45
560.35	619.01
560.553	617.26
560.757	606.41
560.96	670.54
561.164	621.52
561.367	696.12
561.57	636.44
561.774	667.25
561.977	634.89
562.18	613
562.384	680.42
562.587	617.65
562.79	590.14
562.993	631.99
563.197	662.02
563.4	693.99
563.603	669.38
563.806	666.28
564.009	628.89
564.212	656.59
564.416	592.46
564.619	658.72
564.822	589.17
565.025	665.31
565.228	658.72
565.431	627.34
565.634	563.79
565.837	603.89
566.04	565.34
566.243	616.88
566.446	544.8
566.649	596.53
566.852	583.16
567.055	595.76
567.258	606.41
567.461	632.37
567.664	636.83
567.867	544.41
568.07	581.03
568.273	583.55
568.475	616.88
568.678	576.58
568.881	583.74
569.084	615.71
569.287	515.74
569.489	540.93
569.692	597.5
569.895	572.51
570.098	505.28
570.3	534.53
570.503	480.48
570.706	520.39
570.909	497.33
571.111	495.78
571.314	516.9
571.516	530.66
571.719	560.49
571.922	519.23
572.124	500.24
572.327	524.26
572.529	483.38
572.732	488.03
572.935	520.39
573.137	563.98
573.34	530.27
573.542	541.31
573.745	536.66
573.947	537.24
574.15	506.44
574.352	499.27
574.554	547.9
574.757	479.51
574.959	468.27
575.162	513.03
575.364	517.68
575.566	557.01
575.769	463.04
575.971	519.23
576.173	428.94
576.376	496.75
576.578	522.91
576.78	551.97
576.982	409.37
577.185	486.48
577.387	452.96
577.589	438.63
577.791	497.91
577.993	502.95
578.196	473.7
578.398	504.5
578.6	534.73
578.802	448.51
579.004	433.78
579.206	455.48
579.408	480.48
579.61	455.68
579.812	502.76
580.014	488.23
580.216	481.25
580.418	465.36
580.62	435.33
580.822	403.37
581.024	485.71
581.226	491.52
581.428	460.52
581.63	536.66
581.832	444.63
582.034	495.01
582.236	470.21
582.438	498.69
582.64	523.3
582.841	533.56
583.043	564.18
583.245	507.21
583.447	507.8
583.649	481.83
583.85	486.1
584.052	514.77
584.254	439.02
584.456	525.43
584.657	442.89
584.859	468.27
585.061	486.48
585.262	445.99
585.464	415.96
585.666	478.54
585.867	421
586.069	534.14
586.27	490.94
586.472	478.15
586.674	441.53
586.875	463.62
587.077	442.12
587.278	474.86
587.48	455.29
587.681	552.36
587.883	488.42
588.084	422.55
588.285	453.93
588.487	431.65
588.688	457.81
588.89	458.58
589.091	427.97
589.292	425.65
589.494	421.77
589.695	425.45
589.896	360.35
590.098	364.03
590.299	417.12
590.5	372.37
590.702	373.53
590.903	396.58
591.104	438.24
591.305	435.72
591.507	466.14
591.708	435.53
591.909	408.98
592.11	498.5
592.311	451.03
592.512	407.43
592.714	389.42
592.915	397.75
593.116	408.02
593.317	433.59
593.518	401.23
593.719	398.72
593.92	451.03
594.121	470.21
594.322	421.77
594.523	437.85
594.724	391.16
594.925	399.1
595.126	425.26
595.327	458.78
595.528	425.45
595.729	433.4
595.929	421.38
596.13	392.13
596.331	422.74
596.532	426.42
596.733	451.41
596.934	444.83
597.135	455.87
597.335	432.62
597.536	379.92
597.737	426.23
597.938	417.7
598.138	440.95
598.339	405.69
598.54	399.88
598.74	438.82
598.941	432.04
599.142	472.73
599.342	417.9
599.543	374.11
599.744	417.9
599.944	409.57
600.145	368.49
600.345	409.76
600.546	483.96
600.746	480.67
600.947	467.69
601.147	414.6
601.348	464.2
601.548	407.24
601.749	437.27
601.949	375.27
602.15	398.91
602.35	409.37
602.551	453.55
602.751	378.57
602.951	407.63
603.152	356.67
603.352	432.82
603.552	416.93
603.753	420.8
603.953	420.61
604.153	419.06
604.354	389.61
604.554	439.21
604.754	411.89
604.954	368.88
605.155	421.38
605.355	413.25
605.555	453.74
605.755	458.97
605.955	411.5
606.155	428.36
606.356	419.45
606.556	415.18
606.756	424.68
606.956	361.13
607.156	431.46
607.356	388.06
607.556	440.18
607.756	399.49
607.956	450.64
608.156	402.4
608.356	391.16
608.556	439.6
608.756	422.93
608.956	389.03
609.156	402.78
609.356	372.95
609.556	421.58
609.755	398.91
609.955	377.79
610.155	411.89
610.355	425.26
610.555	385.73
610.755	404.14
610.954	328.39
611.154	424.87
611.354	420.22
611.554	368.1
611.753	385.73
611.953	340.98
612.153	423.71
612.352	407.43
612.552	360.93
612.752	343.89
612.951	359
613.151	392.13
613.351	355.12
613.55	375.85
613.75	383.22
613.949	373.92
614.149	395.23
614.348	362.87
614.548	348.34
614.747	310.75
614.947	351.25
615.146	335.17
615.346	394.84
615.545	378.95
615.745	392.71
615.944	408.21
616.144	374.3
616.343	384.18
616.542	338.07
616.742	380.12
616.941	369.07
617.14	309.59
617.34	380.12
617.539	364.42
617.738	315.4
617.938	405.5
618.137	343.3
618.336	308.62
618.535	362.68
618.734	355.12
618.934	356.87
619.133	351.05
619.332	362.68
619.531	356.87
619.73	367.33
619.929	384.18
620.128	373.33
620.328	419.45
620.527	342.53
620.726	350.67
620.925	369.65
621.124	330.52
621.323	366.55
621.522	329.94
621.721	327.42
621.92	311.14
622.119	365.39
622.318	326.84
622.517	337.3
622.715	327.22
622.914	300.87
623.113	332.26
623.312	292.74
623.511	356.48
623.71	321.02
623.909	320.83
624.107	362.29
624.306	295.84
624.505	275.3
624.704	302.42
624.902	330.71
625.101	391.16
625.3	362.1
625.499	307.65
625.697	317.34
625.896	289.64
626.095	359.97
626.293	315.79
626.492	304.75
626.69	353.19
626.889	320.25
