Data from oakcork_FLMT105791__252__17-33-23-054.txt Node

Date: Mon Mar 20 17:33:23 GMT 2023
User: antho
Spectrometer: FLMT10579
Trigger mode: 0
Integration Time (sec): 1.000000E-1
Scans to average: 10
Electric dark correction enabled: true
Nonlinearity correction enabled: false
Boxcar width: 0
XAxis mode: Wavelengths
Number of Pixels in Spectrum: 3648
>>>>>Begin Spectral Data<<<<<
345.248	-162.13
345.464	-162.13
345.681	-162.13
345.898	-157.68
346.114	-143.92
346.331	-29.42
346.548	23.09
346.764	8.56
346.981	-14.5
347.197	-8.11
347.414	10.11
347.631	-17.21
347.847	50.41
348.064	2.94
348.28	7.01
348.497	-39.49
348.713	6.62
348.93	15.14
349.146	17.47
349.363	20.57
349.579	-2.49
349.796	32.19
350.012	-5.97
350.229	36.84
350.445	8.75
350.661	-32.32
350.878	11.66
351.094	23.67
351.311	2.74
351.527	16.69
351.743	13.59
351.96	23.67
352.176	13.01
352.392	21.15
352.609	69.98
352.825	1.97
353.041	25.61
353.257	-23.02
353.474	18.63
353.69	15.34
353.906	7.98
354.122	-7.91
354.339	54.67
354.555	7.2
354.771	-17.79
354.987	66.29
355.203	60.48
355.42	5.26
355.636	16.89
355.852	25.99
356.068	20.57
356.284	-33.87
356.5	57.19
356.716	14.95
356.932	25.22
357.148	56.22
357.364	15.14
357.58	38.39
357.796	59.71
358.012	71.53
358.228	21.15
358.444	-19.34
358.66	40.53
358.876	46.53
359.092	-14.31
359.308	10.3
359.524	30.26
359.74	5.26
359.956	-6.17
360.172	24.44
360.388	49.63
360.604	9.53
360.819	81.02
361.035	25.41
361.251	27.54
361.467	-1.52
361.683	56.99
361.898	51.96
362.114	49.24
362.33	18.83
362.546	46.34
362.762	15.53
362.977	49.63
363.193	-11.4
363.409	41.69
363.624	-6.94
363.84	-9.07
364.056	2.55
364.271	36.65
364.487	39.17
364.703	8.56
364.918	-10.24
365.134	17.08
365.35	12.43
365.565	129.65
365.781	38.39
365.996	46.92
366.212	83.54
366.427	81.02
366.643	-19.15
366.858	15.73
367.074	-6.56
367.289	82.57
367.505	118.8
367.72	-34.45
367.936	13.79
368.151	70.56
368.367	64.94
368.582	49.05
368.798	-3.26
369.013	50.41
369.228	4.68
369.444	42.66
369.659	88.19
369.874	57.19
370.09	60.68
370.305	-8.69
370.52	9.53
370.736	81.99
370.951	32
371.166	74.24
371.381	93.42
371.597	58.74
371.812	-19.54
372.027	-3.46
372.242	16.11
372.458	94.77
372.673	-2.68
372.888	19.02
373.103	42.27
373.318	81.21
373.533	23.28
373.749	37.62
373.964	-31.74
374.179	60.09
374.394	7.78
374.609	67.07
374.824	-4.23
375.039	75.4
375.254	32.78
375.469	75.79
375.684	31.61
375.899	56.03
376.114	24.83
376.329	30.84
376.544	56.8
376.759	82.37
376.974	-1.71
377.189	34.71
377.404	5.65
377.619	62.81
377.834	-0.74
378.049	-8.88
378.264	-2.1
378.478	52.15
378.693	-1.91
378.908	56.41
379.123	44.79
379.338	75.79
379.553	41.69
379.767	31.42
379.982	53.51
380.197	54.28
380.412	26.19
380.626	51.76
380.841	109.69
381.056	38.2
381.271	83.92
381.485	-3.07
381.7	33.55
381.915	49.05
382.129	28.51
382.344	34.91
382.559	26.38
382.773	54.67
382.988	-14.69
383.202	51.18
383.417	-4.42
383.632	95.55
383.846	49.44
384.061	50.41
384.275	23.48
384.49	87.99
384.704	46.53
384.919	28.71
385.133	57.77
385.348	44.21
385.562	12.24
385.777	91.67
385.991	21.54
386.206	43.63
386.42	42.85
386.634	66.49
386.849	57.77
387.063	34.91
387.277	11.27
387.492	28.71
387.706	0.61
387.92	5.26
388.135	53.51
388.349	64.36
388.563	29.09
388.778	53.89
388.992	57.58
389.206	68.62
389.42	130.04
389.635	58.93
389.849	82.37
390.063	84.31
390.277	43.82
390.491	104.66
390.706	84.12
390.92	60.29
391.134	44.01
391.348	74.24
391.562	13.98
391.776	26.77
391.99	19.41
392.205	94.39
392.419	39.56
392.633	24.44
392.847	97.1
393.061	3.13
393.275	83.73
393.489	14.18
393.703	58.16
393.917	68.81
394.131	17.86
394.345	75.59
394.559	96.52
394.773	59.13
394.986	60.29
395.2	45.76
395.414	84.12
395.628	34.13
395.842	107.76
396.056	42.27
396.27	0.03
396.484	58.16
396.697	52.73
396.911	95.74
397.125	67.26
397.339	102.14
397.553	80.82
397.766	114.92
397.98	104.46
398.194	97.1
398.408	49.05
398.621	91.87
398.835	81.02
399.049	87.41
399.262	77.92
399.476	90.32
399.69	98.46
399.903	124.22
400.117	74.43
400.331	81.41
400.544	68.81
400.758	153.29
400.971	91.29
401.185	107.56
401.398	48.66
401.612	124.22
401.826	87.22
402.039	98.84
402.253	67.07
402.466	109.5
402.68	76.56
402.893	100.97
403.106	88.57
403.32	77.92
403.533	113.18
403.747	88.96
403.96	81.6
404.174	114.54
404.387	33.36
404.6	72.49
404.814	123.45
405.027	90.51
405.24	77.34
405.454	74.82
405.667	106.59
405.88	49.05
406.094	100.59
406.307	114.54
406.52	101.17
406.733	27.54
406.947	34.52
407.16	139.92
407.373	110.86
407.586	62.42
407.799	53.7
408.012	116.67
408.226	103.88
408.439	130.81
408.652	39.17
408.865	127.52
409.078	136.04
409.291	122.09
409.504	44.79
409.717	110.08
409.93	101.56
410.143	111.63
410.357	56.22
410.57	54.48
410.783	73.27
410.996	116.67
411.209	86.06
411.421	135.66
411.634	113.18
411.847	81.6
412.06	88.57
412.273	94
412.486	96.13
412.699	174.6
412.912	99.42
413.125	108.72
413.338	112.99
413.55	112.21
413.763	95.74
413.976	117.25
414.189	59.71
414.402	110.27
414.615	133.91
414.827	87.99
415.04	136.24
415.253	106.59
415.466	97.49
415.678	174.21
415.891	133.33
416.104	126.16
416.316	100.59
416.529	78.31
416.742	128.29
416.954	135.27
417.167	91.09
417.38	84.7
417.592	122.67
417.805	69.01
418.017	58.35
418.23	129.65
418.442	84.89
418.655	88.96
418.868	133.72
419.08	110.08
419.293	151.35
419.505	139.34
419.718	135.46
419.93	147.28
420.142	88.38
420.355	155.22
420.567	164.14
420.78	131.2
420.992	123.06
421.205	168.01
421.417	68.23
421.629	94.19
421.842	110.27
422.054	72.88
422.266	118.99
422.479	141.66
422.691	93.61
422.903	126.94
423.115	95.16
423.328	106.01
423.54	110.86
423.752	124.22
423.964	88.96
424.177	121.71
424.389	127.52
424.601	203.85
424.813	123.64
425.025	169.17
425.238	139.53
425.45	118.99
425.662	119.96
425.874	363.31
426.086	141.08
426.298	143.79
426.51	119.57
426.722	118.02
426.934	97.1
427.146	135.07
427.358	104.27
427.57	149.99
427.782	114.54
427.994	98.65
428.206	101.94
428.418	77.34
428.63	123.06
428.842	162.59
429.054	130.23
429.266	151.93
429.478	90.12
429.69	138.37
429.902	76.17
430.114	144.76
430.325	142.82
430.537	112.79
430.749	91.29
430.961	100.01
431.173	90.12
431.384	153.09
431.596	56.99
431.808	97.49
432.02	112.02
432.231	158.91
432.443	182.35
432.655	156.58
432.867	108.34
433.078	128.49
433.29	184.67
433.502	158.91
433.713	184.87
433.925	141.86
434.136	164.52
434.348	82.37
434.56	72.49
434.771	229.62
434.983	118.61
435.194	141.86
435.406	131.59
435.617	188.74
435.829	203.47
436.04	167.04
436.252	163.36
436.463	191.26
436.675	190.87
436.886	154.06
437.098	183.12
437.309	216.84
437.521	161.62
437.732	170.72
437.943	135.66
438.155	158.52
438.366	142.24
438.578	203.85
438.789	167.04
439	171.3
439.211	149.41
439.423	199.01
439.634	183.32
439.845	210.64
440.057	157.94
440.268	212.19
440.479	143.99
440.69	195.72
440.902	147.67
441.113	181.38
441.324	159.29
441.535	171.5
441.746	217.61
441.957	150.96
442.168	140.31
442.38	205.99
442.591	195.72
442.802	138.56
443.013	148.83
443.224	202.5
443.435	164.14
443.646	152.12
443.857	175.18
444.068	151.93
444.279	143.6
444.49	224.59
444.701	195.52
444.912	275.54
445.123	214.51
445.334	228.27
445.545	197.65
445.756	179.44
445.967	150.19
446.178	196.88
446.388	213.93
446.599	221.29
446.81	198.04
447.021	174.6
447.232	244.54
447.443	227.1
447.653	160.45
447.864	220.52
448.075	201.34
448.286	230.2
448.496	208.89
448.707	235.24
448.918	169.56
449.129	265.47
449.339	186.03
449.55	227.49
449.761	190.49
449.971	231.75
450.182	195.52
450.393	237.57
450.603	180.99
450.814	239.31
451.024	207.15
451.235	233.69
451.446	267.98
451.656	252.29
451.867	205.99
452.077	225.75
452.288	280.58
452.498	286.2
452.709	214.7
452.919	254.03
453.13	190.87
453.34	252.68
453.55	184.87
453.761	269.53
453.971	258.3
454.182	261.98
454.392	247.25
454.602	299.76
454.813	226.72
455.023	243.77
455.233	193.59
455.444	219.94
455.654	163.17
455.864	223.81
456.075	233.89
456.285	207.73
456.495	218.19
456.705	241.25
456.916	297.43
457.126	300.92
457.336	254.23
457.546	179.83
457.756	213.35
457.967	247.83
458.177	219.35
458.387	238.92
458.597	206.18
458.807	226.52
459.017	213.54
459.227	239.31
459.437	211.8
459.647	257.13
459.857	305.96
460.068	234.08
460.278	284.26
460.488	242.8
460.698	275.35
460.908	230.01
461.117	203.85
461.327	207.15
461.537	272.44
461.747	238.73
461.957	229.82
462.167	351.1
462.377	286.58
462.587	275.15
462.797	307.9
463.007	242.8
463.216	294.53
463.426	280.58
463.636	307.32
463.846	210.05
464.056	227.69
464.265	302.28
464.475	227.69
464.685	264.69
464.895	302.47
465.104	252.87
465.314	291.82
465.524	256.75
465.733	250.35
465.943	308.67
466.153	329.79
466.362	298.21
466.572	258.49
466.782	269.15
466.991	268.57
467.201	319.91
467.41	245.7
467.62	279.22
467.829	244.74
468.039	292.98
468.249	277.87
468.458	267.98
468.668	301.5
468.877	310.22
469.086	324.75
469.296	321.27
469.505	271.28
469.715	355.17
469.924	294.72
470.134	348.58
470.343	347.61
470.552	267.79
470.762	286
470.971	241.83
471.18	288.72
471.39	292.98
471.599	251.13
471.808	328.63
472.018	283.29
472.227	317
472.436	354.01
472.645	286.58
472.855	294.14
473.064	359.82
473.273	297.05
473.482	324.75
473.691	327.08
473.901	329.6
474.11	291.82
474.319	429.38
474.528	335.99
474.737	403.41
474.946	346.06
475.155	328.63
475.364	383.26
475.573	340.83
475.783	348.97
475.992	390.43
476.201	397.41
476.41	350.52
476.619	337.73
476.828	348.58
477.037	341.41
477.245	348.39
477.454	392.37
477.663	356.72
477.872	357.88
478.081	423.37
478.29	334.44
478.499	438.48
478.708	389.27
478.917	413.68
479.125	374.35
479.334	410.58
479.543	378.81
479.752	394.7
479.961	404.77
480.169	419.3
480.378	376.29
480.587	507.65
480.796	428.41
481.004	404.77
481.213	423.37
481.422	429.57
481.63	393.34
481.839	436.74
482.048	473.36
482.256	420.46
482.465	441.39
482.674	445.46
482.882	451.85
483.091	494.28
483.299	455.92
483.508	461.54
483.716	398.38
483.925	457.86
484.134	427.24
484.342	423.18
484.551	451.27
484.759	462.7
484.967	461.15
485.176	500.29
485.384	495.25
485.593	499.9
485.801	460.38
486.01	457.86
486.218	448.36
486.426	387.91
486.635	414.85
486.843	428.41
487.051	421.82
487.26	428.41
487.468	448.17
487.676	480.91
487.885	422.21
488.093	480.33
488.301	497.19
488.509	476.07
488.717	507.65
488.926	475.68
489.134	446.23
489.342	539.04
489.55	469.09
489.758	491.76
489.967	465.22
490.175	569.07
490.383	493.51
490.591	551.44
490.799	473.36
491.007	570.23
491.215	522.18
491.423	525.09
491.631	515.79
491.839	515.98
492.047	558.61
492.255	467.74
492.463	448.94
492.671	555.12
492.879	552.79
493.087	515.59
493.295	568.1
493.503	530.9
493.711	552.02
493.919	570.23
494.127	573.72
494.334	586.31
494.542	525.86
494.75	529.16
494.958	542.91
495.166	569.26
495.374	564.81
495.581	554.73
495.789	548.34
495.997	587.86
496.205	572.36
496.412	548.14
496.62	557.64
496.828	572.94
497.035	552.02
497.243	620.99
497.451	570.42
497.658	585.34
497.866	565.77
498.074	645.99
498.281	559.38
498.489	638.62
498.696	592.9
498.904	551.82
499.112	560.74
499.319	617.12
499.527	578.76
499.734	618.67
499.942	554.73
500.149	584.76
500.357	603.55
500.564	540.97
500.771	595.61
500.979	580.11
501.186	574.49
501.394	587.09
501.601	581.86
501.808	595.22
502.016	578.56
502.223	575.27
502.43	579.34
502.638	577.59
502.845	546.21
503.052	658.58
503.26	596.19
503.467	636.3
503.674	577.98
503.881	602.59
504.089	703.72
504.296	619.64
504.503	569.84
504.71	586.7
504.917	571.01
505.125	638.62
505.332	593.87
505.539	627.39
505.746	685.12
505.953	633
506.16	641.72
506.367	685.9
506.574	678.34
506.781	673.69
506.988	621.77
507.195	662.26
507.402	636.88
507.609	668.85
507.816	629.13
508.023	644.05
508.23	634.55
508.437	609.17
508.644	678.34
508.851	699.85
509.058	681.64
509.265	666.72
509.472	669.24
509.679	759.13
509.885	658.77
510.092	658.39
510.299	660.52
510.506	667.49
510.713	689.58
510.92	667.49
511.126	672.14
511.333	718.83
511.54	692.87
511.746	732.4
511.953	759.33
512.16	716.51
512.367	677.76
512.573	674.66
512.78	725.03
512.987	690.55
513.193	698.3
513.4	644.05
513.606	709.34
513.813	699.65
514.02	707.79
514.226	755.45
514.433	757.58
514.639	641.53
514.846	699.85
515.052	682.02
515.259	704.11
515.465	714.38
515.672	688.42
515.878	783.93
516.085	738.6
516.291	729.68
516.497	715.73
516.704	700.82
516.91	689.58
517.117	669.24
517.323	636.1
517.529	643.08
517.736	683.77
517.942	682.22
518.148	663.04
518.354	683.19
518.561	709.53
518.767	707.02
518.973	732.01
519.179	752.74
519.386	695.58
519.592	680.67
519.798	702.95
520.004	781.22
520.21	707.21
520.417	772.89
520.623	794.01
520.829	825.4
521.035	800.4
521.241	799.43
521.447	830.82
521.653	907.74
521.859	794.98
522.065	811.25
522.271	890.11
522.477	874.8
522.683	887.39
522.889	842.06
523.095	858.33
523.301	838.57
523.507	824.43
523.713	855.23
523.919	837.41
524.125	885.07
524.331	869.57
524.537	954.24
524.742	907.93
524.948	898.63
525.154	891.46
525.36	970.51
525.566	899.99
525.772	946.87
525.977	848.84
526.183	878.29
526.389	960.63
526.595	871.51
526.8	882.36
527.006	824.43
527.212	829.66
527.417	808.15
527.623	814.16
527.829	909.29
528.034	912.97
528.24	895.34
528.446	871.31
528.651	948.62
528.857	946.87
529.062	991.24
529.268	915.88
529.473	967.41
529.679	931.76
529.884	1023.79
530.09	989.69
530.295	1027.09
530.501	999.96
530.706	967.02
530.912	943.58
531.117	1005.97
531.323	1012.94
531.528	1026.12
531.733	1036
531.939	982.33
532.144	1032.71
532.35	1006.36
532.555	1059.44
532.76	1041.62
532.966	1029.41
533.171	999.19
533.376	998.02
533.581	980.78
533.787	991.24
533.992	1051.11
534.197	1073.39
534.402	996.67
534.607	1031.54
534.813	1109.24
535.018	1029.99
535.223	1019.92
535.428	1075.33
535.633	1116.4
535.838	1085.02
536.043	1096.45
536.249	1148.95
536.454	1067.39
536.659	1101.1
536.864	1050.92
537.069	1079.4
537.274	1123.96
537.479	1097.8
537.684	1109.43
537.889	1048.98
538.094	1188.87
538.299	1089.28
538.504	1111.95
538.708	1129
538.913	1123.18
539.118	1103.23
539.323	1129.97
539.528	1106.52
539.733	1103.81
539.938	1105.17
540.142	1108.46
540.347	1126.67
540.552	1074.94
540.757	1098.77
540.962	1073.78
541.166	1022.44
541.371	1054.99
541.576	1116.21
541.781	991.82
541.985	1128.22
542.19	1118.73
542.395	1172.98
542.599	1170.85
542.804	1136.75
543.008	1167.94
543.213	1105.55
543.418	1092.38
543.622	1137.72
543.827	1081.14
544.031	1197.58
544.236	1139.65
544.44	1155.73
544.645	1218.51
544.849	1134.42
545.054	1172.01
545.258	1242.92
545.463	1212.89
545.667	1141.2
545.872	1187.9
546.076	1173.75
546.281	1189.06
546.485	1120.86
546.689	1185.38
546.894	1231.88
547.098	1198.75
547.302	1127.64
547.507	1212.7
547.711	1168.33
547.915	1189.64
548.119	1176.27
548.324	1157.28
548.528	1223.74
548.732	1223.93
548.936	1187.32
549.141	1219.28
549.345	1187.7
549.549	1194.1
549.753	1224.71
549.957	1306.66
550.161	1258.23
550.366	1224.71
550.57	1197.97
550.774	1215.6
550.978	1191.38
551.182	1208.43
551.386	1183.44
551.59	1196.81
551.794	1178.21
551.998	1207.47
552.202	1185.77
552.406	1193.32
552.61	1211.53
552.814	1206.69
553.018	1268.5
553.222	1208.82
553.426	1214.83
553.63	1279.93
553.833	1199.72
554.037	1174.92
554.241	1249.51
554.445	1201.46
554.649	1190.03
554.853	1202.62
555.056	1244.66
555.26	1265.4
555.464	1240.21
555.668	1200.68
555.871	1225.1
556.075	1254.16
556.279	1231.3
556.483	1163.87
556.686	1184.6
556.89	1206.88
557.094	1216.38
557.297	1131.32
557.501	1259.2
557.704	1130.93
557.908	1201.85
558.112	1143.14
558.315	1245.83
558.519	1181.7
558.722	1187.32
558.926	1145.47
559.129	1156.51
559.333	1112.34
559.536	1132.68
559.74	1096.64
559.943	1106.52
560.147	1078.04
560.35	1133.26
560.553	1119.7
560.757	1073.59
560.96	1233.62
561.164	1122.99
561.367	1183.25
561.57	1139.65
561.774	1152.05
561.977	1114.66
562.18	1107.49
562.384	1201.46
562.587	1138.88
562.79	1127.64
562.993	1113.11
563.197	1153.8
563.4	1185.57
563.603	1182.86
563.806	1202.04
564.009	1096.84
564.212	1153.99
564.416	1050.34
564.619	1108.46
564.822	1107.1
565.025	1146.43
565.228	1106.72
565.431	1113.11
565.634	1050.92
565.837	1071.26
566.04	1028.06
566.243	1052.66
566.446	1004.22
566.649	1073.97
566.852	1015.27
567.055	1039.29
567.258	1091.8
567.461	1122.8
567.664	1129.19
567.867	1015.66
568.07	1052.66
568.273	1057.5
568.475	1082.5
568.678	1028.06
568.881	1027.28
569.084	1027.47
569.287	966.25
569.489	991.44
569.692	1036.19
569.895	1038.9
570.098	986.21
570.3	945.52
570.503	927.31
570.706	935.44
570.909	944.94
571.111	927.69
571.314	909.48
571.516	929.63
571.719	978.26
571.922	927.31
572.124	936.03
572.327	977.68
572.529	894.56
572.732	926.34
572.935	968.38
573.137	1005.19
573.34	918.98
573.542	955.79
573.745	975.36
573.947	936.99
574.15	947.46
574.352	902.51
574.554	976.91
574.757	880.61
574.959	904.64
575.162	868.99
575.364	886.23
575.566	1014.3
575.769	878.29
575.971	924.21
576.173	833.15
576.376	918.59
576.578	912.19
576.78	949.78
576.982	826.17
577.185	892.24
577.387	860.08
577.589	857.17
577.791	912
577.993	927.69
578.196	882.55
578.398	897.47
578.6	919.17
578.802	827.53
579.004	843.03
579.206	872.28
579.408	841.28
579.61	853.3
579.812	928.86
580.014	844.96
580.216	831.01
580.418	850.78
580.62	833.53
580.822	780.64
581.024	834.5
581.226	912.39
581.428	855.23
581.63	932.34
581.832	852.52
582.034	900.76
582.236	848.45
582.438	896.69
582.64	908.71
582.841	908.71
583.043	960.82
583.245	900.76
583.447	877.32
583.649	877.51
583.85	869.96
584.052	923.04
584.254	867.83
584.456	913.74
584.657	819.58
584.859	864.53
585.061	860.66
585.262	852.71
585.464	805.05
585.666	902.12
585.867	852.13
586.069	888.17
586.27	883.13
586.472	878.87
586.674	798.66
586.875	843.03
587.077	878.87
587.278	876.93
587.48	833.53
587.681	964.51
587.883	865.5
588.084	811.64
588.285	830.05
588.487	829.08
588.688	824.43
588.89	784.51
589.091	779.86
589.292	804.08
589.494	756.62
589.695	738.98
589.896	697.91
590.098	674.85
590.299	740.15
590.5	737.82
590.702	724.07
590.903	769.4
591.104	819
591.305	769.6
591.507	842.25
591.708	791.1
591.909	801.76
592.11	862.79
592.311	808.73
592.512	778.12
592.714	755.84
592.915	765.92
593.116	757.39
593.317	778.9
593.518	786.45
593.719	759.52
593.92	792.26
594.121	838.57
594.322	801.56
594.523	778.31
594.724	754.68
594.925	767.85
595.126	808.93
595.327	801.37
595.528	813.38
595.729	786.65
595.929	784.9
596.13	772.5
596.331	796.91
596.532	819.78
596.733	827.33
596.934	820.55
597.135	826.36
597.335	821.91
597.536	745.96
597.737	772.7
597.938	757.78
598.138	792.46
598.339	780.83
598.54	805.25
598.74	783.55
598.941	798.85
599.142	833.15
599.342	803.11
599.543	793.81
599.744	784.32
599.944	786.65
600.145	791.68
600.345	812.22
600.546	832.37
600.746	844
600.947	838.76
601.147	807.96
601.348	848.84
601.548	779.09
601.749	809.7
601.949	761.85
602.15	728.52
602.35	780.45
602.551	810.09
602.751	769.4
602.951	761.85
603.152	723.68
603.352	783.16
603.552	770.95
603.753	810.67
603.953	803.11
604.153	796.91
604.354	782
604.554	794.4
604.754	767.47
604.954	770.57
605.155	799.63
605.355	789.75
605.555	816.29
605.755	846.71
605.955	775.6
606.155	797.5
606.356	783.93
606.556	833.15
606.756	815.32
606.956	751.77
607.156	842.45
607.356	751.97
607.556	787.61
607.756	778.51
607.956	798.27
608.156	778.9
608.356	773.86
608.556	796.14
608.756	777.93
608.956	758.36
609.156	792.26
609.356	731.62
609.556	751.38
609.755	790.52
609.955	736.47
610.155	784.32
610.355	779.67
610.555	722.71
610.755	762.04
610.954	699.46
611.154	781.41
611.354	812.41
611.554	741.12
611.753	723.1
611.953	732.78
612.153	762.43
612.352	799.05
612.552	699.07
612.752	688.42
612.951	745.18
613.151	778.12
613.351	729.49
613.55	712.05
613.75	732.78
613.949	742.67
614.149	745.96
614.348	712.63
614.548	724.84
614.747	681.83
614.947	718.45
615.146	664.97
615.346	715.54
615.545	694.03
615.745	730.27
615.944	733.95
616.144	702.95
616.343	737.05
616.542	695.78
616.742	729.49
616.941	684.15
617.14	677.57
617.34	679.12
617.539	717.87
617.738	693.84
617.938	754.1
618.137	713.22
618.336	666.72
618.535	701.4
618.734	695.78
618.934	733.75
619.133	703.72
619.332	720.58
619.531	691.32
619.73	712.44
619.929	746.15
620.128	719.61
620.328	754.1
620.527	676.02
620.726	680.47
620.925	666.14
621.124	692.87
621.323	685.51
621.522	656.25
621.721	666.33
621.92	673.3
622.119	695
622.318	658
622.517	681.44
622.715	689.58
