Data from oakcork_FLMT105791__242__17-33-13-045.txt Node

Date: Mon Mar 20 17:33:13 GMT 2023
User: antho
Spectrometer: FLMT10579
Trigger mode: 0
Integration Time (sec): 1.000000E-1
Scans to average: 10
Electric dark correction enabled: true
Nonlinearity correction enabled: false
Boxcar width: 0
XAxis mode: Wavelengths
Number of Pixels in Spectrum: 3648
>>>>>Begin Spectral Data<<<<<
345.248	-123.45
345.464	-123.45
345.681	-123.45
345.898	-184.87
346.114	-165.49
346.331	-35.1
346.548	7.33
346.764	-16.69
346.981	15.85
347.197	-20.18
347.414	34.65
347.631	-20.57
347.847	53.64
348.064	6.94
348.28	19.73
348.497	-34.13
348.713	-11.46
348.93	-1.58
349.146	25.93
349.363	-5.26
349.579	15.66
349.796	9.46
350.012	-15.92
350.229	22.64
350.445	4.81
350.661	18.95
350.878	6.94
351.094	6.36
351.311	18.76
351.527	14.5
351.743	-8.17
351.96	29.22
352.176	37.94
352.392	59.84
352.609	29.42
352.825	18.18
353.041	39.69
353.257	-5.84
353.474	13.92
353.69	20.31
353.906	22.64
354.122	-33.55
354.339	53.05
354.555	-0.81
354.771	-0.81
354.987	54.41
355.203	35.04
355.42	-4.88
355.636	-9.33
355.852	-15.34
356.068	4.23
356.284	-23.67
356.5	64.68
356.716	8.3
356.932	10.82
357.148	50.73
357.364	14.69
357.58	43.17
357.796	47.44
358.012	38.14
358.228	41.24
358.444	-36.26
358.66	42.2
358.876	23.22
359.092	14.69
359.308	21.28
359.524	11.21
359.74	-8.17
359.956	5.01
360.172	-6.62
360.388	38.33
360.604	14.89
360.819	72.82
361.035	23.8
361.251	39.1
361.467	1.52
361.683	62.94
361.898	37.75
362.114	56.15
362.33	28.64
362.546	40.27
362.762	5.78
362.977	27.67
363.193	-20.38
363.409	68.94
363.624	-28.71
363.84	10.04
364.056	-6.04
364.271	34.26
364.487	29.61
364.703	2.1
364.918	-26.19
365.134	12.56
365.35	33.29
365.565	102.46
365.781	28.25
365.996	41.82
366.212	63.71
366.427	57.51
366.643	-3.52
366.858	16.05
367.074	0.74
367.289	75.14
367.505	86.19
367.72	-19.02
367.936	9.66
368.151	39.69
368.367	33.29
368.582	21.67
368.798	5.78
369.013	65.07
369.228	36.39
369.444	-2.55
369.659	95.49
369.874	56.35
370.09	83.28
370.305	-16.5
370.52	8.88
370.736	74.56
370.951	28.45
371.166	57.7
371.381	79.6
371.597	57.51
371.812	-8.17
372.027	1.71
372.242	11.01
372.458	109.05
372.673	20.31
372.888	54.8
373.103	27.67
373.318	110.98
373.533	56.15
373.749	40.46
373.964	-8.36
374.179	61.58
374.394	6.94
374.609	94.9
374.824	-3.13
375.039	73.4
375.254	23.99
375.469	96.07
375.684	41.24
375.899	66.42
376.114	26.9
376.329	27.67
376.544	51.7
376.759	66.42
376.974	16.82
377.189	41.04
377.404	1.32
377.619	79.6
377.834	-7.2
378.049	-11.08
378.264	5.01
378.478	62.16
378.693	18.37
378.908	61.77
379.123	31.35
379.338	77.47
379.553	23.8
379.767	49.95
379.982	61.77
380.197	42.4
380.412	30.39
380.626	65.07
380.841	116.6
381.056	42.01
381.271	100.91
381.485	25.74
381.7	23.02
381.915	53.44
382.129	35.81
382.344	62.55
382.559	28.64
382.773	48.99
382.988	-26.77
383.202	25.35
383.417	4.04
383.632	107.69
383.846	29.03
384.061	48.79
384.275	49.76
384.49	48.6
384.704	70.88
384.919	47.05
385.133	39.49
385.348	62.74
385.562	-0.42
385.777	68.36
385.991	38.33
386.206	30.58
386.42	28.06
386.634	53.83
386.849	61.77
387.063	62.16
387.277	14.89
387.492	23.41
387.706	6.17
387.92	17.4
388.135	62.55
388.349	48.6
388.563	29.8
388.778	63.13
388.992	73.59
389.206	84.05
389.42	105.95
389.635	30
389.849	59.64
390.063	89.29
390.277	65.07
390.491	85.22
390.706	60.61
390.92	105.17
391.134	62.94
391.348	94.71
391.562	24.77
391.776	37.75
391.99	42.59
392.205	93.16
392.419	34.84
392.633	37.94
392.847	99.75
393.061	35.62
393.275	81.15
393.489	67.39
393.703	30.19
393.917	93.94
394.131	37.55
394.345	64.68
394.559	78.05
394.773	29.22
394.986	101.1
395.2	85.02
395.414	97.81
395.628	61.19
395.842	83.28
396.056	36.2
396.27	24.38
396.484	102.46
396.697	64.29
396.911	82.12
397.125	68.55
397.339	88.9
397.553	55.19
397.766	119.12
397.98	108.85
398.194	120.48
398.408	71.85
398.621	59.84
398.835	103.23
399.049	99.75
399.262	130.75
399.476	105.37
399.69	105.17
399.903	178.41
400.117	73.79
400.331	119.51
400.544	75.53
400.758	217.55
400.971	151.28
401.185	116.99
401.398	68.17
401.612	145.86
401.826	137.14
402.039	127.84
402.253	93.74
402.466	157.29
402.68	92.19
402.893	120.87
403.106	127.65
403.32	104.98
403.533	116.99
403.747	123.38
403.96	127.65
404.174	165.04
404.387	76.89
404.6	138.5
404.814	144.5
405.027	117.96
405.24	98
405.454	107.5
405.667	163.68
405.88	53.25
406.094	122.8
406.307	141.6
406.52	142.37
406.733	102.46
406.947	104.59
407.16	183.06
407.373	161.36
407.586	110.98
407.799	82.12
408.012	152.06
408.226	135.01
408.439	203.98
408.652	75.92
408.865	133.07
409.078	177.25
409.291	132.3
409.504	90.06
409.717	162.52
409.93	146.05
410.143	129.78
410.357	81.54
410.57	80.95
410.783	131.72
410.996	142.76
411.209	147.02
411.421	148.77
411.634	163.88
411.847	116.02
412.06	164.85
412.273	144.5
412.486	153.8
412.699	217.93
412.912	110.98
413.125	158.84
413.338	157.68
413.55	166.4
413.763	126.1
413.976	163.88
414.189	107.11
414.402	148.18
414.615	197.59
414.827	124.74
415.04	197.78
415.253	171.05
415.466	203.21
415.678	200.11
415.891	144.12
416.104	127.26
416.316	142.18
416.529	161.36
416.742	173.18
416.954	201.27
417.167	160.78
417.38	164.85
417.592	201.85
417.805	129.2
418.017	92.97
418.23	183.45
418.442	123.58
418.655	160.97
418.868	161.36
419.08	168.72
419.293	202.82
419.505	144.5
419.718	160.97
419.93	189.84
420.142	156.52
420.355	193.13
420.567	201.85
420.78	175.31
420.992	181.32
421.205	221.23
421.417	132.88
421.629	161.94
421.842	120.48
422.054	152.64
422.266	201.46
422.479	188.29
422.691	151.09
422.903	195.26
423.115	157.29
423.328	164.27
423.54	158.26
423.752	171.24
423.964	145.08
424.177	198.36
424.389	188.1
424.601	257.65
424.813	190.42
425.025	214.83
425.238	222.58
425.45	165.04
425.662	153.42
425.874	455.85
426.086	180.54
426.298	209.8
426.51	181.12
426.722	194.68
426.934	174.53
427.146	217.16
427.358	129.2
427.57	227.23
427.782	175.7
427.994	184.22
428.206	172.02
428.418	159.03
428.63	212.31
428.842	220.84
429.054	193.71
429.266	234.01
429.478	157.68
429.69	175.31
429.902	140.63
430.114	193.71
430.325	169.69
430.537	164.46
430.749	150.51
430.961	110.79
431.173	163.68
431.384	209.99
431.596	97.04
431.808	178.8
432.02	206.7
432.231	225.68
432.443	234.21
432.655	196.62
432.867	180.54
433.078	219.87
433.29	264.63
433.502	223.36
433.713	250.29
433.925	210.18
434.136	242.73
434.348	187.13
434.56	175.7
434.771	297.76
434.983	152.64
435.194	203.4
435.406	215.41
435.617	280.71
435.829	286.52
436.04	248.35
436.252	262.3
436.463	283.42
436.675	276.64
436.886	261.72
437.098	257.07
437.309	297.76
437.521	245.25
437.732	264.43
437.943	251.45
438.155	260.75
438.366	192.55
438.578	298.73
438.789	247.38
439	252.42
439.211	252.03
439.423	252.42
439.634	265.21
439.845	286.71
440.057	263.08
440.268	287.1
440.479	236.73
440.69	280.71
440.902	244.09
441.113	256.68
441.324	263.27
441.535	306.09
441.746	327.98
441.957	262.69
442.168	277.8
442.38	308.22
442.591	332.83
442.802	274.9
443.013	268.89
443.224	320.23
443.435	261.14
443.646	264.24
443.857	294.08
444.068	253.58
444.279	283.03
444.49	358.4
444.701	288.26
444.912	370.8
445.123	338.06
445.334	304.15
445.545	312.09
445.756	306.48
445.967	272.18
446.178	322.17
446.388	324.49
446.599	320.81
446.81	329.92
447.021	297.76
447.232	360.53
447.443	369.64
447.653	304.93
447.864	368.09
448.075	321.98
448.286	335.34
448.496	352.59
448.707	340.19
448.918	314.23
449.129	403.16
449.339	296.79
449.55	361.11
449.761	328.56
449.971	380.68
450.182	297.18
450.393	352.2
450.603	313.45
450.814	377.58
451.024	359.95
451.235	372.74
451.446	389.59
451.656	424.47
451.867	344.06
452.077	360.73
452.288	407.22
452.498	392.5
452.709	347.36
452.919	376.61
453.13	317.52
453.34	345.42
453.55	280.51
453.761	382.81
453.971	366.73
454.182	398.89
454.392	373.9
454.602	428.15
454.813	390.37
455.023	429.12
455.233	341.35
455.444	340.58
455.654	305.51
455.864	362.08
456.075	346.97
456.285	343.68
456.495	354.72
456.705	382.04
456.916	430.86
457.126	424.47
457.336	385.91
457.546	348.52
457.756	345.61
457.967	438.81
458.177	360.14
458.387	372.74
458.597	359.76
458.807	347.16
459.017	369.44
459.227	386.3
459.437	362.86
459.647	394.44
459.857	387.27
460.068	353.75
460.278	446.17
460.488	405.29
460.698	430.86
460.908	399.09
461.117	361.69
461.327	359.18
461.537	401.22
461.747	411.68
461.957	393.86
462.167	490.92
462.377	444.04
462.587	388.24
462.797	448.11
463.007	444.62
463.216	436.09
463.426	459.15
463.636	451.79
463.846	370.8
464.056	423.5
464.265	449.46
464.475	421.17
464.685	440.94
464.895	447.52
465.104	410.71
465.314	469.03
465.524	402.96
465.733	403.74
465.943	501.58
466.153	492.86
466.362	482.98
466.572	473.49
466.782	437.06
466.991	431.64
467.201	470
467.41	387.07
467.62	426.6
467.829	442.1
468.039	448.69
468.249	436.29
468.458	442.87
468.668	500.42
468.877	492.28
469.086	507
469.296	504.29
469.505	427.18
469.715	539.94
469.924	497.9
470.134	480.65
470.343	513.2
470.552	450.82
470.762	472.13
470.971	454.11
471.18	473.87
471.39	484.92
471.599	444.81
471.808	514.37
472.018	465.93
472.227	537.23
472.436	544.98
472.645	503.9
472.855	508.94
473.064	564.74
473.273	527.74
473.482	547.11
473.691	555.25
473.901	525.99
474.11	508.55
474.319	627.9
474.528	553.7
474.737	618.99
474.946	589.15
475.155	587.8
475.364	581.79
475.573	572.3
475.783	556.41
475.992	599.62
476.201	602.33
476.41	544.4
476.619	554.28
476.828	567.26
477.037	571.33
477.245	585.28
477.454	637.98
477.663	586.44
477.872	614.92
478.081	650.18
478.29	572.68
478.499	696.3
478.708	651.35
478.917	662.58
479.125	626.16
479.334	622.87
479.543	616.28
479.752	640.69
479.961	624.42
480.169	706.76
480.378	644.95
480.587	772.44
480.796	677.31
481.004	688.35
481.213	692.23
481.422	712.18
481.63	686.61
481.839	741.44
482.048	752.09
482.256	703.08
482.465	745.12
482.674	728.46
482.882	740.86
483.091	760.81
483.299	755.78
483.508	753.45
483.716	751.9
483.925	765.66
484.134	707.15
484.342	704.82
484.551	777.09
484.759	777.67
484.967	753.84
485.176	782.9
485.384	779.03
485.593	798.01
485.801	756.16
486.01	739.5
486.218	699.01
486.426	655.41
486.635	668.2
486.843	687
487.051	702.5
487.26	734.85
487.468	755.19
487.676	747.44
487.885	726.13
488.093	741.24
488.301	773.21
488.509	805.96
488.717	819.91
488.926	793.94
489.134	784.26
489.342	817.77
489.55	779.22
489.758	829.01
489.967	808.28
490.175	907.29
490.383	854.2
490.591	901.86
490.799	855.17
491.007	902.25
491.215	863.5
491.423	850.32
491.631	857.49
491.839	896.82
492.047	913.87
492.255	807.7
492.463	805.57
492.671	849.16
492.879	886.94
493.087	868.15
493.295	885.59
493.503	907.48
493.711	916.59
493.919	953.98
494.127	921.24
494.334	952.43
494.542	866.79
494.75	919.49
494.958	926.27
495.166	971.03
495.374	933.83
495.581	963.09
495.789	946.42
495.997	980.33
496.205	910.97
496.412	931.31
496.62	938.67
496.828	954.37
497.035	955.92
497.243	1004.16
497.451	964.05
497.658	994.67
497.866	933.64
498.074	1026.63
498.281	948.75
498.489	1036.13
498.696	942.74
498.904	909.03
499.112	933.25
499.319	1034.58
499.527	976.84
499.734	1006.48
499.942	919.69
500.149	988.27
500.357	973.35
500.564	936.74
500.771	972.19
500.979	937.12
501.186	957.47
501.394	968.9
501.601	943.9
501.808	987.5
502.016	967.74
502.223	937.9
502.43	956.11
502.638	978.78
502.845	947.78
503.052	1030.32
503.26	975.29
503.467	1020.63
503.674	979.94
503.881	994.47
504.089	1061.51
504.296	1013.85
504.503	930.34
504.71	990.02
504.917	982.65
505.125	983.23
505.332	1000.48
505.539	1008.23
505.746	1077.98
505.953	1050.08
506.16	1068.68
506.367	1084.95
506.574	1107.23
506.781	1092.7
506.988	1021.98
507.195	1068.29
507.402	1069.84
507.609	1098.13
507.816	1048.72
508.023	1027.02
508.23	1022.76
508.437	989.63
508.644	1058.99
508.851	1088.83
509.058	1083.79
509.265	1097.35
509.472	1122.54
509.679	1164.39
509.885	1054.15
510.092	1086.31
510.299	1075.65
510.506	1071.2
510.713	1082.82
510.92	1108.01
511.126	1114.4
511.333	1121.96
511.54	1133.39
511.746	1170.2
511.953	1152.96
512.16	1174.85
512.367	1108.98
512.573	1091.93
512.78	1084.18
512.987	1097.35
513.193	1116.34
513.4	1055.89
513.606	1064.61
513.813	1120.02
514.02	1135.13
514.226	1181.24
514.433	1147.34
514.639	1073.71
514.846	1152.57
515.052	1098.32
515.259	1119.63
515.465	1131.06
515.672	1112.08
515.878	1244.79
516.085	1124.09
516.291	1215.73
516.497	1098.32
516.704	1130.1
516.91	1062.67
517.117	1028.38
517.323	991.76
517.529	1046.4
517.736	1041.75
517.942	1040.97
518.148	1030.7
518.354	1119.05
518.561	1088.44
518.767	1085.92
518.973	1114.4
519.179	1128.35
519.386	1105.3
519.592	1105.49
519.798	1100.84
520.004	1213.21
520.21	1183.76
520.417	1200.62
520.623	1249.06
520.829	1243.05
521.035	1231.62
521.241	1255.06
521.447	1266.88
521.653	1317.45
521.859	1240.53
522.065	1261.07
522.271	1344.96
522.477	1284.32
522.683	1335.66
522.889	1306.21
523.095	1305.82
523.301	1303.11
523.507	1285.09
523.713	1298.27
523.919	1250.22
524.125	1328.1
524.331	1337.02
524.537	1387.97
524.742	1357.17
524.948	1406.19
525.154	1350.77
525.36	1478.07
525.566	1403.28
525.772	1437.57
525.977	1323.65
526.183	1436.41
526.389	1429.43
526.595	1322.29
526.8	1359.49
527.006	1266.11
527.212	1241.11
527.417	1204.88
527.623	1256.22
527.829	1341.67
528.034	1329.85
528.24	1327.52
528.446	1323.26
528.651	1423.82
528.857	1411.03
529.062	1460.05
529.268	1443.97
529.473	1431.76
529.679	1459.85
529.884	1492.79
530.09	1473.22
530.295	1500.54
530.501	1474.77
530.706	1474.38
530.912	1434.67
531.117	1471.67
531.323	1481.75
531.528	1519.33
531.733	1514.3
531.939	1478.45
532.144	1518.56
532.35	1484.85
532.555	1525.53
532.76	1502.48
532.966	1498.41
533.171	1501.51
533.376	1449.2
533.581	1441.25
533.787	1462.18
533.992	1512.36
534.197	1534.06
534.402	1501.7
534.607	1494.73
534.813	1564.86
535.018	1489.5
535.223	1535.8
535.428	1530.76
535.633	1576.1
535.838	1555.18
536.043	1591.41
536.249	1669.49
536.454	1573.58
536.659	1600.51
536.864	1562.54
537.069	1512.36
537.274	1604.19
537.479	1576.1
537.684	1607.1
537.889	1536.38
538.094	1675.11
538.299	1606.91
538.504	1629.58
538.708	1610.39
538.913	1629.58
539.118	1583.66
539.323	1621.24
539.528	1577.85
539.733	1607.49
539.938	1655.15
540.142	1631.71
540.347	1579.2
540.552	1587.92
540.757	1580.75
540.962	1565.06
541.166	1534.83
541.371	1531.15
541.576	1621.44
541.781	1523.6
541.985	1608.26
542.19	1610.39
542.395	1669.1
542.599	1690.22
542.804	1651.86
543.008	1701.07
543.213	1629.96
543.418	1620.08
543.622	1687.89
543.827	1604.39
544.031	1715.02
544.236	1727.42
544.44	1692.93
544.645	1743.5
544.849	1666
545.054	1659.99
545.258	1756.48
545.463	1733.23
545.667	1652.44
545.872	1758.22
546.076	1678.59
546.281	1712.89
546.485	1702.81
546.689	1720.83
546.894	1687.51
547.098	1715.02
547.302	1660.19
547.507	1671.23
547.711	1713.86
547.915	1776.82
548.119	1654.38
548.324	1645.85
548.528	1734.2
548.732	1702.42
548.936	1725.87
549.141	1745.24
549.345	1709.21
549.549	1696.22
549.753	1717.73
549.957	1778.18
550.161	1778.18
550.366	1734.78
550.57	1691.96
550.774	1709.01
550.978	1725.67
551.182	1752.8
551.386	1681.69
551.59	1696.42
551.794	1706.49
551.998	1718.31
552.202	1681.11
552.406	1712.11
552.61	1740.59
552.814	1782.44
553.018	1769.46
553.222	1725.67
553.426	1714.24
553.63	1794.84
553.833	1699.91
554.037	1659.22
554.241	1765.97
554.445	1748.92
554.649	1734.78
554.853	1732.65
555.056	1773.14
555.26	1769.65
555.464	1727.03
555.668	1724.9
555.871	1749.89
556.075	1746.79
556.279	1692.93
556.483	1682.86
556.686	1724.32
556.89	1724.32
557.094	1757.64
557.297	1661.16
557.501	1729.55
557.704	1639.46
557.908	1712.89
558.112	1670.46
558.315	1735.56
558.519	1683.05
558.722	1667.36
558.926	1663.87
559.129	1607.1
559.333	1569.51
559.536	1621.63
559.74	1590.83
559.943	1569.32
560.147	1597.22
560.35	1586.56
560.553	1613.3
560.757	1554.98
560.96	1655.93
561.164	1600.51
561.367	1645.08
561.57	1652.83
561.774	1618.73
561.977	1615.04
562.18	1635
562.384	1704.17
562.587	1587.92
562.79	1600.51
562.993	1640.43
563.197	1637.71
563.4	1676.07
563.603	1659.8
563.806	1708.43
564.009	1573
564.212	1635.39
564.416	1585.98
564.619	1616.01
564.822	1554.4
565.025	1636.36
565.228	1594.31
565.431	1600.51
565.634	1502.86
565.837	1605.36
566.04	1536.58
566.243	1545.49
566.446	1449.97
566.649	1565.25
566.852	1474
567.055	1519.14
567.258	1553.63
567.461	1589.47
567.664	1581.33
567.867	1493.57
568.07	1518.36
568.273	1529.41
568.475	1552.08
568.678	1471.48
568.881	1473.42
569.084	1497.83
569.287	1385.45
569.489	1433.12
569.692	1498.22
569.895	1517.2
570.098	1424.4
570.3	1418.58
570.503	1366.47
570.706	1388.17
570.909	1400.95
571.111	1364.92
571.314	1400.76
571.516	1393.4
571.719	1373.83
571.922	1371.89
572.124	1363.17
572.327	1373.83
572.529	1335.66
572.732	1387
572.935	1386.23
573.137	1450.55
573.34	1406.96
573.542	1414.13
573.745	1383.52
573.947	1379.25
574.15	1398.63
574.352	1394.75
574.554	1411.22
574.757	1340.31
574.959	1352.52
575.162	1337.99
575.364	1310.47
575.566	1451.33
575.769	1317.06
575.971	1330.62
576.173	1214.96
576.376	1306.6
576.578	1360.27
576.78	1402.5
576.982	1237.24
577.185	1304.66
577.387	1274.24
577.589	1269.79
577.791	1307.37
577.993	1319.19
578.196	1305.24
578.398	1292.26
578.6	1332.75
578.802	1242.47
579.004	1251.57
579.206	1275.99
579.408	1319.19
579.61	1250.61
579.812	1331.59
580.014	1268.82
580.216	1268.04
580.418	1303.69
580.62	1240.14
580.822	1260.29
581.024	1300.4
581.226	1347.09
581.428	1312.61
581.63	1375.57
581.832	1283.54
582.034	1353.29
582.236	1288.97
582.438	1360.65
582.64	1332.95
582.841	1384.29
583.043	1386.23
583.245	1341.28
583.447	1347.87
583.649	1338.76
583.85	1337.02
584.052	1370.54
584.254	1306.99
584.456	1358.33
584.657	1335.08
584.859	1334.69
585.061	1329.65
585.262	1304.47
585.464	1286.84
585.666	1332.75
585.867	1290.13
586.069	1352.13
586.27	1284.71
586.472	1275.02
586.674	1269.01
586.875	1292.07
587.077	1310.86
587.278	1300.59
587.48	1285.09
587.681	1379.06
587.883	1274.24
588.084	1220.96
588.285	1260.29
588.487	1281.41
588.688	1239.37
588.89	1180.86
589.091	1167.1
589.292	1165.55
589.494	1144.82
589.695	1119.25
589.896	1047.37
590.098	1097.16
590.299	1140.17
590.5	1111.69
590.702	1140.56
590.903	1161.87
591.104	1202.36
591.305	1199.07
591.507	1243.05
591.708	1196.55
591.909	1194.81
592.11	1230.07
592.311	1202.94
592.512	1159.74
592.714	1159.74
592.915	1143.08
593.116	1174.08
593.317	1199.07
593.518	1201.78
593.719	1183.38
593.92	1202.94
594.121	1240.34
594.322	1187.06
594.523	1166.13
594.724	1140.95
594.925	1144.82
595.126	1167.29
595.327	1199.07
595.528	1171.56
595.729	1195.58
595.929	1179.11
596.13	1174.27
596.331	1218.44
596.532	1189.19
596.733	1263.2
596.934	1228.71
597.135	1238.79
597.335	1233.36
597.536	1176.21
597.737	1186.09
597.938	1156.64
598.138	1197.13
598.339	1190.16
598.54	1210.11
598.74	1166.33
598.941	1187.83
599.142	1236.46
599.342	1204.88
599.543	1152.57
599.744	1178.53
599.944	1199.84
600.145	1172.33
600.345	1150.83
600.546	1245.96
600.746	1229.29
600.947	1278.89
601.147	1181.83
601.348	1249.64
601.548	1154.12
601.749	1181.63
601.949	1146.56
602.15	1170.01
602.35	1188.22
602.551	1213.02
602.751	1145.79
602.951	1174.27
603.152	1106.26
603.352	1213.02
603.552	1162.26
603.753	1217.86
603.953	1215.34
604.153	1234.14
604.354	1149.47
604.554	1160.71
604.754	1185.7
604.954	1134.75
605.155	1183.96
605.355	1189.19
605.555	1242.66
605.755	1202.36
605.955	1170.01
606.155	1215.15
606.356	1182.79
606.556	1217.28
606.756	1220.38
606.956	1158.19
607.156	1207.4
607.356	1175.43
607.556	1189.58
607.756	1191.51
607.956	1218.06
608.156	1161.48
608.356	1116.53
608.556	1180.28
608.756	1173.3
608.956	1145.6
609.156	1143.27
609.356	1124.67
609.556	1105.3
609.755	1168.84
609.955	1117.5
610.155	1160.9
610.355	1156.25
610.555	1122.73
610.755	1134.94
610.954	1078.95
611.154	1138.04
611.354	1193.84
611.554	1109.75
611.753	1140.17
611.953	1119.63
612.153	1147.53
612.352	1125.83
612.552	1087.66
612.752	1053.95
612.951	1132.23
613.151	1117.5
613.351	1056.08
613.55	1108.98
613.75	1124.09
613.949	1102.2
614.149	1094.83
614.348	1079.53
614.548	1083.4
614.747	1047.75
614.947	1087.66
615.146	1025.47
615.346	1098.9
615.545	1115.18
615.745	1117.7
615.944	1105.88
616.144	1045.82
616.343	1097.35
616.542	1039.62
616.742	1079.72
616.941	1052.02
617.14	1004.35
617.34	1045.43
