Data from oakcork_FLMT105791__198__17-32-11-057.txt Node

Date: Mon Mar 20 17:32:11 GMT 2023
User: antho
Spectrometer: FLMT10579
Trigger mode: 0
Integration Time (sec): 1.000000E-1
Scans to average: 10
Electric dark correction enabled: true
Nonlinearity correction enabled: false
Boxcar width: 0
XAxis mode: Wavelengths
Number of Pixels in Spectrum: 3648
>>>>>Begin Spectral Data<<<<<
345.248	-159
345.464	-159
345.681	-159
345.898	-152.41
346.114	-159.97
346.331	-37.52
346.548	4.71
346.764	-0.13
346.981	5.1
347.197	-10.79
347.414	15.76
347.631	-18.92
347.847	59.16
348.064	-3.42
348.28	35.52
348.497	-22.22
348.713	-27.25
348.93	-0.9
349.146	22.15
349.363	13.05
349.579	29.51
349.796	3.16
350.012	-7.69
350.229	34.36
350.445	5.49
350.661	-12.92
350.878	2
351.094	24.09
351.311	34.55
351.527	36.1
351.743	-9.43
351.96	34.36
352.176	39.4
352.392	10.72
352.609	31.06
352.825	-20.86
353.041	-22.02
353.257	-4
353.474	18.28
353.69	-7.49
353.906	-10.01
354.122	-23.77
354.339	58.58
354.555	3.36
354.771	-5.36
354.987	55.09
355.203	54.51
355.42	-16.6
355.636	0.84
355.852	-17.18
356.068	24.48
356.284	-16.4
356.5	40.36
356.716	12.46
356.932	-16.21
357.148	29.32
357.364	-0.32
357.58	40.36
357.796	38.04
358.012	56.64
358.228	8.78
358.444	-35.97
358.66	41.14
358.876	13.24
359.092	-8.07
359.308	14.4
359.524	15.56
359.74	2.2
359.956	4.13
360.172	4.13
360.388	40.95
360.604	18.47
360.819	74.27
361.035	5.88
361.251	22.54
361.467	-13.69
361.683	24.48
361.898	28.35
362.114	27
362.33	31.65
362.546	50.44
362.762	35.91
362.977	14.4
363.193	-33.45
363.409	44.05
363.624	-18.15
363.84	-22.99
364.056	-14.85
364.271	27.77
364.487	17.5
364.703	-10.01
364.918	-42.56
365.134	-6.33
365.35	9.95
365.565	107.59
365.781	16.34
365.996	23.7
366.212	53.35
366.427	32.42
366.643	6.07
366.858	13.05
367.074	-30.93
367.289	47.53
367.505	83.18
367.72	-30.16
367.936	-13.11
368.151	35.91
368.367	32.03
368.582	23.12
368.798	27
369.013	56.64
369.228	2
369.444	0.06
369.659	71.36
369.874	20.21
370.09	55.48
370.305	-42.95
370.52	17.89
370.736	61.29
370.951	1.81
371.166	71.75
371.381	79.5
371.597	63.81
371.812	-14.66
372.027	-18.34
372.242	4.13
372.458	64.19
372.673	15.95
372.888	4.91
373.103	9.36
373.318	89.58
373.533	29.71
373.749	36.88
373.964	-11.95
374.179	76.01
374.394	-26.48
374.609	81.24
374.824	-10.59
375.039	58
375.254	27
375.469	44.82
375.684	31.45
375.899	70.78
376.114	26.22
376.329	33.97
376.544	49.86
376.759	61.68
376.974	-14.08
377.189	2
377.404	8.59
377.619	52.57
377.834	-9.24
378.049	-40.43
378.264	-19.12
378.478	21.57
378.693	-27.64
378.908	44.63
379.123	25.25
379.338	53.93
379.553	16.34
379.767	25.45
379.982	58.77
380.197	33.97
380.412	8.98
380.626	22.73
380.841	90.93
381.056	47.73
381.271	53.73
381.485	6.26
381.7	-14.85
381.915	14.4
382.129	0.26
382.344	2.58
382.559	23.51
382.773	58.19
382.988	-0.52
383.202	5.88
383.417	27.77
383.632	100.81
383.846	45.01
384.061	16.34
384.275	21.18
384.49	26.8
384.704	53.15
384.919	33.78
385.133	21.38
385.348	30.1
385.562	-8.27
385.777	64.97
385.991	22.35
386.206	31.45
386.42	14.79
386.634	53.54
386.849	43.85
387.063	29.32
387.277	-19.7
387.492	18.66
387.706	-1.29
387.92	-0.71
388.135	22.93
388.349	16.34
388.563	16.92
388.778	4.71
388.992	43.46
389.206	45.98
389.42	79.31
389.635	27.58
389.849	56.06
390.063	56.64
390.277	37.26
390.491	92.68
390.706	36.68
390.92	45.01
391.134	34.94
391.348	53.54
391.562	-41.59
391.776	-2.65
391.99	9.17
392.205	47.92
392.419	18.86
392.633	19.25
392.847	81.24
393.061	0.45
393.275	88.41
393.489	63.03
393.703	45.21
393.917	62.64
394.131	3.94
394.345	39.01
394.559	47.53
394.773	30.29
394.986	56.83
395.2	25.25
395.414	63.61
395.628	1.81
395.842	61.48
396.056	29.9
396.27	-23.19
396.484	37.07
396.697	10.91
396.911	85.12
397.125	58.58
397.339	50.63
397.553	51.8
397.766	78.73
397.98	51.21
398.194	74.66
398.408	27.58
398.621	58.19
398.835	62.06
399.049	41.33
399.262	66.13
399.476	56.06
399.69	54.9
399.903	115.93
400.117	33.58
400.331	55.67
400.544	46.56
400.758	133.94
400.971	43.46
401.185	60.32
401.398	28.16
401.612	76.4
401.826	41.91
402.039	58.96
402.253	32.42
402.466	49.08
402.68	42.3
402.893	44.82
403.106	44.05
403.32	18.08
403.533	59.35
403.747	38.81
403.96	55.86
404.174	80.66
404.387	7.23
404.6	43.08
404.814	65.36
405.027	53.73
405.24	43.27
405.454	50.25
405.667	65.94
405.88	-6.52
406.094	62.26
406.307	108.76
406.52	58.19
406.733	15.18
406.947	-3.42
407.16	120.96
407.373	85.89
407.586	18.08
407.799	34.75
408.012	87.64
408.226	54.7
408.439	95
408.652	-8.07
408.865	75.82
409.078	93.06
409.291	51.02
409.504	20.6
409.717	77.76
409.93	69.04
410.143	49.47
410.357	7.04
410.57	16.73
410.783	75.04
410.996	66.71
411.209	32.81
411.421	71.75
411.634	61.68
411.847	25.06
412.06	46.95
412.273	17.11
412.486	43.85
412.699	106.24
412.912	50.44
413.125	78.73
413.338	71.17
413.55	69.04
413.763	43.66
413.976	53.15
414.189	34.55
414.402	24.86
414.615	107.79
414.827	14.01
415.04	69.81
415.253	50.25
415.466	106.04
415.678	125.42
415.891	53.54
416.104	61.29
416.316	33.97
416.529	36.68
416.742	70.01
416.954	95.97
417.167	53.54
417.38	59.93
417.592	104.88
417.805	47.15
418.017	11.3
418.23	88.22
418.442	31.84
418.655	58.96
418.868	62.64
419.08	89.19
419.293	77.37
419.505	87.44
419.718	73.11
419.93	94.23
420.142	27.19
420.355	113.21
420.567	126
420.78	72.53
420.992	76.59
421.205	126.39
421.417	30.68
421.629	78.92
421.842	14.01
422.054	16.53
422.266	62.64
422.479	108.18
422.691	49.28
422.903	91.71
423.115	64.39
423.328	78.92
423.54	65.74
423.752	57.22
423.964	41.91
424.177	64.58
424.389	64.78
424.601	137.24
424.813	76.4
425.025	126.78
425.238	85.89
425.45	43.66
425.662	40.75
425.874	355.2
426.086	51.02
426.298	68.84
426.51	66.91
426.722	81.83
426.934	40.95
427.146	74.27
427.358	6.65
427.57	99.84
427.782	68.07
427.994	55.86
428.206	63.42
428.418	26.41
428.63	68.26
428.842	95.58
429.054	82.99
429.266	97.13
429.478	50.05
429.69	67.29
429.902	37.65
430.114	116.31
430.325	76.21
430.537	36.3
430.749	73.88
430.961	24.86
431.173	47.15
431.384	77.18
431.596	4.13
431.808	56.06
432.02	69.62
432.231	95.97
432.443	84.73
432.655	64.19
432.867	68.84
433.078	108.18
433.29	140.14
433.502	104.49
433.713	108.76
433.925	80.28
434.136	143.44
434.348	58.19
434.56	30.68
434.771	175.02
434.983	45.21
435.194	44.63
435.406	65.55
435.617	93.06
435.829	130.07
436.04	99.65
436.252	103.14
436.463	129.29
436.675	108.56
436.886	102.56
437.098	103.72
437.309	138.21
437.521	84.73
437.732	99.65
437.943	106.43
438.155	82.41
438.366	42.69
438.578	111.28
438.789	85.31
439	104.3
439.211	93.26
439.423	137.24
439.634	113.6
439.845	104.49
440.057	131.81
440.268	113.99
440.479	76.79
440.69	100.62
440.902	81.24
441.113	88.99
441.324	64.58
441.535	103.91
441.746	134.72
441.957	66.33
442.168	93.26
442.38	102.36
442.591	125.81
442.802	51.41
443.013	78.92
443.224	82.6
443.435	96.16
443.646	104.49
443.857	97.71
444.068	91.32
444.279	97.91
444.49	139.76
444.701	102.94
444.912	162.23
445.123	146.15
445.334	115.93
445.545	73.3
445.756	113.99
445.967	93.64
446.178	134.14
446.388	114.96
446.599	135.69
446.81	113.6
447.021	91.51
447.232	138.01
447.443	159.52
447.653	72.14
447.864	130.65
448.075	89.19
448.286	150.99
448.496	121.93
448.707	156.22
448.918	101.01
449.129	198.85
449.339	93.26
449.55	122.71
449.761	110.89
449.971	155.84
450.182	82.21
450.393	147.12
450.603	105.46
450.814	157.19
451.024	128.33
451.235	153.51
451.446	162.23
451.656	153.12
451.867	87.06
452.077	137.63
452.288	164.17
452.498	149.83
452.709	119.03
452.919	139.95
453.13	115.54
453.34	150.99
453.55	76.21
453.761	153.9
453.971	149.64
454.182	186.64
454.392	167.27
454.602	154.67
454.813	148.47
455.023	187.61
455.233	114.18
455.444	146.54
455.654	64.39
455.864	122.32
456.075	99.46
456.285	116.51
456.495	134.53
456.705	147.31
456.916	153.9
457.126	169.59
457.336	121.16
457.546	100.04
457.756	117.48
457.967	177.15
458.177	122.51
458.387	127.74
458.597	107.4
458.807	121.54
459.017	113.6
459.227	122.32
459.437	117.09
459.647	150.02
459.857	145.38
460.068	144.41
460.278	175.02
460.488	171.14
460.698	202.72
460.908	122.13
461.117	86.48
461.327	107.01
461.537	158.55
461.747	138.4
461.957	118.64
462.167	222.29
462.377	168.24
462.587	140.73
462.797	165.33
463.007	124.06
463.216	156.42
463.426	179.09
463.636	146.54
463.846	120.58
464.056	158.16
464.265	163.78
464.475	102.75
464.685	155.45
464.895	172.5
465.104	165.52
465.314	198.46
465.524	119.03
465.733	116.7
465.943	225.78
466.153	216.48
466.362	183.54
466.572	147.89
466.782	133.36
466.991	147.12
467.201	212.99
467.41	117.28
467.62	151.77
467.829	134.14
468.039	151.96
468.249	141.31
468.458	143.05
468.668	179.28
468.877	179.47
469.086	235.47
469.296	183.16
469.505	141.11
469.715	197.11
469.924	164.56
470.134	196.72
470.343	180.06
470.552	158.16
470.762	155.06
470.971	138.79
471.18	181.99
471.39	174.05
471.599	117.67
471.808	211.44
472.018	133.75
472.227	197.11
472.436	202.72
472.645	156.22
472.855	117.28
473.064	203.31
473.273	150.41
473.482	186.84
473.691	204.27
473.901	200.21
474.11	186.64
474.319	280.03
474.528	160.29
474.737	236.82
474.946	183.54
475.155	197.69
475.364	224.81
475.573	217.45
475.783	200.79
475.992	207.18
476.201	218.61
476.41	163.01
476.619	163.39
476.828	192.84
477.037	192.65
477.245	199.82
477.454	223.46
477.663	186.45
477.872	169.59
478.081	238.37
478.29	156.61
478.499	294.95
478.708	203.11
478.917	259.3
479.125	231.21
479.334	211.64
479.543	179.28
479.752	219.77
479.961	229.27
480.169	236.44
480.378	217.64
480.587	306.96
480.796	223.46
481.004	213.19
481.213	247.87
481.422	198.07
481.63	205.82
481.839	253.68
482.048	273.83
482.256	208.34
482.465	240.89
482.674	270.15
482.882	242.05
483.091	305.02
483.299	230.43
483.508	247.09
483.716	219
483.925	230.82
484.134	199.24
484.342	224.42
484.551	254.26
484.759	267.05
484.967	268.99
485.176	258.14
485.384	258.91
485.593	281
485.801	273.64
486.01	255.42
486.218	260.27
486.426	195.94
486.635	246.12
486.843	240.31
487.051	229.27
487.26	209.31
487.468	264.14
487.676	289.52
487.885	223.65
488.093	219.58
488.301	249.42
488.509	253.29
488.717	271.7
488.926	234.3
489.134	237.99
489.342	288.55
489.55	241.28
489.758	279.64
489.967	249.03
490.175	341.25
490.383	269.95
490.591	301.73
490.799	236.05
491.007	297.27
491.215	286.23
491.423	275.57
491.631	264.14
491.839	261.82
492.047	308.51
492.255	243.02
492.463	231.21
492.671	272.28
492.879	310.84
493.087	275.96
493.295	307.35
493.503	323.43
493.711	271.31
493.919	310.45
494.127	323.04
494.334	345.71
494.542	279.25
494.75	280.8
494.958	292.04
495.166	343.58
495.374	298.82
495.581	309.29
495.789	300.57
495.997	338.93
496.205	299.21
496.412	295.14
496.62	313.74
496.828	316.26
497.035	296.3
497.243	324.01
497.451	297.08
497.658	327.88
497.866	293.01
498.074	367.8
498.281	284.29
498.489	354.04
498.696	302.5
498.904	283.9
499.112	317.42
499.319	371.09
499.527	304.25
499.734	321.88
499.942	282.16
500.149	291.46
500.357	331.95
500.564	276.35
500.771	329.24
500.979	294.37
501.186	283.52
501.394	319.17
501.601	343.97
501.808	359.27
502.016	337.96
502.223	339.51
502.43	343.58
502.638	348.81
502.845	283.32
503.052	375.16
503.26	305.8
503.467	384.65
503.674	334.86
503.881	336.99
504.089	387.17
504.296	361.21
504.503	332.15
504.71	347.84
504.917	288.55
505.125	340.09
505.332	341.45
505.539	338.93
505.746	405
505.953	364.5
506.16	363.73
506.367	411.2
506.574	425.15
506.781	399.96
506.988	297.27
507.195	355.2
507.402	390.85
507.609	380.97
507.816	356.75
508.023	347.26
508.23	332.73
508.437	327.88
508.644	403.83
508.851	434.64
509.058	410.03
509.265	379.42
509.472	406.55
509.679	462.73
509.885	364.31
510.092	369.54
510.299	373.22
510.506	364.7
510.713	394.73
510.92	383.88
511.126	409.26
511.333	438.32
511.54	407.9
511.746	450.33
511.953	432.12
512.16	431.15
512.367	382.33
512.573	394.15
512.78	391.82
512.987	413.91
513.193	409.45
513.4	377.29
513.606	362.57
513.813	428.44
514.02	413.91
514.226	498.96
514.433	451.69
514.639	405.77
514.846	426.5
515.052	367.6
515.259	409.45
515.465	418.95
515.672	420.69
515.878	507.68
516.085	403.25
516.291	458.28
516.497	434.64
516.704	417.98
516.91	389.88
517.117	383.88
517.323	350.75
517.529	405
517.736	425.53
517.942	406.16
518.148	403.83
518.354	451.69
518.561	441.81
518.767	440.45
518.973	483.46
519.179	462.93
519.386	417.59
519.592	450.53
519.798	437.93
520.004	472.81
520.21	436.58
520.417	488.31
520.623	497.99
520.829	500.51
521.035	499.16
521.241	500.13
521.447	497.22
521.653	590.02
521.859	496.44
522.065	472.61
522.271	566.19
522.477	544.69
522.683	552.44
522.889	538.29
523.095	531.51
523.301	505.36
523.507	507.88
523.713	516.21
523.919	494.7
524.125	549.73
524.331	522.02
524.537	596.42
524.742	555.93
524.948	569.1
525.154	585.37
525.36	678.76
525.566	585.37
525.772	598.74
525.977	515.04
526.183	608.82
526.389	615.02
526.595	588.67
526.8	579.37
527.006	545.27
527.212	547.01
527.417	519.89
527.623	528.41
527.829	596.03
528.034	592.93
528.24	596.42
528.446	559.22
528.651	646.99
528.857	633.42
529.062	663.07
529.268	606.3
529.473	617.73
529.679	595.26
529.884	684.19
530.09	663.26
530.295	698.33
530.501	649.51
530.706	647.96
530.912	617.92
531.117	640.4
531.323	616.37
531.528	679.54
531.733	680.5
531.939	653.77
532.144	687.09
532.35	652.99
532.555	695.23
532.76	673.92
532.966	673.34
533.171	682.44
533.376	644.86
533.581	635.75
533.787	644.66
533.992	693.68
534.197	710.92
534.402	675.27
534.607	660.36
534.813	791.13
535.018	671.98
535.223	657.64
535.428	689.03
535.633	746.77
535.838	732.04
536.043	708.21
536.249	761.88
536.454	703.37
536.659	728.55
536.864	697.36
537.069	708.99
537.274	733.01
537.479	701.04
537.684	741.92
537.889	696.2
538.094	781.06
538.299	711.12
538.504	747.74
538.708	745.02
538.913	743.09
539.118	720.22
539.323	726.81
539.528	714.6
539.733	713.64
539.938	730.1
540.142	760.91
540.347	747.74
540.552	723.13
540.757	718.29
540.962	722.55
541.166	672.75
541.371	686.7
541.576	721.97
541.781	645.63
541.985	729.33
542.19	745.02
542.395	776.41
542.599	804.89
542.804	767.3
543.008	788.03
543.213	724.87
543.418	697.55
543.622	761.3
543.827	715.96
544.031	801.79
544.236	781.83
544.44	758.78
544.645	799.08
544.849	757.04
545.054	790.36
545.258	824.46
545.463	817.1
545.667	728.75
545.872	790.94
546.076	753.74
546.281	780.67
546.485	761.3
546.689	773.5
546.894	792.1
547.098	793.85
547.302	721.97
547.507	785.71
547.711	755.68
547.915	813.61
548.119	748.12
548.324	777.96
548.528	825.23
548.732	795.78
548.936	816.52
549.141	852.75
549.345	746.57
549.549	801.79
549.753	802.57
549.957	875.22
550.161	841.9
550.366	802.95
550.57	758.39
550.774	793.85
550.978	784.74
551.182	799.27
551.386	778.54
551.59	791.91
551.794	790.36
551.998	841.7
552.202	798.3
552.406	743.67
552.61	785.32
552.814	795.2
553.018	845
553.222	804.7
553.426	782.03
553.63	888.4
553.833	775.63
554.037	759.36
554.241	845.96
554.445	787.65
554.649	781.25
554.853	781.83
555.056	817.68
555.26	836.08
555.464	829.5
555.668	790.55
555.871	847.13
556.075	842.48
556.279	788.81
556.483	758.58
556.686	783.58
556.89	826.59
557.094	809.54
557.297	730.3
557.501	834.73
557.704	718.29
557.908	840.35
558.112	791.13
558.315	815.55
558.519	785.13
558.722	796.37
558.926	798.88
559.129	754.52
559.333	711.12
559.536	728.55
559.74	707.24
559.943	743.86
560.147	729.14
560.35	757.62
560.553	742.89
560.757	690.97
560.96	791.72
561.164	725.65
561.367	795.59
561.57	739.79
561.774	742.5
561.977	762.07
562.18	742.89
562.384	788.81
562.587	745.99
562.79	717.9
562.993	720.42
563.197	760.33
563.4	767.11
563.603	784.93
563.806	823.3
564.009	702.59
564.212	780.28
564.416	675.47
564.619	759.94
564.822	701.24
565.025	776.22
565.228	709.57
565.431	727.2
565.634	665.78
565.837	682.25
566.04	687.29
566.243	692.52
566.446	649.51
566.649	744.25
566.852	631.29
567.055	639.82
567.258	703.75
567.461	741.34
567.664	741.92
567.867	631.49
568.07	700.27
568.273	690.97
568.475	749.87
568.678	686.51
568.881	672.75
569.084	686.12
569.287	604.75
569.489	624.9
569.692	687.29
569.895	686.12
570.098	621.8
570.3	604.17
570.503	555.54
570.706	590.8
570.909	603.01
571.111	584.6
571.314	566
571.516	583.82
571.719	616.57
571.922	595.45
572.124	603.39
572.327	606.88
572.529	540.04
572.732	529.38
572.935	596.42
573.137	639.43
573.34	582.28
573.542	609.21
573.745	631.1
573.947	638.27
574.15	598.55
574.352	568.33
574.554	611.72
574.757	545.66
574.959	575.69
575.162	547.4
575.364	537.71
575.566	634.2
575.769	564.84
575.971	552.63
576.173	491.8
576.376	546.63
576.578	557.28
576.78	619.47
576.982	498.96
577.185	536.55
577.387	512.91
577.589	512.33
577.791	562.71
577.993	558.64
578.196	543.72
578.398	565.81
578.6	589.83
578.802	494.7
579.004	526.28
579.206	513.49
579.408	544.69
579.61	531.9
579.812	572.39
580.014	544.69
580.216	512.14
580.418	502.64
580.62	497.61
580.822	470.29
581.024	517.95
581.226	572.78
581.428	513.69
581.63	570.07
581.832	475.33
582.034	574.33
582.236	536.36
582.438	532.68
582.64	569.88
582.841	581.5
583.043	592.54
583.245	554.57
583.447	545.08
583.649	517.56
583.85	526.09
584.052	560.77
584.254	485.4
584.456	580.34
584.657	464.09
584.859	513.69
585.061	522.02
585.262	496.25
585.464	506.52
585.666	541.59
585.867	481.91
586.069	524.73
586.27	535.58
586.472	502.64
586.674	513.69
586.875	503.23
587.077	507.68
587.278	513.49
587.48	518.14
587.681	596.03
587.883	517.95
588.084	454.6
588.285	477.85
588.487	506.52
588.688	520.66
588.89	474.94
589.091	457.7
589.292	460.99
589.494	456.15
589.695	445.49
589.896	399.96
590.098	403.06
590.299	466.41
590.5	421.46
590.702	401.9
590.903	458.47
591.104	487.53
591.305	482.11
591.507	495.09
591.708	525.12
591.909	451.88
592.11	547.79
592.311	483.27
592.512	454.01
592.714	419.53
592.915	431.35
593.116	443.75
593.317	447.62
593.518	436.96
593.719	474.16
593.92	464.28
594.121	493.35
594.322	465.83
594.523	458.66
594.724	423.79
594.925	451.5
595.126	480.36
595.327	458.86
595.528	475.52
595.729	450.53
595.929	464.67
596.13	448.59
596.331	451.69
596.532	461.38
596.733	516.4
596.934	456.15
597.135	495.48
597.335	469.13
597.536	442.97
597.737	467.77
597.938	447.62
598.138	452.27
598.339	455.56
598.54	484.05
598.74	459.25
598.941	449.17
599.142	482.88
599.342	517.18
599.543	433.48
599.744	439.1
599.944	472.23
600.145	449.36
600.345	459.44
600.546	543.33
600.746	467.19
600.947	511.56
601.147	489.28
601.348	491.41
601.548	443.16
601.749	444.71
601.949	446.65
602.15	473.97
602.35	475.13
602.551	495.09
602.751	410.42
602.951	400.93
603.152	393.57
603.352	472.81
603.552	441.61
603.753	493.35
603.953	466.22
604.153	473.78
604.354	450.53
604.554	476.49
604.754	456.15
604.954	406.55
605.155	437.74
605.355	436.38
605.555	486.76
605.755	506.13
605.955	451.88
606.155	449.75
606.356	422.43
606.556	462.73
606.756	468.16
606.956	367.22
607.156	484.63
607.356	398.41
607.556	431.15
607.756	438.9
607.956	472.23
608.156	456.15
608.356	447.04
608.556	485.01
608.756	437.55
608.956	436
609.156	484.05
609.356	420.11
609.556	420.69
609.755	458.28
609.955	405.19
610.155	449.56
610.355	421.85
610.555	423.21
610.755	425.73
610.954	378.07
611.154	436
611.354	480.56
611.554	396.08
611.753	395.12
611.953	396.28
612.153	442.78
612.352	423.21
612.552	374.77
612.752	374.97
612.951	419.91
613.151	396.67
613.351	382.91
613.55	396.47
613.75	425.73
613.949	425.53
614.149	444.52
614.348	403.45
614.548	366.25
614.747	354.43
614.947	380.2
615.146	317.42
615.346	416.43
615.545	400.93
615.745	390.66
615.944	412.75
616.144	402.28
616.343	443.36
616.542	405.77
616.742	391.05
616.941	398.8
617.14	330.4
617.34	395.31
617.539	370.51
617.738	395.31
617.938	459.25
618.137	390.47
618.336	325.75
618.535	374.97
618.734	351.52
618.934	383.88
619.133	396.86
619.332	401.7
619.531	361.79
619.73	347.84
619.929	408.87
620.128	420.3
620.328	438.71
620.527	360.43
620.726	385.43
620.925	386.59
621.124	371.09
621.323	376.13
621.522	322.07
621.721	354.82
621.92	339.32
622.119	396.08
622.318	339.7
622.517	341.45
622.715	370.12
622.914	313.94
623.113	340.67
623.312	313.74
623.511	378.65
623.71	342.22
623.909	334.67
624.107	410.03
624.306	306.57
624.505	343.97
624.704	344.93
624.902	341.25
625.101	374.19
625.3	376.71
625.499	318.97
625.697	325.75
625.896	318.59
626.095	353.27
626.293	291.27
626.492	337.77
626.69	374.58
626.889	317.81
627.088	368.38
627.286	297.27
