Data from oakcork_FLMT105791__301__17-34-47-052.txt Node

Date: Mon Mar 20 17:34:47 GMT 2023
User: antho
Spectrometer: FLMT10579
Trigger mode: 0
Integration Time (sec): 1.000000E-1
Scans to average: 10
Electric dark correction enabled: true
Nonlinearity correction enabled: false
Boxcar width: 0
XAxis mode: Wavelengths
Number of Pixels in Spectrum: 3648
>>>>>Begin Spectral Data<<<<<
345.248	-163.73
345.464	-163.73
345.681	-163.73
345.898	-158.31
346.114	-136.41
346.331	-34.89
346.548	10.45
346.764	-6.6
346.981	-6.8
347.197	-0.79
347.414	29.24
347.631	-35.08
347.847	65.47
348.064	12
348.28	2.31
348.497	-31.02
348.713	-4.28
348.93	23.81
349.146	6.18
349.363	-6.22
349.579	28.66
349.796	0.37
350.012	-13.77
350.229	20.13
350.445	7.35
350.661	-13.19
350.878	20.91
351.094	4.63
351.311	12.38
351.527	2.5
351.743	-19.78
351.96	39.31
352.176	35.63
352.392	20.71
352.609	30.4
352.825	-8.93
353.041	12
353.257	-4.08
353.474	12.58
353.69	-4.67
353.906	4.44
354.122	-38.57
354.339	49.2
354.555	-13
354.771	-4.28
354.987	62.95
355.203	43.19
355.42	-0.4
355.636	-25.4
355.852	-2.15
356.068	-25.78
356.284	-9.32
356.5	59.08
356.716	29.05
356.932	-3.5
357.148	24.78
357.364	-4.47
357.58	13.35
357.796	54.23
358.012	36.21
358.228	37.96
358.444	-44
358.66	52.49
358.876	25.75
359.092	-40.12
359.308	23.81
359.524	25.17
359.74	-8.93
359.956	-15.71
360.172	3.28
360.388	26.53
360.604	-30.82
360.819	59.27
361.035	-2.73
361.251	18.39
361.467	-20.17
361.683	24.2
361.898	-4.67
362.114	29.82
362.33	39.9
362.546	45.13
362.762	5.22
362.977	12
363.193	-73.64
363.409	29.63
363.624	-21.33
363.84	3.67
364.056	-33.15
364.271	41.45
364.487	28.27
364.703	-30.82
364.918	-11.64
365.134	-12.42
365.35	10.64
365.565	44.93
365.781	12.77
365.996	29.24
366.212	45.51
366.427	44.16
366.643	6.18
366.858	-0.6
367.074	-29.08
367.289	44.16
367.505	81.36
367.72	-25.01
367.936	0.76
368.151	29.24
368.367	45.9
368.582	13.55
368.798	-2.15
369.013	42.41
369.228	-0.4
369.444	8.31
369.659	56.75
369.874	26.53
370.09	56.36
370.305	-30.82
370.52	-31.98
370.736	22.26
370.951	15.87
371.166	60.24
371.381	62.37
371.597	7.15
371.812	-32.37
372.027	-3.31
372.242	-2.34
372.458	81.75
372.673	1.34
372.888	0.76
373.103	0.18
373.318	76.51
373.533	16.06
373.749	31.95
373.964	-22.68
374.179	52.88
374.394	-15.71
374.609	29.43
374.824	-6.8
375.039	55.98
375.254	-11.83
375.469	44.35
375.684	12.77
375.899	11.41
376.114	31.37
376.329	12.77
376.544	52.88
376.759	42.22
376.974	-5.44
377.189	21.68
377.404	-8.73
377.619	49.39
377.834	-48.07
378.049	-3.7
378.264	10.83
378.478	28.85
378.693	-23.46
378.908	33.89
379.123	5.22
379.338	28.27
379.553	39.7
379.767	19.94
379.982	34.47
380.197	42.41
380.412	12.38
380.626	27.69
380.841	70.51
381.056	41.25
381.271	52.49
381.485	-12.61
381.7	-13.77
381.915	21.68
382.129	8.9
382.344	15.87
382.559	-4.08
382.773	55.2
382.988	-26.75
383.202	23.23
383.417	18
383.632	124.76
383.846	-9.51
384.061	43.77
384.275	-10.28
384.49	40.48
384.704	50.94
384.919	53.26
385.133	-16.29
385.348	50.75
385.562	-14.35
385.777	53.46
385.991	13.35
386.206	2.7
386.42	17.61
386.634	49.58
386.849	9.67
387.063	18.97
387.277	-8.93
387.492	15.48
387.706	7.93
387.92	-10.87
388.135	46.29
388.349	55.59
388.563	14.71
388.778	33.31
388.992	45.71
389.206	32.73
389.42	77.87
389.635	24.59
389.849	29.05
390.063	48.42
390.277	8.12
390.491	81.94
390.706	32.53
390.92	20.33
391.134	25.17
391.348	60.05
391.562	-31.21
391.776	10.83
391.99	0.57
392.205	53.65
392.419	-6.99
392.633	-3.31
392.847	33.7
393.061	6.77
393.275	76.9
393.489	21.68
393.703	12
393.917	44.93
394.131	16.84
394.345	61.21
394.559	54.23
394.773	23.81
394.986	43.38
395.2	8.9
395.414	50.55
395.628	11.22
395.842	39.9
396.056	-0.21
396.27	-18.81
396.484	47.84
396.697	31.37
396.911	73.41
397.125	51.33
397.339	64.89
397.553	37.96
397.766	66.63
397.98	57.91
398.194	50.94
398.408	19.75
398.621	54.23
398.835	57.33
399.049	27.69
399.262	69.15
399.476	70.31
399.69	64.5
399.903	98.99
400.117	15.68
400.331	63.34
400.544	10.64
400.758	115.65
400.971	55.78
401.185	80.2
401.398	-3.89
401.612	84.65
401.826	59.85
402.039	40.28
402.253	15.87
402.466	53.46
402.68	33.5
402.893	53.85
403.106	52.1
403.32	38.73
403.533	52.68
403.747	43
403.96	60.43
404.174	45.71
404.387	38.93
404.6	46.29
404.814	68.76
405.027	45.9
405.24	49.39
405.454	21.1
405.667	62.37
405.88	-7.38
406.094	34.47
406.307	68.96
406.52	44.16
406.733	11.03
406.947	-0.4
407.16	115.07
407.373	109.64
407.586	32.34
407.799	12.77
408.012	66.63
408.226	42.41
408.439	104.61
408.652	-4.47
408.865	40.48
409.078	66.25
409.291	70.9
409.504	20.13
409.717	77.29
409.93	88.53
410.143	16.45
410.357	3.08
410.57	40.67
410.783	25.17
410.996	63.73
411.209	60.63
411.421	59.27
411.634	54.81
411.847	46.68
412.06	51.91
412.273	64.31
412.486	49.78
412.699	141.23
412.912	57.53
413.125	59.85
413.338	48.03
413.55	74.19
413.763	55.2
413.976	75.93
414.189	3.08
414.402	27.11
414.615	118.17
414.827	46.87
415.04	84.07
415.253	70.9
415.466	60.82
415.678	104.99
415.891	44.16
416.104	34.66
416.316	48.23
416.529	30.79
416.742	66.05
416.954	87.17
417.167	47.06
417.38	41.83
417.592	86.4
417.805	27.3
418.017	-3.5
418.23	68.38
418.442	15.29
418.655	40.86
418.868	62.76
419.08	92.21
419.293	75.35
419.505	80.78
419.718	45.51
419.93	100.15
420.142	42.03
420.355	91.63
420.567	118.75
420.78	54.23
420.992	61.6
421.205	101.51
421.417	28.08
421.629	58.88
421.842	27.3
422.054	31.76
422.266	67.6
422.479	102.48
422.691	28.08
422.903	86.4
423.115	28.85
423.328	66.25
423.54	56.95
423.752	70.12
423.964	22.26
424.177	43
424.389	46.87
424.601	166.8
424.813	36.21
425.025	101.7
425.238	74.58
425.45	37.57
425.662	44.16
425.874	319.67
426.086	42.22
426.298	86.98
426.51	95.31
426.722	72.83
426.934	47.65
427.146	100.54
427.358	33.31
427.57	63.15
427.782	82.33
427.994	63.15
428.206	38.54
428.418	23.62
428.63	86.4
428.842	64.89
429.054	65.66
429.266	96.28
429.478	25.56
429.69	59.66
429.902	38.15
430.114	80.97
430.325	72.45
430.537	41.83
430.749	64.89
430.961	18.58
431.173	50.55
431.384	73.41
431.596	-11.25
431.808	40.67
432.02	67.6
432.231	86.59
432.443	80.39
432.655	62.95
432.867	25.95
433.078	59.66
433.29	127.66
433.502	86.59
433.713	113.52
433.925	69.35
434.136	102.28
434.348	32.53
434.56	14.9
434.771	140.06
434.983	30.01
435.194	33.7
435.406	69.73
435.617	98.99
435.829	129.79
436.04	99.76
436.252	87.36
436.463	129.79
436.675	104.8
436.886	110.42
437.098	80.97
437.309	125.34
437.521	73.61
437.732	75.93
437.943	65.66
438.155	74.77
438.366	30.01
438.578	128.24
438.789	96.86
439	104.41
439.211	72.45
439.423	94.53
439.634	97.24
439.845	113.13
440.057	105.38
440.268	118.36
440.479	49.78
440.69	99.57
440.902	66.44
441.113	78.06
441.324	80.39
441.535	100.34
441.746	126.5
441.957	33.89
442.168	53.26
442.38	115.65
442.591	105.96
442.802	63.34
443.013	59.27
443.224	68.96
443.435	76.51
443.646	66.44
443.857	69.93
444.068	78.45
444.279	57.33
444.49	143.94
444.701	87.36
444.912	158.47
445.123	94.53
445.334	83.88
445.545	112.16
445.756	82.71
445.967	57.33
446.178	130.96
446.388	143.16
446.599	122.63
446.81	121.66
447.021	102.86
447.232	105.96
447.443	136.19
447.653	67.8
447.864	120.88
448.075	101.31
448.286	127.86
448.496	81.75
448.707	136.58
448.918	93.37
449.129	195.47
449.339	91.24
449.55	99.76
449.761	94.92
449.971	142.78
450.182	87.56
450.393	127.08
450.603	110.42
450.814	130.57
451.024	118.36
451.235	115.84
451.446	163.31
451.656	148.59
451.867	86.98
452.077	134.06
452.288	152.27
452.498	153.04
452.709	103.25
452.919	120.3
453.13	88.91
453.34	144.71
453.55	71.48
453.761	133.28
453.971	110.23
454.182	127.08
454.392	141.03
454.602	141.23
454.813	116.62
455.023	138.9
455.233	92.6
455.444	100.93
455.654	79.03
455.864	106.35
456.075	115.84
456.285	88.53
456.495	102.67
456.705	122.82
456.916	154.59
457.126	152.66
457.336	137.16
457.546	63.15
457.756	91.82
457.967	161.38
458.177	103.25
458.387	113.13
458.597	74.58
458.807	112.74
459.017	127.28
459.227	97.44
459.437	100.93
459.647	142.19
459.857	120.49
460.068	89.88
460.278	153.04
460.488	141.03
460.698	185.59
460.908	110.42
461.117	87.95
461.327	100.93
461.537	134.83
461.747	126.11
461.957	107.9
462.167	214.46
462.377	140.45
462.587	125.53
462.797	151.49
463.007	111.39
463.216	131.15
463.426	172.81
463.636	152.27
463.846	80.78
464.056	96.47
464.265	146.07
464.475	114.68
464.685	121.66
464.895	144.71
465.104	104.03
465.314	150.91
465.524	102.48
465.733	108.68
465.943	175.91
466.153	193.54
466.362	155.76
466.572	145.88
466.782	144.13
466.991	114.49
467.201	198.38
467.41	98.41
467.62	183.07
467.829	106.93
468.039	135.41
468.249	130.57
468.458	104.41
468.668	121.46
468.877	162.93
469.086	193.34
469.296	147.81
469.505	107.32
469.715	225.89
469.924	180.56
470.134	206.71
470.343	201.29
470.552	150.72
470.762	147.04
470.971	100.34
471.18	129.79
471.39	136.77
471.599	130.18
471.808	179.01
472.018	107.13
472.227	174.55
472.436	165.64
472.645	132.51
472.855	98.41
473.064	185.59
473.273	133.86
473.482	183.27
473.691	178.62
473.901	158.66
474.11	146.46
474.319	206.32
474.528	171.26
474.737	186.37
474.946	184.43
475.155	176.49
475.364	205.16
475.573	169.32
475.783	167.58
475.992	190.24
476.201	202.06
476.41	170.29
476.619	151.49
476.828	200.32
477.037	163.51
477.245	166.99
477.454	206.91
477.663	155.76
477.872	131.73
478.081	246.24
478.29	129.6
478.499	238.87
478.708	166.41
478.917	226.67
479.125	173.58
479.334	197.8
479.543	155.76
479.752	177.46
479.961	199.54
480.169	218.34
480.378	164.48
480.587	277.04
480.796	225.89
481.004	179.59
481.213	210.2
481.422	194.89
481.63	204.58
481.839	226.86
482.048	243.52
482.256	185.4
482.465	183.85
482.674	208.07
482.882	220.47
483.091	252.63
483.299	230.74
483.508	240.62
483.716	192.18
483.925	204.77
484.134	190.44
484.342	185.4
484.551	211.94
484.759	234.81
484.967	217.37
485.176	255.15
485.384	226.28
485.593	248.95
485.801	235.97
486.01	237.71
486.218	197.99
486.426	164.86
486.635	253.41
486.843	197.99
487.051	200.9
487.26	189.86
487.468	247.21
487.676	219.69
487.885	189.86
488.093	221.05
488.301	230.35
488.509	253.6
488.717	243.33
488.926	213.88
489.134	213.88
489.342	216.21
489.55	189.86
489.758	246.82
489.967	192.37
490.175	317.73
490.383	204.58
490.591	261.93
490.799	225.51
491.007	270.45
491.215	237.91
491.423	232.67
491.631	221.05
491.839	239.26
492.047	279.56
492.255	240.23
492.463	217.95
492.671	221.24
492.879	298.74
493.087	234.42
493.295	243.72
493.503	241.01
493.711	274.72
493.919	260.96
494.127	269.1
494.334	281.89
494.542	208.07
494.75	272.2
494.958	229.19
495.166	285.95
495.374	262.51
495.581	281.89
495.789	252.44
495.997	308.04
496.205	255.34
496.412	254.96
496.62	238.49
496.828	265.81
497.035	241.2
497.243	265.81
497.451	257.47
497.658	281.69
497.866	277.24
498.074	305.91
498.281	238.1
498.489	352.99
498.696	259.22
498.904	248.76
499.112	270.84
499.319	323.35
499.527	260.96
499.734	319.86
499.942	222.6
500.149	230.35
500.357	265.81
500.564	257.67
500.771	269.29
500.979	222.79
501.186	244.11
501.394	275.3
501.601	303.78
501.808	299.13
502.016	275.88
502.223	249.92
502.43	282.85
502.638	280.34
502.845	220.08
503.052	346.79
503.26	269.68
503.467	317.73
503.674	266.39
503.881	292.54
504.089	332.07
504.296	328.97
504.503	253.21
504.71	276.46
504.917	228.61
505.125	311.53
505.332	278.59
505.539	288.86
505.746	309.01
505.953	322.38
506.16	275.3
506.367	336.52
506.574	333.23
506.781	320.25
506.988	255.92
507.195	280.53
507.402	269.87
507.609	341.17
507.816	295.64
508.023	274.91
508.23	276.65
508.437	269.49
508.644	308.24
508.851	343.3
509.058	323.93
509.265	325.09
509.472	321.8
509.679	392.52
509.885	273.17
510.092	287.5
510.299	330.9
510.506	326.06
510.713	346.99
510.92	326.84
511.126	319.09
511.333	352.41
511.54	341.95
511.746	353.57
511.953	373.33
512.16	328
512.367	298.55
512.573	328.77
512.78	315.02
512.987	316.57
513.193	312.89
513.4	291.19
513.606	327.42
513.813	321.6
514.02	339.04
514.226	372.56
514.433	392.32
514.639	306.88
514.846	352.41
515.052	305.33
515.259	318.5
515.465	339.43
515.672	309.79
515.878	400.46
516.085	328.77
516.291	367.52
516.497	319.86
516.704	302.42
516.91	307.07
517.117	290.8
517.323	251.86
517.529	342.14
517.736	305.52
517.942	322.38
518.148	305.91
518.354	330.13
518.561	290.99
518.767	338.27
518.973	350.67
519.179	355.9
519.386	327.22
519.592	326.25
519.798	335.36
520.004	399.49
520.21	319.67
520.417	356.87
520.623	374.69
520.829	376.82
521.035	368.3
521.241	364.42
521.447	396.58
521.653	445.02
521.859	385.15
522.065	393.29
522.271	427.97
522.477	410.53
522.683	440.18
522.889	396.39
523.095	396.58
523.301	389.03
523.507	367.52
523.713	396.78
523.919	386.7
524.125	439.98
524.331	388.06
524.537	437.85
524.742	400.46
524.948	424.68
525.154	430.68
525.36	526.59
525.566	399.88
525.772	470.79
525.977	400.07
526.183	449.28
526.389	473.11
526.595	404.92
526.8	427.58
527.006	398.72
527.212	391.55
527.417	357.25
527.623	369.07
527.829	419.83
528.034	422.35
528.24	412.67
528.446	411.31
528.651	459.36
528.857	441.73
529.062	493.46
529.268	444.63
529.473	444.83
529.679	408.02
529.884	481.64
530.09	469.43
530.295	497.14
530.501	473.89
530.706	451.03
530.912	453.93
531.117	467.3
531.323	474.47
531.528	484.55
531.733	478.15
531.939	406.85
532.144	455.29
532.35	464.4
532.555	491.13
532.76	508.38
532.966	497.72
533.171	498.69
533.376	484.16
533.581	423.71
533.787	466.72
533.992	486.48
534.197	553.33
534.402	476.99
534.607	492.49
534.813	563.98
535.018	464.78
535.223	451.41
535.428	480.09
535.633	519.03
535.838	506.05
536.043	475.63
536.249	585.68
536.454	480.48
536.659	507.99
536.864	471.95
537.069	461.1
537.274	523.3
537.479	491.91
537.684	493.65
537.889	475.05
538.094	567.47
538.299	510.7
538.504	557.78
538.708	523.49
538.913	510.31
539.118	490.16
539.323	526.2
539.528	485.13
539.733	516.71
539.938	515.35
540.142	515.93
540.347	496.95
540.552	489.78
540.757	522.91
540.962	500.05
541.166	455.29
541.371	468.08
541.576	527.95
541.781	424.29
541.985	522.71
542.19	555.84
542.395	601.76
542.599	560.49
542.804	553.91
543.008	541.31
543.213	502.95
543.418	486.87
543.622	511.86
543.827	504.7
544.031	557.78
544.236	564.18
544.44	507.41
544.645	570.76
544.849	527.95
545.054	551.97
545.258	606.22
545.463	579.87
545.667	502.76
545.872	564.95
546.076	570.57
546.281	531.05
546.485	517.87
546.689	529.88
546.894	575.99
547.098	510.7
547.302	505.47
547.507	538.79
547.711	549.84
547.915	577.93
548.119	497.72
548.324	522.33
548.528	575.61
548.732	532.98
548.936	576.38
549.141	590.53
549.345	503.34
549.549	553.91
549.753	546.35
549.957	593.04
550.161	585.68
550.366	555.26
550.57	525.23
550.774	536.47
550.978	528.91
551.182	581.42
551.386	558.94
551.59	513.41
551.794	518.26
551.998	553.91
552.202	536.86
552.406	505.08
552.61	529.88
552.814	548.48
553.018	592.66
553.222	552.74
553.426	524.26
553.63	599.83
553.833	533.18
554.037	507.02
554.241	567.08
554.445	552.16
554.649	524.85
554.853	509.73
555.056	551.58
555.26	556.62
555.464	571.34
555.668	553.91
555.871	576.77
556.075	591.88
556.279	522.91
556.483	491.52
556.686	526.59
556.89	536.47
557.094	570.18
557.297	493.85
557.501	554.29
557.704	502.76
557.908	579.68
558.112	527.36
558.315	596.34
558.519	552.94
558.722	536.66
558.926	522.52
559.129	495.01
559.333	485.71
559.536	499.46
559.74	510.12
559.943	508.57
560.147	488.42
560.35	515.93
560.553	500.05
560.757	457.03
560.96	568.24
561.164	461.88
561.367	575.61
561.57	510.51
561.774	514.96
561.977	496.56
562.18	460.91
562.384	589.36
562.587	513.03
562.79	464.59
562.993	511.67
563.197	537.24
563.4	563.01
563.603	550.61
563.806	577.74
564.009	471.56
564.212	544.99
564.416	465.17
564.619	521.55
564.822	469.82
565.025	552.36
565.228	505.86
565.431	505.08
565.634	436.69
565.837	454.71
566.04	482.22
566.243	468.27
566.446	402.78
566.649	503.92
566.852	438.05
567.055	468.85
567.258	516.13
567.461	551.39
567.664	518.45
567.867	429.91
568.07	509.15
568.273	470.79
568.475	520.2
568.678	483.58
568.881	473.11
569.084	510.51
569.287	429.91
569.489	434.56
569.692	490.94
569.895	479.9
570.098	427.39
570.3	444.63
570.503	386.12
570.706	404.92
570.909	407.82
571.111	408.6
571.314	410.53
571.516	410.73
571.719	444.83
571.922	421.97
572.124	405.5
572.327	440.57
572.529	375.27
572.732	369.46
572.935	416.35
573.137	443.86
573.34	403.17
573.542	427.97
573.745	424.29
573.947	416.54
574.15	411.12
574.352	400.07
574.554	456.84
574.757	377.4
574.959	386.51
575.162	381.08
575.364	412.47
575.566	471.37
575.769	374.3
575.971	420.03
576.173	361.9
576.376	411.12
576.578	436.3
576.78	463.23
576.982	349.5
577.185	382.25
577.387	334.78
577.589	350.09
577.791	440.76
577.993	416.35
578.196	348.34
578.398	428.94
578.6	452.96
578.802	328.97
579.004	362.87
579.206	357.45
579.408	365.97
579.61	385.15
579.812	404.53
580.014	369.07
580.216	354.15
580.418	389.03
580.62	339.43
580.822	297
581.024	384.18
581.226	406.08
581.428	369.46
581.63	414.99
581.832	335.55
582.034	401.43
582.236	379.92
582.438	380.12
582.64	423.13
582.841	455.29
583.043	449.48
583.245	390
583.447	375.85
583.649	376.24
583.85	389.42
584.052	414.99
584.254	340.59
584.456	398.52
584.657	355.51
584.859	375.27
585.061	367.72
585.262	354.54
585.464	356.87
585.666	425.65
585.867	377.6
586.069	425.45
586.27	392.32
586.472	382.83
586.674	350.28
586.875	345.82
587.077	353.96
587.278	387.48
587.48	340.4
587.681	437.85
587.883	394.26
588.084	312.11
588.285	370.43
588.487	363.26
588.688	380.7
588.89	345.24
589.091	355.7
589.292	362.68
589.494	347.57
589.695	342.14
589.896	304.55
590.098	277.43
590.299	365.39
590.5	312.89
590.702	331.49
590.903	330.9
591.104	397.36
591.305	338.85
591.507	394.07
591.708	371.01
591.909	290.41
592.11	406.08
592.311	360.74
592.512	325.29
592.714	316.76
592.915	327.61
593.116	313.66
593.317	321.41
593.518	352.22
593.719	325.48
593.92	390.77
594.121	362.48
594.322	322.19
594.523	351.25
594.724	281.89
594.925	321.99
595.126	360.35
595.327	351.25
595.528	357.06
595.729	370.23
595.929	369.85
596.13	350.09
596.331	334.97
596.532	347.37
596.733	377.79
596.934	345.82
597.135	371.2
597.335	364.62
597.536	304.75
597.737	357.06
597.938	320.83
598.138	347.18
598.339	340.01
598.54	355.32
598.74	344.08
598.941	339.62
599.142	367.13
599.342	355.7
599.543	297.58
599.744	339.24
599.944	316.18
600.145	313.85
600.345	351.25
600.546	426.03
600.746	381.08
600.947	397.75
601.147	341.75
601.348	376.82
601.548	314.63
601.749	321.41
601.949	304.36
602.15	316.57
602.35	337.3
602.551	398.72
602.751	306.69
602.951	311.34
603.152	287.7
603.352	331.1
603.552	321.6
603.753	330.32
603.953	345.63
604.153	342.72
604.354	307.85
604.554	326.06
604.754	297.39
604.954	313.08
605.155	346.79
605.355	303.2
605.555	354.54
605.755	381.47
605.955	334
606.155	359.97
606.356	329.55
606.556	352.41
606.756	338.07
606.956	296.03
607.156	375.85
607.356	288.09
607.556	318.89
607.756	319.09
607.956	387.09
608.156	330.71
608.356	309.59
608.556	345.63
608.756	333.81
608.956	296.03
609.156	328.39
609.356	303.39
609.556	297.97
609.755	346.6
609.955	303.97
610.155	324.32
610.355	342.53
610.555	304.75
610.755	348.15
610.954	276.65
611.154	335.94
611.354	353.77
611.554	314.24
611.753	306.69
611.953	287.7
612.153	346.02
612.352	345.63
612.552	285.95
612.752	253.79
612.951	313.27
613.151	314.05
613.351	280.72
613.55	298.74
613.75	339.43
613.949	331.87
614.149	341.56
614.348	316.18
614.548	271.81
614.747	272
614.947	290.8
615.146	260.38
615.346	314.44
615.545	273.17
615.745	294.87
615.944	338.46
616.144	288.28
616.343	337.1
616.542	296.61
616.742	299.13
616.941	310.37
617.14	258.64
617.34	301.84
617.539	287.5
617.738	286.34
617.938	366.17
618.137	288.28
618.336	244.69
618.535	316.18
618.734	292.35
618.934	279.56
619.133	290.22
619.332	316.95
619.531	260.77
619.73	286.34
619.929	351.44
620.128	324.51
620.328	327.22
620.527	250.89
620.726	267.16
620.925	299.71
621.124	232.67
621.323	303.97
621.522	250.89
621.721	269.49
621.92	269.1
622.119	300.68
622.318	253.6
622.517	266.39
622.715	275.1
622.914	230.74
623.113	251.86
623.312	245.46
623.511	274.52
623.71	260.77
623.909	255.73
624.107	333.81
624.306	218.72
624.505	279.75
624.704	249.92
624.902	293.32
625.101	311.72
625.3	283.44
625.499	246.24
625.697	272.59
625.896	253.99
626.095	285.37
626.293	234.22
626.492	247.98
626.69	288.47
626.889	254.76
627.088	272.59
627.286	217.17
