Data from oakcork_FLMT105791__27__17-27-02-066.txt Node

Date: Mon Mar 20 17:27:02 GMT 2023
User: antho
Spectrometer: FLMT10579
Trigger mode: 0
Integration Time (sec): 1.000000E-1
Scans to average: 10
Electric dark correction enabled: true
Nonlinearity correction enabled: false
Boxcar width: 0
XAxis mode: Wavelengths
Number of Pixels in Spectrum: 3648
>>>>>Begin Spectral Data<<<<<
345.248	-162.62
345.464	-162.62
345.681	-162.62
345.898	-160.68
346.114	-150.02
346.331	-38.23
346.548	53.02
346.764	-19.83
346.981	-0.26
347.197	-27.58
347.414	-10.91
347.631	5.75
347.847	68.33
348.064	-17.7
348.28	30.74
348.497	-44.82
348.713	1.49
348.93	29.19
349.146	14.08
349.363	5.75
349.579	18.34
349.796	31.32
350.012	-2.97
350.229	27.64
350.445	-17.5
350.661	-9.95
350.878	-23.51
351.094	21.44
351.311	6.91
351.527	14.08
351.743	-25.83
351.96	32.29
352.176	36.55
352.392	15.44
352.609	18.54
352.825	0.71
353.041	11.95
353.257	-6.46
353.474	18.92
353.69	18.73
353.906	29.58
354.122	-25.06
354.339	49.34
354.555	19.7
354.771	15.44
354.987	49.73
355.203	69.49
355.42	9.43
355.636	-18.86
355.852	0.32
356.068	17.37
356.284	-23.9
356.5	47.4
356.716	14.27
356.932	14.47
357.148	47.98
357.364	-19.83
357.58	46.43
357.796	45.85
358.012	56.9
358.228	34.23
358.444	-34.16
358.66	35
358.876	45.27
359.092	-5.3
359.308	31.71
359.524	27.06
359.74	-0.26
359.956	-0.06
360.172	11.56
360.388	59.03
360.604	14.27
360.819	102.62
361.035	25.7
361.251	31.71
361.467	-21.18
361.683	53.6
361.898	29.38
362.114	28.8
362.33	11.95
362.546	54.57
362.762	23.38
362.977	-0.06
363.193	-3.55
363.409	37.91
363.624	-9.75
363.84	16.6
364.056	1.1
364.271	17.57
364.487	12.53
364.703	9.04
364.918	3.62
365.134	10.98
365.35	-12.27
365.565	80.73
365.781	32.68
365.996	6.33
366.212	79.37
366.427	45.47
366.643	8.27
366.858	34.62
367.074	8.85
367.289	68.33
367.505	113.67
367.72	-28.16
367.936	4.78
368.151	49.53
368.367	36.94
368.582	46.24
368.798	29.19
369.013	51.08
369.228	27.84
369.444	42.56
369.659	90.03
369.874	42.75
370.09	67.17
370.305	-33.58
370.52	0.9
370.736	79.18
370.951	22.41
371.166	58.64
371.381	92.35
371.597	67.75
371.812	10.79
372.027	-8.4
372.242	26.87
372.458	86.73
372.673	4
372.888	22.8
373.103	30.35
373.318	108.63
373.533	35.58
373.749	42.17
373.964	-26.8
374.179	68.13
374.394	-13.63
374.609	73.95
374.824	-7.81
375.039	83.44
375.254	7.1
375.469	81.89
375.684	20.86
375.899	55.54
376.114	26.87
376.329	33.45
376.544	70.46
376.759	24.15
376.974	4.59
377.189	16.79
377.404	21.05
377.619	17.37
377.834	7.69
378.049	4.39
378.264	-21.18
378.478	46.05
378.693	16.6
378.908	53.99
379.123	38.1
379.338	87.7
379.553	25.32
379.767	24.35
379.982	42.17
380.197	46.05
380.412	30.93
380.626	38.1
380.841	97.78
381.056	74.33
381.271	85.18
381.485	-1.81
381.7	26.67
381.915	34.03
382.129	17.95
382.344	47.4
382.559	23.96
382.773	77.24
382.988	-20.99
383.202	33.84
383.417	4.2
383.632	120.64
383.846	41.01
384.061	23.19
384.275	21.05
384.49	51.86
384.704	77.43
384.919	37.13
385.133	32.68
385.348	69.68
385.562	-3.16
385.777	101.27
385.991	13.5
386.206	40.04
386.42	3.62
386.634	90.8
386.849	47.79
387.063	54.57
387.277	-14.98
387.492	17.57
387.706	25.9
387.92	30.16
388.135	65.81
388.349	54.18
388.563	47.98
388.778	52.05
388.992	45.47
389.206	35.39
389.42	111.73
389.635	71.62
389.849	57.67
390.063	90.03
390.277	47.02
390.491	120.25
390.706	74.53
390.92	68.91
391.134	61.74
391.348	73.95
391.562	5.55
391.776	74.33
391.99	25.7
392.205	59.42
392.419	23.38
392.633	45.66
392.847	89.06
393.061	31.13
393.275	95.84
393.489	41.01
393.703	46.82
393.917	88.67
394.131	17.95
394.345	71.62
394.559	82.08
394.773	30.74
394.986	61.93
395.2	50.31
395.414	82.67
395.628	40.62
395.842	72.98
396.056	39.46
396.27	4.2
396.484	53.8
396.697	96.42
396.911	100.88
397.125	79.76
397.339	84.41
397.553	78.21
397.766	138.08
397.98	87.51
398.194	107.08
398.408	90.22
398.621	123.93
398.835	121.61
399.049	90.8
399.262	130.71
399.476	98.55
399.69	120.25
399.903	133.04
400.117	83.44
400.331	105.53
400.544	69.3
400.758	180.9
400.971	107.85
401.185	135.17
401.398	61.74
401.612	154.16
401.826	105.53
402.039	123.74
402.253	76.27
402.466	115.41
402.68	100.88
402.893	99.91
403.106	106.5
403.32	102.04
403.533	92.16
403.747	104.56
403.96	104.56
404.174	134.78
404.387	90.42
404.6	112.89
404.814	164.04
405.027	110.95
405.24	94.48
405.454	102.23
405.667	142.34
405.88	73.37
406.094	116.18
406.307	130.91
406.52	130.52
406.733	89.25
406.947	64.07
407.16	170.43
407.373	123.35
407.586	71.04
407.799	88.48
408.012	141.56
408.226	115.22
408.439	177.99
408.652	47.21
408.865	113.28
409.078	167.72
409.291	157.65
409.504	84.8
409.717	150.09
409.93	122.77
410.143	139.43
410.357	73.37
410.57	96.81
410.783	108.63
410.996	113.47
411.209	130.13
411.421	152.61
411.634	128.2
411.847	95.84
412.06	113.28
412.273	113.67
412.486	114.25
412.699	194.65
412.912	120.64
413.125	167.91
413.338	116.96
413.55	147.38
413.763	102.62
413.976	160.55
414.189	116.57
414.402	124.32
414.615	193.49
414.827	100.88
415.04	149.7
415.253	153.96
415.466	148.73
415.678	205.31
415.891	136.14
416.104	141.37
416.316	116.38
416.529	112.7
416.742	160.36
416.954	173.15
417.167	158.42
417.38	142.73
417.592	184.58
417.805	134.01
418.017	92.16
418.23	177.21
418.442	129.36
418.655	159.58
418.868	131.68
419.08	170.63
419.293	214.8
419.505	160.36
419.718	156.87
419.93	180.31
420.142	115.41
420.355	199.5
420.567	205.89
420.78	169.85
420.992	147.96
421.205	210.73
421.417	132.65
421.629	132.46
421.842	122.19
422.054	113.86
422.266	185.16
422.479	167.53
422.691	141.76
422.903	164.43
423.115	124.9
423.328	140.01
423.54	160.36
423.752	180.12
423.964	119.67
424.177	176.44
424.389	151.83
424.601	250.84
424.813	175.28
425.025	202.4
425.238	199.3
425.45	190.2
425.662	152.41
425.874	452.14
426.086	148.54
426.298	165.59
426.51	166.56
426.722	171.98
426.934	170.63
427.146	212.09
427.358	104.75
427.57	209.57
427.782	130.33
427.994	163.85
428.206	137.5
428.418	125.1
428.63	175.86
428.842	174.7
429.054	161.33
429.266	185.16
429.478	141.95
429.69	162.3
429.902	134.59
430.114	190.97
430.325	181.09
430.537	111.15
430.749	168.11
430.961	101.65
431.173	138.85
431.384	152.22
431.596	107.47
431.808	162.68
432.02	193.68
432.231	200.27
432.443	238.44
432.655	189.42
432.867	128
433.078	178.96
433.29	288.43
433.502	244.64
433.713	244.83
433.925	214.8
434.136	237.47
434.348	171.98
434.56	135.17
434.771	247.16
434.983	125.87
435.194	167.33
435.406	162.88
435.617	226.43
435.829	243.67
436.04	240.38
436.252	252.39
436.463	262.27
436.675	221.78
436.886	220.42
437.098	213.06
437.309	289.59
437.521	201.82
437.732	211.51
437.943	213.06
438.155	228.36
438.366	158.61
438.578	286.88
438.789	216.54
439	259.36
439.211	216.16
439.423	243.09
439.634	214.41
439.845	270.6
440.057	247.93
440.268	261.49
440.479	203.18
440.69	235.73
440.902	194.26
441.113	211.31
441.324	217.51
441.535	235.14
441.746	321.36
441.957	204.73
442.168	246.96
442.38	267.89
442.591	289.01
442.802	225.46
443.013	221.97
443.224	290.94
443.435	255.68
443.646	246.96
443.857	251.42
444.068	228.56
444.279	263.24
444.49	323.88
444.701	275.83
444.912	358.37
445.123	310.12
445.334	280.48
445.545	295.59
445.756	272.93
445.967	256.65
446.178	266.92
446.388	294.24
446.599	304.7
446.81	306.06
447.021	252
447.232	297.14
447.443	321.17
447.653	273.89
447.864	339.19
448.075	301.21
448.286	324.66
448.496	283.39
448.707	320.59
448.918	294.62
449.129	372.12
449.339	259.75
449.55	297.92
449.761	265.37
449.971	330.27
450.182	287.26
450.393	308.96
450.603	294.82
450.814	340.35
451.024	338.02
451.235	366.7
451.446	352.36
451.656	347.71
451.867	284.36
452.077	336.47
452.288	377.36
452.498	391.3
452.709	289.39
452.919	344.61
453.13	301.6
453.34	351.59
453.55	270.02
453.761	343.45
453.971	303.54
454.182	345.19
454.392	343.26
454.602	388.01
454.813	332.41
455.023	369.61
455.233	283.58
455.444	326.79
455.654	255.49
455.864	326.98
456.075	293.85
456.285	302.37
456.495	330.47
456.705	324.46
456.916	375.03
457.126	390.34
457.336	329.31
457.546	273.89
457.756	317.29
457.967	386.27
458.177	314.97
458.387	329.5
458.597	293.85
458.807	323.69
459.017	312.64
459.227	354.3
459.437	336.86
459.647	357.4
459.857	360.31
460.068	322.72
460.278	379.68
460.488	327.56
460.698	443.81
460.908	374.06
461.117	307.41
461.327	307.8
461.537	358.37
461.747	348.29
461.957	353.33
462.167	437.22
462.377	389.37
462.587	385.3
462.797	392.66
463.007	360.31
463.216	402.54
463.426	401.77
463.636	366.12
463.846	345.39
464.056	354.69
464.265	419.2
464.475	321.17
464.685	367.28
464.895	385.1
465.104	364.96
465.314	404.87
465.524	348.68
465.733	336.09
465.943	453.5
466.153	452.53
466.362	396.73
466.572	383.17
466.782	380.45
466.991	405.45
467.201	437.03
467.41	357.4
467.62	402.74
467.829	387.04
468.039	416.88
468.249	386.07
468.458	394.4
468.668	415.72
468.877	432.19
469.086	449.43
469.296	460.67
469.505	369.41
469.715	489.92
469.924	426.37
470.134	453.11
470.343	440.52
470.552	392.08
470.762	422.89
470.971	397.12
471.18	431.99
471.39	397.31
471.599	413.39
471.808	420.95
472.018	388.98
472.227	474.03
472.436	494.96
472.645	447.49
472.855	409.32
473.064	480.23
473.273	446.91
473.482	458.92
473.691	500
473.901	477.52
474.11	467.83
474.319	537.78
474.528	450.59
474.737	494.96
474.946	499.42
475.155	489.34
475.364	504.26
475.573	500.38
475.783	497.28
475.992	511.23
476.201	544.95
476.41	470.74
476.619	452.14
476.828	469.58
477.037	484.5
477.245	449.62
477.454	547.66
477.663	520.15
477.872	503.68
478.081	581.76
478.29	506.2
478.499	611.98
478.708	539.52
478.917	622.25
479.125	543.59
479.334	534.1
479.543	509.68
479.752	555.8
479.961	555.8
480.169	597.45
480.378	554.83
480.587	697.62
480.796	585.25
481.004	585.05
481.213	612.95
481.422	593.19
481.63	579.63
481.839	596.29
482.048	640.85
482.256	582.15
482.465	629.61
482.674	637.95
482.882	607.33
483.091	685.8
483.299	605.78
483.508	669.91
483.716	608.3
483.925	642.59
484.134	617.99
484.342	609.85
484.551	691.81
484.759	656.74
484.967	678.44
485.176	694.52
485.384	654.03
485.593	636.78
485.801	652.09
486.01	630
486.218	599.2
486.426	577.88
486.635	578.27
486.843	564.51
487.051	590.28
487.26	591.64
487.468	624
487.676	688.32
487.885	636.78
488.093	702.46
488.301	671.66
488.509	681.73
488.717	684.44
488.926	671.66
489.134	651.51
489.342	668.94
489.55	634.46
489.758	671.27
489.967	649.96
490.175	773.37
490.383	662.55
490.591	770.08
490.799	713.12
491.007	759.04
491.215	733.85
491.423	715.25
491.631	705.76
491.839	749.35
492.047	761.75
492.255	664.29
492.463	665.65
492.671	690.45
492.879	756.13
493.087	718.93
493.295	748.96
493.503	751.48
493.711	785.97
493.919	796.43
494.127	772.41
494.334	773.57
494.542	720.87
494.75	752.84
494.958	785
495.166	796.43
495.374	787.32
495.581	764.27
495.789	790.04
495.997	834.99
496.205	769.11
496.412	754.19
496.62	765.43
496.828	788.29
497.035	813.48
497.243	835.95
497.451	788.29
497.658	800.5
497.866	821.23
498.074	863.08
498.281	796.04
498.489	864.82
498.696	813.09
498.904	801.86
499.112	776.67
499.319	861.72
499.527	820.65
499.734	836.73
499.942	782.87
500.149	793.52
500.357	830.72
500.564	778.99
500.771	801.27
500.979	764.46
501.186	785.77
501.394	838.86
501.601	803.79
501.808	833.24
502.016	804.18
502.223	817.55
502.43	801.47
502.638	781.32
502.845	777.25
503.052	862.11
503.26	830.92
503.467	886.33
503.674	808.64
503.881	838.47
504.089	931.47
504.296	865.4
504.503	773.76
504.71	825.1
504.917	807.86
505.125	835.57
505.332	827.43
505.539	859.98
505.746	895.82
505.953	899.5
506.16	880.71
506.367	949.68
506.574	946.2
506.781	919.07
506.988	851.84
507.195	892.53
507.402	867.73
507.609	943.1
507.816	840.99
508.023	869.09
508.23	851.84
508.437	832.66
508.644	872.57
508.851	931.08
509.058	893.69
509.265	894.66
509.472	935.35
509.679	987.27
509.885	908.03
510.092	945.42
510.299	906.67
510.506	896.4
510.713	952.01
510.92	901.83
511.126	926.82
511.333	944.07
511.54	954.72
511.746	996.18
511.953	979.91
512.16	1014.78
512.367	975.84
512.573	947.36
512.78	939.61
512.987	936.9
513.193	960.73
513.4	882.65
513.606	899.31
513.813	936.32
514.02	912.29
514.226	1018.66
514.433	989.6
514.639	904.54
514.846	943.68
515.052	944.45
515.259	954.14
515.465	962.47
515.672	966.73
515.878	1023.31
516.085	967.12
516.291	1000.25
516.497	944.65
516.704	958.02
516.91	855.52
517.117	867.34
517.323	809.22
517.529	862.89
517.736	895.44
517.942	884.39
518.148	879.35
518.354	922.37
518.561	930.7
518.767	910.74
518.973	958.6
519.179	973.13
519.386	937.28
519.592	924.11
519.798	938.25
520.004	1065.93
520.21	967.12
520.417	1038.03
520.623	1059.15
520.829	1073.3
521.035	1035.51
521.241	1055.86
521.447	1086.47
521.653	1118.63
521.859	1016.53
522.065	1079.69
522.271	1158.93
522.477	1094.41
522.683	1139.17
522.889	1090.73
523.095	1101.19
523.301	1087.05
523.507	1049.27
523.713	1083.37
523.919	1060.9
524.125	1131.23
524.331	1093.25
524.537	1186.64
524.742	1153.7
524.948	1197.68
525.154	1199.23
525.36	1261.42
525.566	1155.83
525.772	1234.49
525.977	1131.61
526.183	1183.34
526.389	1180.63
526.595	1124.83
526.8	1148.66
527.006	1080.46
527.212	1044.62
527.417	1067.68
527.623	1043.46
527.829	1116.69
528.034	1108.36
528.24	1132
528.446	1122.12
528.651	1211.24
528.857	1218.61
529.062	1256.58
529.268	1219.96
529.473	1214.73
529.679	1208.92
529.884	1296.3
530.09	1271.5
530.295	1256
530.501	1254.45
530.706	1237.01
530.912	1200.97
531.117	1273.63
531.323	1225.58
531.528	1267.43
531.733	1260.65
531.939	1241.66
532.144	1271.69
532.35	1264.52
532.555	1301.72
532.76	1280.6
532.966	1252.12
533.171	1264.33
533.376	1241.86
533.581	1219.57
533.787	1262
533.992	1293.2
534.197	1303.66
534.402	1273.05
534.607	1253.48
534.813	1367.4
535.018	1275.76
535.223	1306.37
535.428	1313.35
535.633	1320.52
535.838	1335.24
536.043	1333.69
536.249	1404.6
536.454	1332.14
536.659	1340.08
536.864	1330.01
537.069	1311.8
537.274	1357.52
537.479	1310.64
537.684	1336.4
537.889	1293.59
538.094	1421.46
538.299	1299.79
538.504	1390.65
538.708	1335.44
538.913	1358.1
539.118	1356.55
539.323	1356.17
539.528	1307.54
539.733	1334.85
539.938	1397.24
540.142	1379.03
540.347	1336.4
540.552	1320.13
540.757	1322.65
540.962	1321.1
541.166	1271.69
541.371	1282.15
541.576	1286.42
541.781	1232.75
541.985	1336.21
542.19	1315.48
542.395	1394.33
542.599	1426.5
542.804	1353.84
543.008	1422.43
543.213	1344.35
543.418	1325.55
543.622	1337.37
543.827	1319.74
544.031	1394.92
544.236	1385.03
544.44	1397.43
544.645	1425.92
544.849	1362.95
545.054	1395.88
545.258	1471.64
545.463	1477.45
545.667	1381.93
545.872	1432.89
546.076	1437.54
546.281	1431.34
546.485	1394.53
546.689	1419.91
546.894	1464.08
547.098	1405.57
547.302	1362.95
547.507	1409.64
547.711	1447.42
547.915	1441.22
548.119	1342.99
548.324	1349.58
548.528	1469.51
548.732	1398.98
548.936	1439.09
549.141	1431.15
549.345	1409.06
549.549	1396.27
549.753	1429.21
549.957	1506.51
550.161	1486.56
550.366	1444.32
550.57	1410.61
550.774	1448.78
550.978	1434.25
551.182	1449.16
551.386	1410.03
551.59	1417.78
551.794	1400.53
551.998	1443.35
552.202	1407.51
552.406	1381.55
552.61	1428.82
552.814	1449.16
553.018	1486.56
553.222	1414.29
553.426	1429.21
553.63	1487.33
553.833	1420.3
554.037	1365.85
554.241	1442.38
554.445	1445.29
554.649	1459.43
554.853	1414.87
555.056	1472.03
555.26	1476.68
555.464	1428.43
555.668	1465.44
555.871	1465.25
556.075	1447.61
556.279	1404.6
556.483	1359.07
556.686	1433.66
556.89	1416.42
557.094	1455.36
557.297	1355.39
557.501	1444.32
557.704	1339.12
557.908	1417
558.112	1374.57
558.315	1483.26
558.519	1376.32
558.722	1393.17
558.926	1367.79
559.129	1334.85
559.333	1315.29
559.536	1350.55
559.74	1301.14
559.943	1319.16
560.147	1285.45
560.35	1342.99
560.553	1320.52
560.757	1278.09
560.96	1367.98
561.164	1334.27
561.367	1411.19
561.57	1362.75
561.774	1397.43
561.977	1327.69
562.18	1319.16
562.384	1415.65
562.587	1319.16
562.79	1336.6
562.993	1323.42
563.197	1339.31
563.4	1389.68
563.603	1393.56
563.806	1405.96
564.009	1289.52
564.212	1376.12
564.416	1276.92
564.619	1351.71
564.822	1268.01
565.025	1347.64
565.228	1271.5
565.431	1307.34
565.634	1252.32
565.837	1287.97
566.04	1277.5
566.243	1252.12
566.446	1148.86
566.649	1276.73
566.852	1218.8
567.055	1244.37
567.258	1258.32
567.461	1319.55
567.664	1291.65
567.867	1243.21
568.07	1261.81
568.273	1259.1
568.475	1304.63
568.678	1245.92
568.881	1228.49
569.084	1275.18
569.287	1137.81
569.489	1170.17
569.692	1254.45
569.895	1212.79
570.098	1181.99
570.3	1139.94
570.503	1135.1
570.706	1128.71
570.909	1121.54
571.111	1125.41
571.314	1148.28
571.516	1122.51
571.719	1150.79
571.922	1141.69
572.124	1152.93
572.327	1162.23
572.529	1107.59
572.732	1099.84
572.935	1155.83
573.137	1214.15
573.34	1127.74
573.542	1166.87
573.745	1145.18
573.947	1144.98
574.15	1108.56
574.352	1101.19
574.554	1180.24
574.757	1084.14
574.959	1084.14
575.162	1104.29
575.364	1088.02
575.566	1181.99
575.769	1049.66
575.971	1113.21
576.173	1007.81
576.376	1067.29
576.578	1105.84
576.78	1125.99
576.982	1023.5
577.185	1097.51
577.387	1033.77
577.589	1043.65
577.791	1084.34
577.993	1093.06
578.196	1068.84
578.398	1090.34
578.6	1090.73
578.802	1020.6
579.004	1034.35
579.206	1021.56
579.408	1053.73
579.61	1021.18
579.812	1100.61
580.014	1051.98
580.216	1019.24
580.418	1059.15
580.62	1016.72
580.822	978.75
581.024	1023.11
581.226	1113.4
581.428	1047.91
581.63	1131.42
581.832	1045.59
582.034	1098.29
582.236	1069.61
582.438	1076.59
582.64	1107.2
582.841	1121.73
583.043	1158.74
583.245	1085.69
583.447	1087.63
583.649	1081.82
583.85	1109.72
584.052	1137.04
584.254	1019.63
584.456	1139.56
584.657	1023.5
584.859	1067.68
585.061	1063.8
585.262	1049.66
585.464	1001.8
585.666	1106.62
585.867	1033.38
586.069	1117.47
586.27	1035.9
586.472	1030.48
586.674	1049.27
586.875	1013.04
587.077	1009.94
587.278	1031.45
587.48	1025.83
587.681	1115.14
587.883	1049.85
588.084	1002
588.285	1013.04
588.487	960.53
588.688	978.75
588.89	984.75
589.091	924.69
589.292	959.18
589.494	914.03
589.695	901.64
589.896	873.15
590.098	839.64
590.299	895.24
590.5	859.4
590.702	901.64
590.903	899.31
591.104	980.88
591.305	977.39
591.507	994.44
591.708	953.37
591.909	915.39
592.11	998.9
592.311	962.08
592.512	955.88
592.714	897.76
592.915	886.52
593.116	940.19
593.317	944.84
593.518	908.22
593.719	940.38
593.92	950.46
594.121	981.07
594.322	940.97
594.523	964.6
594.724	902.02
594.925	936.51
595.126	943.68
595.327	947.36
595.528	953.17
595.729	945.03
595.929	929.53
596.13	954.53
596.331	946
596.532	954.72
596.733	996.96
596.934	936.9
597.135	949.88
597.335	964.6
597.536	930.7
597.737	986.5
597.938	917.33
598.138	958.21
598.339	947.75
598.54	956.85
598.74	953.95
598.941	949.68
599.142	1003.35
599.342	968.67
599.543	894.08
599.744	940.19
599.944	923.14
600.145	894.66
600.345	936.32
600.546	1007.81
600.746	961.31
600.947	1025.83
601.147	938.83
601.348	979.91
601.548	915.97
601.749	959.76
601.949	889.43
602.15	907.83
602.35	944.84
602.551	946.78
602.751	896.02
602.951	918.49
603.152	875.48
603.352	918.88
603.552	958.79
603.753	1001.41
603.953	936.9
604.153	925.47
604.354	928.76
604.554	943.48
604.754	938.25
604.954	892.72
605.155	956.08
605.355	911.52
605.555	985.14
605.755	978.55
605.955	933.41
606.155	983.59
606.356	909
606.556	950.27
606.756	945.42
606.956	886.72
607.156	983.01
607.356	884
607.556	926.24
607.756	917.72
607.956	943.68
608.156	916.17
608.356	871.41
608.556	926.63
608.756	912.48
608.956	891.37
609.156	909.19
609.356	863.08
609.556	879.94
609.755	902.6
609.955	885.36
610.155	905.7
610.355	904.35
610.555	877.03
610.755	907.06
610.954	832.27
611.154	905.9
611.354	938.83
611.554	870.64
611.753	852.42
611.953	831.3
612.153	891.95
612.352	888.27
612.552	819.29
612.752	795.46
612.951	839.44
613.151	849.32
613.351	816.77
613.55	862.3
613.75	891.95
613.949	863.27
614.149	847.97
614.348	850.87
614.548	830.72
614.747	825.69
614.947	846.61
615.146	763.69
615.346	874.7
615.545	854.36
615.745	855.33
615.944	865.4
616.144	857.27
616.343	832.66
616.542	822.78
616.742	833.44
616.941	803.02
617.14	765.04
617.34	811.93
617.539	802.44
617.738	768.92
617.938	894.47
618.137	826.27
618.336	784.81
618.535	838.67
618.734	831.3
618.934	839.05
619.133	842.74
619.332	820.45
619.531	776.67
619.73	798.95
619.929	844.09
620.128	857.46
620.328	884
620.527	781.9
