Data from oakcork_FLMT105791__297__17-34-43-052.txt Node

Date: Mon Mar 20 17:34:43 GMT 2023
User: antho
Spectrometer: FLMT10579
Trigger mode: 0
Integration Time (sec): 1.000000E-1
Scans to average: 10
Electric dark correction enabled: true
Nonlinearity correction enabled: false
Boxcar width: 0
XAxis mode: Wavelengths
Number of Pixels in Spectrum: 3648
>>>>>Begin Spectral Data<<<<<
345.248	-142.65
345.464	-142.65
345.681	-142.65
345.898	-161.44
346.114	-159.31
346.331	14.87
346.548	11.19
346.764	-9.93
346.981	-18.45
347.197	-17.49
347.414	8.48
347.631	-32.6
347.847	46.26
348.064	-5.86
348.28	7.7
348.497	0.92
348.713	-5.09
348.93	28.63
349.146	29.4
349.363	7.9
349.579	21.84
349.796	11.38
350.012	-8.77
350.229	27.66
350.445	-1.21
350.661	-3.15
350.878	6.73
351.094	0.53
351.311	46.26
351.527	10.61
351.743	-6.64
351.96	32.5
352.176	38.51
352.392	13.32
352.609	34.63
352.825	-24.46
353.041	11.58
353.257	-19.42
353.474	28.24
353.69	25.53
353.906	9.06
354.122	-23.88
354.339	45.48
354.555	-9.54
354.771	10.8
354.987	57.3
355.203	55.17
355.42	0.15
355.636	12.35
355.852	-11.09
356.068	-11.87
356.284	-42.29
356.5	29.21
356.716	41.22
356.932	9.25
357.148	31.92
357.364	-14.58
357.58	46.64
357.796	50.91
358.012	51.68
358.228	6.54
358.444	-56.24
358.66	53.62
358.876	24.56
359.092	-16.52
359.308	-11.67
359.524	23.01
359.74	-29.69
359.956	-1.99
360.172	1.31
360.388	24.36
360.604	11.19
360.819	73.58
361.035	5.76
361.251	39.86
361.467	-18.26
361.683	7.7
361.898	34.44
362.114	34.05
362.33	48.97
362.546	54.2
362.762	-12.84
362.977	8.67
363.193	-16.52
363.409	25.53
363.624	-29.69
363.84	16.03
364.056	-20
364.271	17
364.487	40.25
364.703	7.31
364.918	-18.26
365.134	-15.74
365.35	31.73
365.565	124.53
365.781	10.41
365.996	28.24
366.212	61.18
366.427	14.29
366.643	-2.76
366.858	1.5
367.074	-42.87
367.289	59.63
367.505	63.89
367.72	-27.95
367.936	4.41
368.151	33.66
368.367	24.36
368.582	13.51
368.798	-5.28
369.013	44.71
369.228	6.35
369.444	17.97
369.659	45.29
369.874	20.68
370.09	68.15
370.305	-32.4
370.52	-22.72
370.736	42.96
370.951	-31.24
371.166	56.91
371.381	54.59
371.597	31.73
371.812	-24.65
372.027	-17.49
372.242	-0.05
372.458	73.38
372.673	13.71
372.888	20.49
373.103	32.89
373.318	77.26
373.533	15.65
373.749	31.92
373.964	-25.82
374.179	48.39
374.394	-21.94
374.609	59.24
374.824	-6.05
375.039	67.18
375.254	-3.92
375.469	58.46
375.684	22.04
375.899	58.66
376.114	22.04
376.329	20.3
376.544	58.27
376.759	33.28
376.974	-15.16
377.189	19.33
377.404	-6.83
377.619	32.11
377.834	-16.9
378.049	-27.17
378.264	-5.67
378.478	19.13
378.693	-10.51
378.908	18.36
379.123	-3.92
379.338	61.37
379.553	2.47
379.767	29.01
379.982	29.79
380.197	36.18
380.412	4.02
380.626	48.97
380.841	75.13
381.056	50.52
381.271	81.71
381.485	15.06
381.7	-28.92
381.915	29.59
382.129	7.51
382.344	10.8
382.559	36.96
382.773	59.82
382.988	-22.33
383.202	41.03
383.417	-13.61
383.632	80.55
383.846	17.58
384.061	32.31
384.275	-10.51
384.49	15.06
384.704	31.53
384.919	-1.99
385.133	-0.24
385.348	24.94
385.562	-13.42
385.777	85.2
385.991	11.77
386.206	20.1
386.42	9.64
386.634	51.68
386.849	11
387.063	27.66
387.277	-38.8
387.492	-9.35
387.706	-20
387.92	-9.54
388.135	55.94
388.349	32.31
388.563	26.11
388.778	41.61
388.992	60.79
389.206	37.73
389.42	63.11
389.635	13.9
389.849	48.19
390.063	49.55
390.277	29.98
390.491	83.07
390.706	33.66
390.92	67.18
391.134	17.39
391.348	37.93
391.562	-24.27
391.776	17.2
391.99	-33.18
392.205	24.94
392.419	0.73
392.633	8.67
392.847	48.97
393.061	4.21
393.275	61.18
393.489	25.91
393.703	37.73
393.917	62.34
394.131	-5.67
394.345	41.03
394.559	56.91
394.773	-6.64
394.986	25.33
395.2	3.05
395.414	48
395.628	1.5
395.842	11.38
396.056	14.68
396.27	-15.94
396.484	38.51
396.697	38.89
396.911	60.4
397.125	42.38
397.339	56.53
397.553	43.35
397.766	94.5
397.98	66.02
398.194	66.79
398.408	8.67
398.621	44.13
398.835	53.23
399.049	31.92
399.262	71.64
399.476	62.53
399.69	51.29
399.903	92.56
400.117	29.79
400.331	48.97
400.544	0.15
400.758	137.9
400.971	51.49
401.185	43.35
401.398	21.07
401.612	66.99
401.826	45.29
402.039	66.41
402.253	4.6
402.466	57.11
402.68	20.68
402.893	30.76
403.106	53.23
403.32	29.59
403.533	54.98
403.747	43.35
403.96	28.63
404.174	53.81
404.387	24.75
404.6	20.1
404.814	63.31
405.027	20.88
405.24	59.82
405.454	27.08
405.667	93.14
405.88	1.7
406.094	36.96
406.307	79.39
406.52	22.43
406.733	-7.41
406.947	-19.42
407.16	112.52
407.373	66.99
407.586	26.88
407.799	5.38
408.012	65.83
408.226	32.69
408.439	82.29
408.652	14.1
408.865	17.39
409.078	65.44
409.291	67.38
409.504	13.32
409.717	69.7
409.93	84.23
410.143	60.98
410.357	-7.6
410.57	15.45
410.783	25.72
410.996	46.26
411.209	28.04
411.421	102.44
411.634	34.44
411.847	9.83
412.06	44.9
412.273	56.33
412.486	25.33
412.699	118.91
412.912	27.85
413.125	62.92
413.338	60.59
413.55	76.87
413.763	42.38
413.976	50.52
414.189	35.02
414.402	48.39
414.615	87.72
414.827	11.96
415.04	65.63
415.253	93.53
415.466	58.85
415.678	108.06
415.891	38.89
416.104	41.8
416.316	20.68
416.529	54.98
416.742	57.11
416.954	75.32
417.167	56.53
417.38	45.68
417.592	112.52
417.805	20.49
418.017	4.8
418.23	83.84
418.442	21.65
418.655	53.81
418.868	59.63
419.08	97.41
419.293	78.61
419.505	66.79
419.718	74.16
419.93	75.51
420.142	41.03
420.355	80.36
420.567	107.29
420.78	66.6
420.992	58.66
421.205	114.07
421.417	26.88
421.629	26.3
421.842	32.5
422.054	24.94
422.266	65.83
422.479	88.69
422.691	33.47
422.903	96.05
423.115	45.68
423.328	69.12
423.54	78.03
423.752	66.79
423.964	42.19
424.177	60.21
424.389	49.94
424.601	152.62
424.813	49.36
425.025	81.71
425.238	73.96
425.45	42.19
425.662	55.75
425.874	324.87
426.086	50.52
426.298	75.71
426.51	89.27
426.722	50.71
426.934	50.71
427.146	83.26
427.358	22.43
427.57	75.51
427.782	61.56
427.994	77.84
428.206	20.3
428.418	21.07
428.63	74.54
428.842	84.04
429.054	58.66
429.266	83.26
429.478	13.51
429.69	73.19
429.902	30.95
430.114	76.87
430.325	90.24
430.537	56.72
430.749	35.02
430.961	5.57
431.173	47.23
431.384	81.52
431.596	-8.38
431.808	36.18
432.02	44.9
432.231	59.63
432.443	85.59
432.655	41.03
432.867	26.11
433.078	67.57
433.29	130.34
433.502	106.32
433.713	90.63
433.925	84.23
434.136	83.26
434.348	40.06
434.56	25.14
434.771	140.42
434.983	29.79
435.194	56.72
435.406	70.86
435.617	85.78
435.829	114.46
436.04	84.43
436.252	95.66
436.463	117.56
436.675	94.31
436.886	71.44
437.098	54.39
437.309	115.42
437.521	64.47
437.732	96.63
437.943	62.92
438.155	75.51
438.366	26.88
438.578	139.45
438.789	80.74
439	86.94
439.211	60.98
439.423	86.56
439.634	94.69
439.845	84.23
440.057	91.21
440.268	109.42
440.479	50.33
440.69	95.66
440.902	70.67
441.113	76.68
441.324	60.59
441.535	98.96
441.746	114.26
441.957	60.98
442.168	68.93
442.38	100.31
442.591	102.44
442.802	46.26
443.013	41.03
443.224	92.76
443.435	66.79
443.646	70.48
443.857	75.71
444.068	51.88
444.279	51.88
444.49	131.7
444.701	62.34
444.912	173.94
445.123	103.99
445.334	72.61
445.545	89.85
445.756	63.11
445.967	39.28
446.178	100.31
446.388	136.35
446.599	123.56
446.81	107.09
447.021	49.94
447.232	139.45
447.443	114.46
447.653	36.38
447.864	85.98
448.075	82.1
448.286	108.84
448.496	77.06
448.707	134.61
448.918	90.24
449.129	169.48
449.339	66.99
449.55	88.69
449.761	66.02
449.971	134.22
450.182	77.06
450.393	103.99
450.603	59.24
450.814	106.51
451.024	106.51
451.235	120.27
451.446	139.64
451.656	140.61
451.867	79.39
452.077	111.55
452.288	149.14
452.498	152.24
452.709	63.69
452.919	95.28
453.13	83.65
453.34	158.63
453.55	62.34
453.761	107.87
453.971	103.61
454.182	109.22
454.392	116.59
454.602	136.93
454.813	104.96
455.023	147.2
455.233	72.22
455.444	94.5
455.654	59.82
455.864	110.58
456.075	90.43
456.285	68.93
456.495	97.41
456.705	115.23
456.916	151.85
457.126	142.94
457.336	108.64
457.546	51.1
457.756	86.36
457.967	105.35
458.177	72.03
458.387	88.88
458.597	70.48
458.807	102.64
459.017	102.06
459.227	94.89
459.437	99.93
459.647	119.69
459.857	132.47
460.068	69.7
460.278	117.56
460.488	120.07
460.698	148.17
460.908	81.13
461.117	66.99
461.327	80.55
461.537	106.9
461.747	98.96
461.957	65.05
462.167	209.2
462.377	127.05
462.587	74.93
462.797	130.54
463.007	118.33
463.216	119.69
463.426	132.47
463.636	148.75
463.846	71.64
464.056	99.93
464.265	145.07
464.475	120.07
464.685	90.63
464.895	127.24
465.104	123.95
465.314	133.06
465.524	94.5
465.733	79
465.943	210.17
466.153	171.03
466.362	144.68
466.572	131.7
466.782	113.87
466.991	127.63
467.201	196.22
467.41	73.58
467.62	155.92
467.829	118.33
468.039	138.67
468.249	111.74
468.458	112.32
468.668	137.12
468.877	111.36
469.086	169.29
469.296	158.05
469.505	90.24
469.715	184.4
469.924	144.68
470.134	181.11
470.343	170.45
470.552	112.32
470.762	132.28
470.971	93.53
471.18	151.66
471.39	101.67
471.599	96.83
471.808	164.44
472.018	103.41
472.227	147.2
472.436	165.41
472.645	118.14
472.855	130.54
473.064	144.29
473.273	149.91
473.482	153.4
473.691	182.85
473.901	161.54
474.11	132.28
474.319	214.62
474.528	160.18
474.737	165.61
474.946	134.41
475.155	152.82
475.364	194.47
475.573	148.56
475.783	167.16
475.992	182.46
476.201	194.28
476.41	149.91
476.619	136.93
476.828	155.72
477.037	136.16
477.245	159.6
477.454	173.55
477.663	134.61
477.872	123.56
478.081	208.81
478.29	132.28
478.499	246.79
478.708	141.19
478.917	217.72
479.125	164.06
479.334	166.96
479.543	134.8
479.752	153.01
479.961	151.27
480.169	180.33
480.378	120.46
480.587	258.02
480.796	179.75
481.004	156.31
481.213	156.31
481.422	172.19
481.63	152.04
481.839	199.32
482.048	199.51
482.256	182.07
482.465	167.74
482.674	178.59
482.882	180.52
483.091	241.36
483.299	205.13
483.508	177.62
483.716	166.77
483.925	178.39
484.134	163.47
484.342	167.16
484.551	238.45
484.759	222.95
484.967	201.45
485.176	203.97
485.384	194.67
485.593	217.14
485.801	187.31
486.01	193.51
486.218	183.62
486.426	133.64
486.635	179.17
486.843	176.07
487.051	187.31
487.26	180.91
487.468	196.8
487.676	234
487.885	188.08
488.093	188.86
488.301	188.47
488.509	191.76
488.717	231.48
488.926	181.3
489.134	189.05
489.342	201.25
489.55	167.93
489.758	181.3
489.967	147.59
490.175	281.47
490.383	173.16
490.591	256.86
490.799	183.04
491.007	253.18
491.215	210.36
491.423	210.94
491.631	184.59
491.839	234.97
492.047	229.54
492.255	201.25
492.463	170.64
492.671	198.15
492.879	248.53
493.087	205.52
493.295	216.95
493.503	227.22
493.711	223.54
493.919	251.05
494.127	252.4
494.334	239.81
494.542	172.58
494.75	217.34
494.958	207.65
495.166	261.12
495.374	228.19
495.581	236.52
495.789	222.76
495.997	282.44
496.205	212.3
496.412	216.37
496.62	235.16
496.828	254.54
497.035	215.79
497.243	247.17
497.451	212.69
497.658	233.22
497.866	225.28
498.074	262.67
498.281	203.19
498.489	321.18
498.696	230.12
498.904	250.66
499.112	254.73
499.319	304.72
499.527	242.91
499.734	295.42
499.942	229.74
500.149	204.74
500.357	225.47
500.564	225.86
500.771	259.77
500.979	212.88
501.186	233.22
501.394	250.27
501.601	265.58
501.808	262.29
502.016	247.17
502.223	220.44
502.43	260.93
502.638	247.56
502.845	214.43
503.052	295.8
503.26	218.89
503.467	335.33
503.674	245.82
503.881	255.5
504.089	300.65
504.296	261.12
504.503	216.37
504.71	265.58
504.917	227.99
505.125	232.84
505.332	230.9
505.539	281.85
505.746	307.23
505.953	248.14
506.16	249.5
506.367	312.27
506.574	317.7
506.781	302.39
506.988	233.42
507.195	281.27
507.402	252.79
507.609	302.97
507.816	244.46
508.023	255.31
508.23	257.25
508.437	239.62
508.644	297.74
508.851	317.89
509.058	288.25
509.265	275.65
509.472	296.19
509.679	396.94
509.885	274.1
510.092	265.77
510.299	254.54
510.506	274.49
510.713	299.68
510.92	260.74
511.126	302.39
511.333	327.97
511.54	292.7
511.746	312.27
511.953	306.07
512.16	316.34
512.367	263.45
512.573	265.19
512.78	262.29
512.987	252.79
513.193	300.07
513.4	204.35
513.606	293.09
513.813	292.12
514.02	302.97
514.226	365.17
514.433	326.61
514.639	300.84
514.846	292.7
515.052	255.7
515.259	269.45
515.465	300.26
515.672	275.85
515.878	366.52
516.085	302
516.291	327.58
516.497	269.07
516.704	324.28
516.91	262.29
517.117	270.62
517.323	229.93
517.529	309.37
517.736	297.55
517.942	301.62
518.148	278.56
518.354	305.49
518.561	307.04
518.767	316.15
518.973	344.05
519.179	324.87
519.386	280.11
519.592	293.67
519.798	305.3
520.004	339.59
520.21	305.68
520.417	312.47
520.623	341.14
520.829	351.99
521.035	339.59
521.241	342.69
521.447	339.2
521.653	423.48
521.859	310.53
522.065	372.14
522.271	410.89
522.477	358.38
522.683	384.93
522.889	356.25
523.095	365.36
523.301	368.46
523.507	334.94
523.713	351.41
523.919	316.15
524.125	378.15
524.331	324.09
524.537	391.9
524.742	354.12
524.948	400.43
525.154	389.38
525.36	466.69
525.566	403.33
525.772	422.71
525.977	323.12
526.183	371.36
526.389	409.53
526.595	385.9
526.8	358.58
527.006	357.03
527.212	342.88
527.417	325.83
527.623	316.15
527.829	393.45
528.034	377.76
528.24	363.42
528.446	356.45
528.651	426.78
528.857	382.6
529.062	430.26
529.268	368.46
529.473	370.4
529.679	384.54
529.884	436.85
530.09	412.44
530.295	430.46
530.501	440.73
530.706	398.1
530.912	363.03
531.117	397.91
531.323	388.61
531.528	421.35
531.733	385.9
531.939	385.31
532.144	453.9
532.35	402.36
532.555	452.16
532.76	442.86
532.966	459.71
533.171	434.53
533.376	418.25
533.581	410.89
533.787	427.55
533.992	429.88
534.197	454.1
534.402	438.01
534.607	432.2
534.813	495.36
535.018	415.35
535.223	417.67
535.428	422.32
535.633	450.03
535.838	480.25
536.043	441.5
536.249	491.29
536.454	436.85
536.659	460.29
536.864	418.64
537.069	443.05
537.274	475.21
537.479	447.51
537.684	474.44
537.889	393.45
538.094	511.06
538.299	449.06
538.504	480.83
538.708	478.7
538.913	443.25
539.118	433.17
539.323	462.04
539.528	428.33
539.733	463.98
539.938	458.55
540.142	475.21
540.347	455.45
540.552	437.63
540.757	464.36
540.962	441.31
541.166	420.19
541.371	440.73
541.576	461.46
541.781	367.49
541.985	449.64
542.19	452.55
542.395	504.86
542.599	512.22
542.804	486.45
543.008	513.19
543.213	421.74
543.418	446.73
543.622	477.34
543.827	430.85
544.031	486.45
544.236	528.69
544.44	443.25
544.645	522.29
544.849	458.36
545.054	490.52
545.258	534.31
545.463	540.7
545.667	434.72
545.872	497.49
546.076	465.72
546.281	483.16
546.485	468.43
546.689	511.83
546.894	502.73
547.098	487.23
547.302	417.09
547.507	493.81
547.711	485.68
547.915	518.23
548.119	460.88
548.324	462.81
548.528	551.94
548.732	463.59
548.936	485.48
549.141	513.58
549.345	440.73
549.549	464.56
549.753	471.14
549.957	526.75
550.161	519.97
550.366	509.89
550.57	470.95
550.774	478.89
550.978	449.83
551.182	509.89
551.386	482.19
551.59	468.63
551.794	476.76
551.998	485.48
552.202	476.96
552.406	443.25
552.61	469.21
552.814	479.28
553.018	537.79
553.222	481.99
553.426	482.19
553.63	550.19
553.833	463.78
554.037	433.17
554.241	507.76
554.445	473.47
554.649	499.43
554.853	447.12
555.056	477.73
555.26	529.27
555.464	491.29
555.668	485.68
555.871	503.5
556.075	529.46
556.279	463.59
556.483	453.51
556.686	488
556.89	475.6
557.094	476.18
557.297	457.2
557.501	540.12
557.704	430.07
557.908	518.23
558.112	456.03
558.315	538.18
558.519	475.6
558.722	501.18
558.926	471.53
559.129	468.43
559.333	423.29
559.536	463.01
559.74	416.51
559.943	441.7
560.147	417.09
560.35	463.98
560.553	415.54
560.757	389.77
560.96	496.72
561.164	430.46
561.367	508.34
561.57	429.49
561.774	488
561.977	463.59
562.18	411.86
562.384	534.89
562.587	435.5
562.79	435.88
562.993	428.91
563.197	475.6
563.4	517.26
563.603	485.29
563.806	521.91
564.009	435.11
564.212	458.74
564.416	386.48
564.619	468.63
564.822	396.16
565.025	486.45
565.228	404.69
565.431	443.83
565.634	382.6
565.837	416.9
566.04	396.94
566.243	431.43
566.446	356.64
566.649	452.35
566.852	404.5
567.055	422.13
567.258	455.65
567.461	467.46
567.664	483.35
567.867	382.02
568.07	436.85
568.273	422.51
568.475	440.15
568.678	435.3
568.881	412.83
569.084	431.43
569.287	337.65
569.489	389.77
569.692	430.07
569.895	435.11
570.098	388.61
570.3	370.59
570.503	342.11
570.706	375.43
570.909	372.14
571.111	359.93
571.314	338.82
571.516	403.72
571.719	415.54
571.922	376.79
572.124	358
572.327	361.87
572.529	317.7
572.732	326.61
572.935	383.96
573.137	444.8
573.34	365.36
573.542	409.73
573.745	391.71
573.947	363.23
574.15	369.43
574.352	348.12
574.554	419.61
574.757	336.88
574.959	340.17
575.162	327
575.364	355.67
575.566	456.03
575.769	325.64
575.971	380.28
576.173	307.04
576.376	364.58
576.578	376.21
576.78	421.74
576.982	288.05
577.185	363.42
577.387	338.62
577.589	308.4
577.791	356.06
577.993	353.93
578.196	327.38
578.398	370.98
578.6	403.33
578.802	305.88
579.004	298.13
579.206	324.67
579.408	339.2
579.61	330.1
579.812	369.82
580.014	321.18
580.216	332.62
580.418	314.02
580.62	318.28
580.822	285.34
581.024	302
581.226	371.17
581.428	305.49
581.63	370.78
581.832	305.1
582.034	387.64
582.236	317.31
582.438	364.39
582.64	361.87
582.841	385.31
583.043	418.64
583.245	372.53
583.447	329.71
583.649	340.56
583.85	344.05
584.052	393.84
584.254	332.62
584.456	389.96
584.657	269.84
584.859	334.36
585.061	327.58
585.262	314.98
585.464	301.81
585.666	342.69
585.867	313.43
586.069	390.74
586.27	339.59
586.472	344.82
586.674	317.31
586.875	324.28
587.077	324.09
587.278	337.27
587.48	314.6
587.681	399.65
587.883	329.9
588.084	309.37
588.285	300.84
588.487	303.17
588.688	300.45
588.89	283.79
589.091	292.51
589.292	334.94
589.494	291.73
589.695	314.02
589.896	271.59
590.098	255.7
590.299	309.56
590.5	254.34
590.702	280.89
590.903	316.15
591.104	338.04
591.305	274.88
591.507	334.94
591.708	310.92
591.909	288.63
592.11	358.77
592.311	333.97
592.512	333.39
592.714	271.59
592.915	289.02
593.116	262.67
593.317	312.27
593.518	311.69
593.719	270.04
593.92	293.48
594.121	336.1
594.322	302
594.523	278.95
594.724	257.05
594.925	287.67
595.126	283.21
595.327	292.51
595.528	296.38
595.729	312.08
595.929	287.28
596.13	306.07
596.331	294.25
596.532	308.59
596.733	350.05
596.934	317.89
597.135	311.88
597.335	333.58
597.536	246.2
597.737	335.13
597.938	255.12
598.138	311.11
598.339	269.07
598.54	289.8
598.74	321.77
598.941	336.49
599.142	330.1
599.342	316.92
599.543	263.84
599.744	291.93
599.944	267.13
600.145	309.75
600.345	287.28
600.546	364.58
600.746	355.67
600.947	373.5
601.147	326.03
601.348	327.77
601.548	265.58
601.749	298.13
601.949	247.17
602.15	277.4
602.35	290.38
602.551	351.99
602.751	281.85
602.951	282.24
603.152	253.95
603.352	321.96
603.552	297.16
603.753	293.48
603.953	310.53
604.153	311.69
604.354	287.67
604.554	275.27
604.754	294.06
604.954	256.67
605.155	305.49
605.355	292.7
605.555	317.12
605.755	358.77
605.955	293.09
606.155	310.33
606.356	320.8
606.556	332.62
606.756	307.23
606.956	279.14
607.156	347.34
607.356	268.87
607.556	298.32
607.756	296.97
607.956	324.48
608.156	323.9
608.356	282.63
608.556	339.98
608.756	313.82
608.956	254.92
609.156	300.07
609.356	267.32
609.556	256.09
609.755	308.98
609.955	299.48
610.155	304.33
610.355	266.94
610.555	284.95
610.755	316.15
610.954	280.5
611.154	295.61
611.354	324.09
611.554	275.46
611.753	282.05
611.953	240.39
612.153	312.66
612.352	290.77
612.552	259.57
612.752	233.22
612.951	278.95
613.151	290.18
613.351	251.63
613.55	278.95
613.75	298.71
613.949	297.55
614.149	272.36
614.348	260.74
614.548	235.74
614.747	227.6
614.947	261.32
615.146	238.84
615.346	287.86
615.545	293.87
615.745	286.89
615.944	296.38
616.144	258.8
616.343	307.23
616.542	259.19
616.742	274.49
616.941	244.27
617.14	228.96
617.34	282.24
617.539	258.8
617.738	271.39
617.938	304.52
618.137	246.4
618.336	222.95
618.535	262.67
618.734	241.36
618.934	250.08
619.133	255.5
619.332	267.13
619.531	253.76
619.73	285.73
619.929	308.01
620.128	273.52
620.328	304.91
620.527	253.95
620.726	253.95
620.925	265
621.124	243.1
621.323	273.33
621.522	226.64
621.721	213.07
621.92	242.33
622.119	272.55
622.318	243.49
622.517	232.45
622.715	261.51
622.914	213.85
623.113	231.29
623.312	195.64
623.511	261.7
623.71	249.69
623.909	237.68
624.107	316.92
624.306	208.23
624.505	235.16
624.704	210.55
624.902	238.07
625.101	295.03
625.3	239.81
625.499	244.46
625.697	254.54
625.896	238.65
626.095	275.27
626.293	203
626.492	202.42
626.69	270.23
626.889	209
627.088	253.95
627.286	219.08
627.485	224.7
627.683	211.91
627.882	262.09
