Data from oakcork_FLMT105791__5__17-26-40-067.txt Node

Date: Mon Mar 20 17:26:40 GMT 2023
User: antho
Spectrometer: FLMT10579
Trigger mode: 0
Integration Time (sec): 1.000000E-1
Scans to average: 10
Electric dark correction enabled: true
Nonlinearity correction enabled: false
Boxcar width: 0
XAxis mode: Wavelengths
Number of Pixels in Spectrum: 3648
>>>>>Begin Spectral Data<<<<<
345.248	-149.75
345.464	-149.75
345.681	-149.75
345.898	-175.33
346.114	-142.39
346.331	-30.79
346.548	40.32
346.764	-24.98
346.981	4.86
347.197	-28.27
347.414	27.14
347.631	-20.52
347.847	60.66
348.064	-0.18
348.28	22.1
348.497	-59.85
348.713	9.51
348.93	42.06
349.146	14.74
349.363	-13.74
349.579	7.38
349.796	23.07
350.012	-35.63
350.229	30.82
350.445	-12
350.661	-24.2
350.878	25.98
351.094	18.42
351.311	15.13
351.527	30.43
351.743	-18.39
351.96	21.91
352.176	35.28
352.392	24.43
352.609	54.65
352.825	-11.22
353.041	6.02
353.257	-1.73
353.474	11.83
353.69	29.08
353.906	-6.18
354.122	-23.81
354.339	50
354.555	6.99
354.771	-10.06
354.987	56.2
355.203	70.54
355.42	-13.93
355.636	6.22
355.852	-21.3
356.068	-6.57
356.284	-27.5
356.5	76.55
356.716	30.24
356.932	-2.31
357.148	10.87
357.364	-11.61
357.58	57.95
357.796	32.57
358.012	39.54
358.228	18.62
358.444	-56.56
358.66	21.33
358.876	25.01
359.092	0.6
359.308	9.12
359.524	31.79
359.74	0.21
359.956	-13.35
360.172	19.2
360.388	70.35
360.604	-0.57
360.819	99.02
361.035	47.1
361.251	42.64
361.467	4.08
361.683	43.22
361.898	24.04
362.114	49.03
362.33	32.95
362.546	40.9
362.762	21.52
362.977	32.18
363.193	-21.88
363.409	56.01
363.624	-4.63
363.84	0.02
364.056	-4.25
364.271	56.59
364.487	49.03
364.703	2.53
364.918	-31.37
365.134	13.38
365.35	5.63
365.565	123.82
365.781	15.71
365.996	31.79
366.212	87.01
366.427	69.57
366.643	-12.96
366.858	9.12
367.074	-18.2
367.289	82.16
367.505	133.51
367.72	-33.11
367.936	2.92
368.151	31.98
368.367	50.97
368.582	29.47
368.798	28.69
369.013	59.88
369.228	31.02
369.444	38.77
369.659	63.37
369.874	51.75
370.09	73.06
370.305	-31.76
370.52	3.7
370.736	59.3
370.951	37.41
371.166	83.91
371.381	55.04
371.597	57.95
371.812	-16.26
372.027	-1.53
372.242	25.78
372.458	88.75
372.673	22.49
372.888	30.82
373.103	45.16
373.318	104.64
373.533	52.33
373.749	45.16
373.964	-19.16
374.179	70.35
374.394	44
374.609	68.6
374.824	-12.38
375.039	88.36
375.254	-16.45
375.469	70.54
375.684	41.87
375.899	62.98
376.114	23.07
376.329	38.18
376.544	72.09
376.759	49.03
376.974	18.42
377.189	11.06
377.404	19.58
377.619	67.25
377.834	-33.31
378.049	-16.84
378.264	0.79
378.478	60.66
378.693	1.95
378.908	41.09
379.123	4.86
379.338	84.1
379.553	20.55
379.767	63.57
379.982	62.79
380.197	52.13
380.412	36.63
380.626	60.27
380.841	95.34
381.056	43.8
381.271	112.78
381.485	-17.61
381.7	6.41
381.915	63.95
382.129	4.08
382.344	43.22
382.559	25.98
382.773	60.66
382.988	-17.03
383.202	41.87
383.417	3.12
383.632	119.95
383.846	51.36
384.061	11.83
384.275	36.63
384.49	44.97
384.704	71.12
384.919	75.19
385.133	32.95
385.348	62.4
385.562	7.38
385.777	66.28
385.991	77.13
386.206	22.88
386.42	23.65
386.634	91.27
386.849	52.13
387.063	50.97
387.277	4.47
387.492	21.91
387.706	-4.25
387.92	-3.28
388.135	63.57
388.349	70.15
388.563	22.88
388.778	53.49
388.992	67.25
389.206	60.85
389.42	124.6
389.635	61.24
389.849	64.15
390.063	78.29
390.277	45.93
390.491	112.58
390.706	57.56
390.92	95.53
391.134	87.01
391.348	83.33
391.562	-9.67
391.776	61.63
391.99	41.67
392.205	87.78
392.419	15.9
392.633	45.55
392.847	93.4
393.061	14.93
393.275	99.99
393.489	33.15
393.703	39.15
393.917	84.3
394.131	48.07
394.345	53.88
394.559	92.63
394.773	50.39
394.986	70.15
395.2	61.05
395.414	97.66
395.628	40.12
395.842	52.91
396.056	43.42
396.27	23.65
396.484	44.19
396.697	67.05
396.911	92.24
397.125	75.38
397.339	75.77
397.553	59.69
397.766	118.2
397.98	122.08
398.194	96.5
398.408	62.4
398.621	66.67
398.835	120.91
399.049	105.22
399.262	122.08
399.476	93.98
399.69	100.96
399.903	145.71
400.117	111.81
400.331	116.26
400.544	48.26
400.758	196.28
400.971	131.76
401.185	102.7
401.398	46.71
401.612	145.52
401.826	105.8
402.039	113.55
402.253	80.81
402.466	114.71
402.68	119.36
402.893	116.46
403.106	150.17
403.32	124.6
403.533	116.85
403.747	142.61
403.96	110.65
404.174	137.58
404.387	78.48
404.6	106
404.814	137
405.027	120.53
405.24	88.36
405.454	101.35
405.667	164.9
405.88	76.74
406.094	112.2
406.307	150.36
406.52	118.78
406.733	57.37
406.947	55.23
407.16	176.91
407.373	130.8
407.586	70.73
407.799	90.69
408.012	123.63
408.226	128.86
408.439	145.71
408.652	89.33
408.865	132.15
409.078	171.68
409.291	138.93
409.504	93.01
409.717	151.14
409.93	130.99
410.143	102.51
410.357	62.79
410.57	76.16
410.783	131.96
410.996	122.85
411.209	120.91
411.421	151.14
411.634	102.7
411.847	105.61
412.06	153.85
412.273	124.21
412.486	114.33
412.699	228.64
412.912	137.38
413.125	145.91
413.338	138.74
413.55	164.7
413.763	111.42
413.976	143.58
414.189	108.32
414.402	143.2
414.615	187.56
414.827	118.2
415.04	150.56
415.253	143.78
415.466	154.05
415.678	197.83
415.891	139.9
416.104	153.85
416.316	161.8
416.529	134.48
416.742	161.8
416.954	195.7
417.167	149.2
417.38	154.82
417.592	163.35
417.805	122.85
418.017	84.68
418.23	164.7
418.442	124.98
418.655	140.29
418.868	175.94
419.08	198.61
419.293	163.15
419.505	156.95
419.718	152.11
419.93	166.83
420.142	149.98
420.355	181.17
420.567	178.84
420.78	174.78
420.992	131.96
421.205	224.96
421.417	124.79
421.629	119.75
421.842	129.25
422.054	125.37
422.266	162.38
422.479	178.84
422.691	139.71
422.903	180.59
423.115	139.51
423.328	160.83
423.54	173.81
423.752	157.15
423.964	131.57
424.177	185.04
424.389	149.4
424.601	268.94
424.813	164.12
425.025	188.53
425.238	195.51
425.45	167.22
425.662	174.97
425.874	459.78
426.086	155.6
426.298	192.21
426.51	167.99
426.722	153.08
426.934	162.96
427.146	218.76
427.358	145.52
427.57	215.27
427.782	171.29
427.994	160.83
428.206	174.39
428.418	125.18
428.63	182.53
428.842	192.02
429.054	197.06
429.266	200.74
429.478	111.81
429.69	167.61
429.902	113.16
430.114	192.02
430.325	200.93
430.537	107.55
430.749	169.93
430.961	87.59
431.173	147.85
431.384	163.54
431.596	91.08
431.808	158.7
432.02	196.09
432.231	194.34
432.443	230.96
432.655	186.01
432.867	177.1
433.078	184.27
433.29	260.22
433.502	247.63
433.713	196.48
433.925	212.94
434.136	221.47
434.348	170.32
434.56	151.72
434.771	275.33
434.983	161.02
435.194	189.89
435.406	202.09
435.617	247.24
435.829	264.09
436.04	261.57
436.252	261.77
436.463	265.64
436.675	244.33
436.886	248.79
437.098	239.88
437.309	295.48
437.521	228.25
437.732	232.51
437.943	236
438.155	255.18
438.366	176.71
438.578	269.91
438.789	243.75
439	244.91
439.211	229.22
439.423	248.59
439.634	256.73
439.845	253.44
440.057	255.18
440.268	291.8
440.479	214.69
440.69	250.73
440.902	243.75
441.113	255.57
441.324	196.86
441.535	268.94
441.746	325.12
441.957	234.64
442.168	241.62
442.38	271.84
442.591	319.7
442.802	217.4
443.013	254.41
443.224	304.2
443.435	230.96
443.646	238.91
443.857	257.89
444.068	251.11
444.279	225.15
444.49	323.57
444.701	287.34
444.912	363.87
445.123	332.29
445.334	298.77
445.545	300.91
445.756	277.46
445.967	243.17
446.178	286.18
446.388	296.06
446.599	303.81
446.81	318.54
447.021	263.9
447.232	328.61
447.443	332.49
447.653	260.99
447.864	348.57
448.075	305.56
448.286	325.71
448.496	308.85
448.707	331.52
448.918	303.04
449.129	380.54
449.339	265.45
449.55	322.22
449.761	290.64
449.971	359.22
450.182	319.7
450.393	329.39
450.603	297.61
450.814	379.95
451.024	333.07
451.235	354.96
451.446	371.62
451.656	350.5
451.867	294.32
452.077	343.92
452.288	374.34
452.498	386.35
452.709	310.4
452.919	352.83
453.13	295.67
453.34	363.68
453.55	255.37
453.761	343.14
453.971	338.3
454.182	354.57
454.392	347.79
454.602	394.29
454.813	351.86
455.023	377.63
455.233	306.33
455.444	351.09
455.654	268.16
455.864	305.94
456.075	327.84
456.285	317.96
456.495	310.4
456.705	356.9
456.916	366.59
457.126	422.39
457.336	365.04
457.546	282.5
457.756	321.83
457.967	374.72
458.177	348.76
458.387	362.32
458.597	323.57
458.807	335.39
459.017	359.42
459.227	326.29
459.437	323.38
459.647	398.94
459.857	387.32
460.068	338.88
460.278	414.64
460.488	359.03
460.698	420.25
460.908	361.55
461.117	334.81
461.327	320.67
461.537	359.22
461.747	383.05
461.957	382.28
462.167	460.55
462.377	427.04
462.587	388.87
462.797	410.57
463.007	395.65
463.216	428.39
463.426	430.52
463.636	403.4
463.846	343.14
464.056	365.62
464.265	422.58
464.475	347.21
464.685	360.58
464.895	415.8
465.104	369.88
465.314	403.98
465.524	361.74
465.733	356.9
465.943	450.87
466.153	455.13
466.362	440.6
466.572	395.84
466.782	381.31
466.991	405.72
467.201	453.97
467.41	358.25
467.62	408.24
467.829	380.73
468.039	423.55
468.249	396.62
468.458	397
468.668	428.97
468.877	448.73
469.086	457.65
469.296	472.18
469.505	399.91
469.715	457.26
469.924	435.37
470.134	487.87
470.343	499.11
470.552	407.08
470.762	445.44
470.971	398.55
471.18	443.12
471.39	437.88
471.599	419.48
471.808	462.88
472.018	428.97
472.227	485.93
472.436	526.81
472.645	467.33
472.855	436.14
473.064	525.65
473.273	465.59
473.482	485.16
473.691	499.88
473.901	476.63
474.11	459.39
474.319	605.09
474.528	476.05
474.737	525.65
474.946	488.45
475.155	502.4
475.364	547.93
475.573	527.01
475.783	541.54
475.992	515.77
476.201	541.93
476.41	499.3
476.619	488.45
476.828	527.01
477.037	509.38
477.245	507.44
477.454	545.22
477.663	521.78
477.872	504.92
478.081	587.85
478.29	502.21
478.499	630.08
478.708	558.4
478.917	612.26
479.125	555.3
479.334	563.63
479.543	578.35
479.752	592.69
479.961	570.02
480.169	619.23
480.378	590.36
480.587	682.59
480.796	604.12
481.004	630.66
481.213	618.84
481.422	632.02
481.63	612.06
481.839	635.31
482.048	665.54
482.256	623.3
482.465	652.94
482.674	680.65
482.882	668.06
483.091	708.55
483.299	645.78
483.508	658.95
483.716	644.61
483.925	652.94
484.134	664.18
484.342	666.51
484.551	677.36
484.759	674.64
484.967	689.56
485.176	713.01
485.384	709.71
485.593	719.79
485.801	687.82
486.01	710.87
486.218	655.08
486.426	587.07
486.635	567.7
486.843	613.23
487.051	627.76
487.26	633.76
487.468	656.82
487.676	694.79
487.885	649.26
488.093	674.64
488.301	692.66
488.509	695.18
488.717	730.83
488.926	725.02
489.134	693.05
489.342	747.3
489.55	649.07
489.758	731.41
489.967	705.26
490.175	801.16
490.383	713.97
490.591	829.06
490.799	718.62
491.007	777.52
491.215	794.38
491.423	751.56
491.631	778.3
491.839	738.58
492.047	784.3
492.255	701.96
492.463	691.11
492.671	740.32
492.879	804.07
493.087	767.64
493.295	769.77
493.503	791.28
493.711	804.84
493.919	811.43
494.127	815.5
494.334	811.62
494.542	778.11
494.75	804.45
494.958	790.7
495.166	824.99
495.374	822.09
495.581	834.1
495.789	829.64
495.997	871.68
496.205	812.01
496.412	833.71
496.62	808.33
496.828	832.16
497.035	826.54
497.243	870.72
497.451	836.62
497.658	840.49
497.866	833.71
498.074	887.18
498.281	832.55
498.489	902.1
498.696	824.22
498.904	812.98
499.112	834.1
499.319	893.97
499.527	831.39
499.734	881.76
499.942	802.52
500.149	813.95
500.357	862.77
500.564	808.52
500.771	855.41
500.979	813.37
501.186	800.58
501.394	836.42
501.601	847.85
501.808	836.04
502.016	859.48
502.223	814.34
502.43	849.4
502.638	828.48
502.845	811.82
503.052	902.49
503.26	834.29
503.467	917.22
503.674	855.99
503.881	902.68
504.089	950.15
504.296	894.16
504.503	844.95
504.71	886.41
504.917	806.97
505.125	850.18
505.332	895.71
505.539	916.05
505.746	946.28
505.953	932.52
506.16	895.32
506.367	981.15
506.574	985.41
506.781	938.92
506.988	892.42
507.195	913.15
507.402	918.77
507.609	961.58
507.816	862.39
508.023	897.26
508.23	895.71
508.437	862.19
508.644	936.4
508.851	966.04
509.058	964.68
509.265	941.63
509.472	980.57
509.679	1011.76
509.885	939.88
510.092	951.7
510.299	953.83
510.506	934.07
510.713	965.65
510.92	958.87
511.126	998.2
511.333	1014.09
511.54	992.58
511.746	1040.44
511.953	1006.15
512.16	1067.56
512.367	965.46
512.573	1001.69
512.78	950.73
512.987	1009.05
513.193	983.67
513.4	935.04
513.606	970.69
513.813	998.98
514.02	987.35
514.226	1073.38
514.433	1052.84
514.639	961
514.846	995.88
515.052	993.36
515.259	999.56
515.465	996.07
515.672	1019.9
515.878	1058.84
516.085	1034.05
516.291	1042.57
516.497	993.55
516.704	998.59
516.91	919.93
517.117	938.14
517.323	873.04
517.529	925.35
517.736	912.57
517.942	919.15
518.148	929.03
518.354	933.1
518.561	980.57
518.767	955.77
518.973	982.51
519.179	1048.38
519.386	1003.82
519.592	998.2
519.798	962.94
520.004	1110.58
520.21	1016.8
520.417	1093.33
520.623	1074.73
520.829	1114.06
521.035	1075.7
521.241	1086.55
521.447	1095.08
521.653	1157.66
521.859	1078.99
522.065	1125.49
522.271	1179.74
522.477	1128.98
522.683	1159.4
522.889	1142.93
523.095	1163.27
523.301	1151.84
523.507	1091.59
523.713	1160.76
523.919	1124.72
524.125	1173.35
524.331	1129.95
524.537	1231.86
524.742	1219.65
524.948	1224.89
525.154	1229.15
525.36	1309.55
525.566	1214.42
525.772	1236.51
525.977	1180.52
526.183	1211.71
526.389	1260.92
526.595	1172.19
526.8	1185.94
527.006	1131.31
527.212	1107.48
527.417	1106.51
527.623	1088.1
527.829	1159.01
528.034	1194.27
528.24	1195.05
528.446	1158.82
528.651	1241.74
528.857	1229.15
529.062	1301.22
529.268	1241.94
529.473	1251.43
529.679	1256.85
529.884	1315.37
530.09	1275.07
530.295	1333.19
530.501	1323.12
530.706	1320.4
530.912	1290.95
531.117	1295.02
531.323	1303.93
531.528	1365.16
531.733	1378.92
531.939	1332.42
532.144	1370.2
532.35	1332.03
532.555	1351.98
532.76	1340.55
532.966	1335.32
533.171	1334.16
533.376	1308.78
533.581	1276.81
533.787	1288.44
533.992	1331.06
534.197	1352.76
534.402	1349.27
534.607	1356.05
534.813	1433.94
535.018	1342.1
535.223	1316.92
535.428	1374.65
535.633	1403.91
535.838	1431.81
536.043	1386.47
536.249	1471.72
536.454	1410.88
536.659	1389.77
536.864	1391.7
537.069	1367.87
537.274	1421.35
537.479	1388.8
537.684	1404.1
537.889	1385.89
538.094	1495.55
538.299	1392.86
538.504	1433.75
538.708	1465.33
538.913	1460.29
539.118	1400.03
539.323	1454.28
539.528	1373.3
539.733	1396.74
539.938	1415.73
540.142	1457
540.347	1398.48
540.552	1395
540.757	1380.08
540.962	1390.93
541.166	1374.07
541.371	1336.87
541.576	1398.68
541.781	1276.42
541.985	1407.78
542.19	1403.91
542.395	1479.86
542.599	1500.78
542.804	1425.8
543.008	1481.02
543.213	1416.5
543.418	1383.95
543.622	1461.45
543.827	1398.1
544.031	1486.83
544.236	1496.91
544.44	1457
544.645	1538.56
544.849	1431.03
545.054	1489.16
545.258	1572.47
545.463	1520.54
545.667	1432.39
545.872	1484.89
546.076	1507.95
546.281	1475.79
546.485	1456.8
546.689	1503.49
546.894	1558.33
547.098	1491.68
547.302	1470.56
547.507	1466.1
547.711	1500.39
547.915	1560.26
548.119	1445.76
548.324	1476.76
548.528	1533.33
548.732	1472.5
548.936	1545.54
549.141	1519.38
549.345	1476.56
549.549	1504.46
549.753	1519.38
549.957	1540.5
550.161	1579.83
550.366	1501.36
550.57	1482.57
550.774	1471.53
550.978	1476.76
551.182	1486.83
551.386	1452.15
551.59	1479.28
551.794	1485.48
551.998	1509.11
552.202	1481.02
552.406	1468.23
552.61	1508.14
552.814	1526.94
553.018	1559.68
553.222	1468.81
553.426	1479.86
553.63	1557.94
553.833	1503.88
554.037	1455.25
554.241	1562.98
554.445	1514.15
554.649	1497.29
554.853	1455.06
555.056	1554.64
555.26	1538.37
555.464	1486.44
555.668	1556
555.871	1547.09
556.075	1569.37
556.279	1494.97
556.483	1463.78
556.686	1519.77
556.89	1481.79
557.094	1546.12
557.297	1452.35
557.501	1515.7
557.704	1411.66
557.908	1505.82
558.112	1453.12
558.315	1525.58
558.519	1451.57
558.722	1472.3
558.926	1424.45
559.129	1370.97
559.333	1388.02
559.536	1379.11
559.74	1347.53
559.943	1378.92
560.147	1370.58
560.35	1419.41
560.553	1413.01
560.757	1356.63
560.96	1483.93
561.164	1373.1
561.367	1473.85
561.57	1429.48
561.774	1445.56
561.977	1421.35
562.18	1373.88
562.384	1512.21
562.587	1407.78
562.79	1393.64
562.993	1391.31
563.197	1459.32
563.4	1455.64
563.603	1429.68
563.806	1516.28
564.009	1390.54
564.212	1422.12
564.416	1347.33
564.619	1401.39
564.822	1322.15
565.025	1415.34
565.228	1409.53
565.431	1386.08
565.634	1300.64
565.837	1360.51
566.04	1330.67
566.243	1320.4
566.446	1244.26
566.649	1352.76
566.852	1276.62
567.055	1316.92
567.258	1360.7
567.461	1378.92
567.664	1418.44
567.867	1294.44
568.07	1328.15
568.273	1343.65
568.475	1388.6
568.678	1334.16
568.881	1263.83
569.084	1329.32
569.287	1213.07
569.489	1245.81
569.692	1289.4
569.895	1310.72
570.098	1209.97
570.3	1209.77
570.503	1147.97
570.706	1255.69
570.909	1185.17
571.111	1174.32
571.314	1163.47
571.516	1207.06
571.719	1230.31
571.922	1205.32
572.124	1192.92
572.327	1210.74
572.529	1140.61
572.732	1165.41
572.935	1218.49
573.137	1275.65
573.34	1183.62
573.542	1244.45
573.745	1204.35
573.947	1216.36
574.15	1184.01
574.352	1167.34
574.554	1264.41
574.757	1122.98
574.959	1167.73
575.162	1168.89
575.364	1141.96
575.566	1256.08
575.769	1110.77
575.971	1182.26
576.173	1093.53
576.376	1141.38
576.578	1171.02
576.78	1215.59
576.982	1058.07
577.185	1142.16
577.387	1105.34
577.589	1071.83
577.791	1170.06
577.993	1163.47
578.196	1116.58
578.398	1154.36
578.6	1170.83
578.802	1103.99
579.004	1079.38
579.206	1103.6
579.408	1118.91
579.61	1103.21
579.812	1127.04
580.014	1093.33
580.216	1107.28
580.418	1125.49
580.62	1102.83
580.822	1050.71
581.024	1118.52
581.226	1146.42
581.428	1090.62
581.63	1141.57
581.832	1118.33
582.034	1156.69
582.236	1100.69
582.438	1162.31
582.64	1183.42
582.841	1185.75
583.043	1207.64
583.245	1124.53
583.447	1140.8
583.649	1139.64
583.85	1174.9
584.052	1170.64
584.254	1102.44
584.456	1173.54
584.657	1086.16
584.859	1127.82
585.061	1111.35
585.262	1133.63
585.464	1077.83
585.666	1165.21
585.867	1098.76
586.069	1144.29
586.27	1122.59
586.472	1128.4
586.674	1104.38
586.875	1093.91
587.077	1077.06
587.278	1110.96
587.48	1053.42
587.681	1200.28
587.883	1117.36
588.084	1033.85
588.285	1062.72
588.487	1049.54
588.688	1075.51
588.89	1003.24
589.091	1013.51
589.292	984.64
589.494	961
589.695	949.38
589.896	920.9
590.098	872.85
590.299	965.07
590.5	912.95
590.702	957.71
590.903	985.8
591.104	1045.28
591.305	1007.7
591.507	1053.61
591.708	1014.67
591.909	969.14
592.11	1074.34
592.311	1035.4
592.512	979.99
592.714	963.91
592.915	979.8
593.116	978.05
593.317	974.56
593.518	986
593.719	987.35
593.92	1024.75
594.121	1074.93
594.322	994.33
594.523	977.28
594.724	954.8
594.925	980.76
595.126	1008.08
595.327	987.74
595.528	965.26
595.729	1021.65
595.929	979.41
596.13	1003.05
596.331	1000.91
596.532	984.64
596.733	1054.78
596.934	1044.12
597.135	1006.92
597.335	1009.05
597.536	980.57
597.737	1022.61
597.938	979.02
598.138	979.41
598.339	940.47
598.54	1022.61
598.74	983.28
598.941	977.66
599.142	1044.12
599.342	1018.55
599.543	938.92
599.744	975.15
599.944	1013.12
600.145	970.5
600.345	1003.24
600.546	1051.68
600.746	1025.71
600.947	1076.09
601.147	1007.89
601.348	997.81
601.548	961.78
601.749	993.36
601.949	963.52
602.15	965.65
602.35	943.18
602.551	1017.77
602.751	932.91
602.951	958.29
603.152	938.33
603.352	1019.32
603.552	954.8
603.753	975.92
603.953	1010.8
604.153	1013.12
604.354	980.96
604.554	972.24
604.754	986.19
604.954	952.09
605.155	987.35
605.355	952.67
605.555	1024.36
605.755	1025.13
605.955	989.48
606.155	999.36
606.356	1015.25
606.556	1025.13
606.756	973.79
606.956	935.62
607.156	1032.3
607.356	946.86
607.556	980.57
607.756	967.01
607.956	1025.52
608.156	961.58
608.356	937.56
608.556	1002.85
608.756	979.8
608.956	921.09
609.156	969.91
609.356	913.34
609.556	918.57
609.755	972.63
609.955	908.69
610.155	932.72
610.355	944.53
610.555	904.82
610.755	916.83
610.954	865.49
611.154	956.93
611.354	983.86
611.554	904.43
611.753	919.15
611.953	886.02
612.153	933.1
612.352	921.67
612.552	868.58
612.752	844.95
612.951	909.85
613.151	900.36
613.351	900.17
613.55	898.42
613.75	905.2
613.949	908.3
614.149	927.48
614.348	905.4
614.548	857.93
614.747	868.78
614.947	883.31
615.146	841.85
615.346	926.71
615.545	886.22
615.745	901.13
615.944	911.02
616.144	904.82
616.343	909.47
616.542	873.62
616.742	881.18
616.941	866.65
617.14	809.1
617.34	879.24
617.539	875.95
617.738	845.53
617.938	924.58
618.137	897.07
618.336	837.2
618.535	895.71
618.734	878.47
618.934	894.55
619.133	855.6
619.332	906.95
619.531	849.79
