Data from oakcork_FLMT105791__211__17-32-42-056.txt Node

Date: Mon Mar 20 17:32:42 GMT 2023
User: antho
Spectrometer: FLMT10579
Trigger mode: 0
Integration Time (sec): 1.000000E-1
Scans to average: 10
Electric dark correction enabled: true
Nonlinearity correction enabled: false
Boxcar width: 0
XAxis mode: Wavelengths
Number of Pixels in Spectrum: 3648
>>>>>Begin Spectral Data<<<<<
345.248	-120.24
345.464	-120.24
345.681	-120.24
345.898	-163.64
346.114	-133.02
346.331	-35.76
346.548	3.18
346.764	15.58
346.981	-8.83
347.197	-28.4
347.414	7.64
347.631	-6.7
347.847	62.27
348.064	2.99
348.28	14.03
348.497	-44.09
348.713	18.1
348.93	26.24
349.146	20.62
349.363	25.46
349.579	6.28
349.796	8.99
350.012	6.09
350.229	23.33
350.445	3.96
350.661	15.97
350.878	-3.41
351.094	24.69
351.311	33.41
351.527	16.36
351.743	-7.28
351.96	47.36
352.176	37.67
352.392	35.34
352.609	38.25
352.825	19.65
353.041	3.96
353.257	8.99
353.474	-9.03
353.69	17.52
353.906	21.97
354.122	-11.35
354.339	53.55
354.555	7.25
354.771	4.15
354.987	73.9
355.203	41.74
355.42	4.34
355.636	-8.25
355.852	-8.44
356.068	-1.28
356.284	-13.29
356.5	70.99
356.716	37.09
356.932	7.25
357.148	34.37
357.364	-13.09
357.58	55.88
357.796	76.61
358.012	42.32
358.228	18.49
358.444	-42.74
358.66	48.52
358.876	42.12
359.092	32.05
359.308	22.36
359.524	54.52
359.74	6.28
359.956	-6.31
360.172	24.88
360.388	41.35
360.604	8.61
360.819	61.3
361.035	16.16
361.251	42.51
361.467	-19.49
361.683	54.91
361.898	32.63
362.114	41.93
362.33	26.43
362.546	45.22
362.762	10.35
362.977	8.22
363.193	-22.98
363.409	57.62
363.624	3.76
363.84	-6.7
364.056	8.22
364.271	33.21
364.487	36.89
364.703	13.06
364.918	-2.24
365.134	30.69
365.35	1.24
365.565	117.3
365.781	41.74
365.996	50.07
366.212	93.08
366.427	34.37
366.643	-6.51
366.858	31.86
367.074	-3.41
367.289	56.27
367.505	100.83
367.72	-43.9
367.936	11.51
368.151	41.35
368.367	32.63
368.582	20.42
368.798	13.26
369.013	75.84
369.228	41.16
369.444	33.41
369.659	93.85
369.874	47.55
370.09	94.63
370.305	-33.24
370.52	-11.16
370.736	81.26
370.951	21.01
371.166	80.1
371.381	74.67
371.597	43.67
371.812	3.57
372.027	15.77
372.242	36.7
372.458	96.95
372.673	25.66
372.888	5.12
373.103	26.04
373.318	113.81
373.533	36.12
373.749	56.27
373.964	-16.58
374.179	56.46
374.394	-10.77
374.609	95.79
374.824	1.82
375.039	65.76
375.254	23.72
375.469	71.38
375.684	71.57
375.899	64.4
376.114	23.52
376.329	41.54
376.544	73.7
376.759	58.79
376.974	33.6
377.189	29.34
377.404	32.63
377.619	42.32
377.834	-3.21
378.049	29.14
378.264	14.22
378.478	52.97
378.693	-6.51
378.908	32.24
379.123	40.57
379.338	59.56
379.553	63.05
379.767	50.84
379.982	47.94
380.197	66.34
380.412	35.54
380.626	44.45
380.841	104.32
381.056	35.73
381.271	89.79
381.485	27.4
381.7	26.43
381.915	44.26
382.129	0.47
382.344	54.33
382.559	12.29
382.773	110.32
382.988	2.41
383.202	39.8
383.417	-18.33
383.632	141.52
383.846	31.27
384.061	36.89
384.275	19.46
384.49	42.32
384.704	64.6
384.919	58.2
385.133	54.33
385.348	66.15
385.562	9.19
385.777	90.75
385.991	44.45
386.206	29.14
386.42	27.01
386.634	87.65
386.849	49.68
387.063	64.21
387.277	25.66
387.492	41.93
387.706	29.34
387.92	-12.51
388.135	75.45
388.349	39.8
388.563	18.1
388.778	53.55
388.992	64.21
389.206	65.57
389.42	117.1
389.635	61.89
389.849	74.29
390.063	88.62
390.277	33.79
390.491	106.84
390.706	75.06
390.92	78.35
391.134	37.67
391.348	101.6
391.562	-12.13
391.776	30.11
391.99	22.36
392.205	63.05
392.419	32.44
392.633	42.71
392.847	97.34
393.061	18.87
393.275	101.41
393.489	24.88
393.703	53.75
393.917	61.69
394.131	28.56
394.345	76.22
394.559	82.62
394.773	45.81
394.986	95.79
395.2	77
395.414	89.4
395.628	47.94
395.842	41.16
396.056	24.11
396.27	10.16
396.484	84.55
396.697	76.03
396.911	112.26
397.125	49.87
397.339	83.78
397.553	82.62
397.766	118.85
397.98	73.32
398.194	85.52
398.408	90.95
398.621	102.77
398.835	90.37
399.049	61.89
399.262	97.54
399.476	128.34
399.69	89.98
399.903	154.69
400.117	90.75
400.331	110.52
400.544	64.02
400.758	166.32
400.971	97.34
401.185	93.27
401.398	61.11
401.612	114.39
401.826	131.83
402.039	98.31
402.253	81.45
402.466	112.26
402.68	71.19
402.893	88.43
403.106	111.49
403.32	104.9
403.533	79.13
403.747	120.01
403.96	120.2
404.174	135.51
404.387	66.34
404.6	99.28
404.814	126.99
405.027	108
405.24	82.04
405.454	96.37
405.667	134.35
405.88	43.87
406.094	92.69
406.307	143.26
406.52	120.98
406.733	70.02
406.947	51.04
407.16	146.94
407.373	138.61
407.586	76.22
407.799	64.99
408.012	149.46
408.226	111.87
408.439	137.84
408.652	73.32
408.865	100.83
409.078	139.19
409.291	107.61
409.504	89.79
409.717	114
409.93	135.7
410.143	80.87
410.357	86.69
410.57	66.34
410.783	72.54
410.996	115.36
411.209	95.21
411.421	163.6
411.634	113.42
411.847	78.16
412.06	130.86
412.273	126.99
412.486	131.05
412.699	200.61
412.912	109.16
413.125	127.76
413.338	112.07
413.55	142.29
413.763	139.58
413.976	138.8
414.189	95.02
414.402	118.85
414.615	171.74
414.827	82.42
415.04	155.47
415.253	152.95
415.466	162.05
415.678	211.85
415.891	134.54
416.104	144.42
416.316	145.58
416.529	121.95
416.742	147.33
416.954	157.6
417.167	131.05
417.38	129.31
417.592	167.28
417.805	100.83
418.017	109.35
418.23	164.38
418.442	91.14
418.655	109.55
418.868	139.38
419.08	174.07
419.293	158.76
419.505	167.48
419.718	171.74
419.93	184.14
420.142	132.6
420.355	165.93
420.567	196.15
420.78	143.45
420.992	147.13
421.205	187.63
421.417	108.97
421.629	154.5
421.842	114.39
422.054	101.99
422.266	165.73
422.479	182.78
422.691	132.6
422.903	161.28
423.115	123.89
423.328	126.4
423.54	159.34
423.752	131.25
423.964	148.3
424.177	166.7
424.389	118.46
424.601	264.74
424.813	166.51
425.025	175.81
425.238	178.13
425.45	166.9
425.662	169.03
425.874	440.47
426.086	164.96
426.298	161.86
426.51	178.13
426.722	194.8
426.934	135.51
427.146	194.99
427.358	124.66
427.57	181.82
427.782	160.31
427.994	152.95
428.206	135.9
428.418	125.05
428.63	170.19
428.842	175.81
429.054	181.23
429.266	206.23
429.478	178.33
429.69	172.32
429.902	146.55
430.114	181.62
430.325	157.79
430.537	145.2
430.749	142.1
430.961	88.04
431.173	116.52
431.384	161.47
431.596	97.54
431.808	160.89
432.02	158.37
432.231	191.5
432.443	194.22
432.655	183.95
432.867	136.48
433.078	187.82
433.29	236.45
433.502	222.7
433.713	232.77
433.925	170
434.136	199.64
434.348	155.66
434.56	138.61
434.771	273.65
434.983	148.88
435.194	167.48
435.406	194.8
435.617	237.81
435.829	264.93
436.04	243.62
436.252	233.35
436.463	241.1
436.675	231.22
436.886	226.38
437.098	235.87
437.309	266.87
437.521	230.06
437.732	235.29
437.943	240.71
438.155	189.95
438.366	167.67
438.578	280.24
438.789	222.12
439	223.86
439.211	220.37
439.423	212.23
439.634	213.2
439.845	233.74
440.057	243.81
440.268	263.58
440.479	209.72
440.69	237.03
440.902	215.53
441.113	181.04
441.324	242.07
441.535	254.08
441.746	272.88
441.957	228.51
442.168	241.88
442.38	261.25
442.591	253.5
442.802	230.64
443.013	258.54
443.224	263.77
443.435	238.2
443.646	235.87
443.857	243.43
444.068	231.41
444.279	224.44
444.49	334.88
444.701	261.25
444.912	333.91
445.123	329.64
445.334	292.64
445.545	275.4
445.756	245.56
445.967	227.35
446.178	294.19
446.388	287.8
446.599	291.28
446.81	289.15
447.021	263.38
447.232	298.45
447.443	326.54
447.653	267.26
447.864	298.06
448.075	291.86
448.286	315.11
448.496	309.3
448.707	323.25
448.918	273.65
449.129	382.73
449.339	283.92
449.55	312.79
449.761	262.8
449.971	312.98
450.182	306.4
450.393	324.61
450.603	267.06
450.814	376.34
451.024	318.41
451.235	360.64
451.446	386.61
451.656	363.74
451.867	291.09
452.077	331.78
452.288	383.12
452.498	364.52
452.709	318.99
452.919	332.16
453.13	275.01
453.34	332.36
453.55	247.5
453.761	353.48
453.971	333.71
454.182	353.67
454.392	342.24
454.602	358.32
454.813	361.23
455.023	349.6
455.233	299.61
455.444	339.91
455.654	250.98
455.864	333.71
456.075	331.78
456.285	298.26
456.495	310.46
456.705	340.3
456.916	384.28
457.126	373.63
457.336	347.47
457.546	271.71
457.756	331.19
457.967	397.65
458.177	301.16
458.387	312.01
458.597	317.05
458.807	324.61
459.017	299.03
459.227	313.56
459.437	292.64
459.647	335.84
459.857	354.25
460.068	291.67
460.278	360.84
460.488	359.09
460.698	395.91
460.908	360.64
461.117	298.26
461.327	334.68
461.537	373.04
461.747	352.12
461.957	377.89
462.167	416.64
462.377	394.16
462.587	364.71
462.797	406.76
463.007	403.46
463.216	374.21
463.426	406.17
463.636	403.07
463.846	340.49
464.056	322.48
464.265	412.96
464.475	365.29
464.685	354.64
464.895	388.35
465.104	353.86
465.314	390.87
465.524	384.09
465.733	361.42
465.943	437.37
466.153	439.69
466.362	424.19
466.572	411.99
466.782	365.49
466.991	365.1
467.201	440.47
467.41	358.51
467.62	421.09
467.829	379.44
468.039	408.11
468.249	381.57
468.458	418.38
468.668	440.47
468.877	412.37
469.086	462.94
469.296	419.54
469.505	413.54
469.715	488.32
469.924	458.49
470.134	445.12
470.343	448.02
470.552	407.92
470.762	392.61
470.971	402.11
471.18	397.26
471.39	423.61
471.599	387.58
471.808	437.17
472.018	394.36
472.227	479.41
472.436	457.71
472.645	429.23
472.855	426.13
473.064	504.99
473.273	442.99
473.482	467.01
473.691	490.07
473.901	488.9
474.11	460.62
474.319	557.3
474.528	458.1
474.737	550.71
474.946	500.53
475.155	492.97
475.364	533.66
475.573	508.09
475.783	502.66
475.992	506.73
476.201	529.01
476.41	510.99
476.619	469.34
476.828	500.14
477.037	492.78
477.245	488.52
477.454	530.56
477.663	517.19
477.872	498.4
478.081	572.8
478.29	493.36
478.499	628.6
478.708	536.37
478.917	606.51
479.125	553.81
479.334	586.75
479.543	536.37
479.752	536.95
479.961	570.67
480.169	594.5
480.378	559.82
480.587	678.58
480.796	583.07
481.004	600.31
481.213	617.36
481.422	596.82
481.63	602.83
481.839	623.95
482.048	645.26
482.256	622.59
482.465	657.66
482.674	634.99
482.882	632.86
483.091	692.73
483.299	650.88
483.508	647.78
483.716	623.37
483.925	669.48
484.134	610.19
484.342	625.11
484.551	658.82
484.759	662.5
484.967	692.34
485.176	708.03
485.384	672.38
485.593	702.22
485.801	686.14
486.01	658.82
486.218	618.91
486.426	548.19
486.635	620.27
486.843	605.15
487.051	635.38
487.26	628.6
487.468	635.96
487.676	673.16
487.885	650.1
488.093	677.03
488.301	681.1
488.509	679.55
488.717	711.33
488.926	701.45
489.134	671.22
489.342	688.46
489.55	673.16
489.758	704.74
489.967	663.08
490.175	790.57
490.383	729.35
490.591	817.89
490.799	694.28
491.007	793.48
491.215	791.34
491.423	743.68
491.631	746.2
491.839	734.38
492.047	770.42
492.255	731.67
492.463	706.1
492.671	747.36
492.879	796.77
493.087	743.49
493.295	775.84
493.503	777.39
493.711	805.29
493.919	805.88
494.127	851.6
494.334	821.96
494.542	767.32
494.75	799.29
494.958	776.23
495.166	853.34
495.374	818.86
495.581	821.18
495.789	838.62
495.997	874.66
496.205	821.38
496.412	802
496.62	802.78
496.828	844.43
497.035	817.89
497.243	837.84
497.451	831.45
497.658	861.87
497.866	848.31
498.074	891.51
498.281	823.12
498.489	897.13
498.696	860.71
498.904	826.41
499.112	812.27
499.319	911.27
499.527	853.92
499.734	892.29
499.942	826.99
500.149	795.41
500.357	838.81
500.564	817.11
500.771	887.83
500.979	843.27
501.186	825.44
501.394	829.71
501.601	845.4
501.808	856.44
502.016	864.97
502.223	837.84
502.43	850.44
502.638	841.52
502.845	841.14
503.052	950.41
503.26	864.97
503.467	943.63
503.674	891.51
503.881	899.46
504.089	922.51
504.296	902.56
504.503	885.12
504.71	895.39
504.917	841.14
505.125	909.53
505.332	880.08
505.539	904.88
505.746	985.09
505.953	923.67
506.16	930.07
506.367	969.4
506.574	996.91
506.781	1015.7
506.988	890.54
507.195	957.19
507.402	937.82
507.609	980.64
507.816	900.62
508.023	925.8
508.23	936.07
508.437	875.62
508.644	986.25
508.851	976.57
509.058	1010.09
509.265	957.77
509.472	975.79
509.679	1093.4
509.885	985.87
510.092	978.12
510.299	979.47
510.506	994.39
510.713	1016.67
510.92	1007.18
511.126	1013.18
511.333	1041.08
511.54	1037.79
511.746	1050.58
511.953	1053.87
512.16	1076.15
512.367	1039.15
512.573	1068.98
512.78	1043.8
512.987	1027.33
513.193	1044.57
513.4	957.58
513.606	1042.63
513.813	1039.73
514.02	1014.35
514.226	1090.3
514.433	1086.23
514.639	1012.02
514.846	1046.12
515.052	1028.68
515.259	1057.55
515.465	1040.12
515.672	1076.15
515.878	1136.02
516.085	1046.12
516.291	1100.95
516.497	1044.96
516.704	1060.85
516.91	1003.3
517.117	1018.61
517.323	940.92
517.529	962.62
517.736	982.19
517.942	997.88
518.148	1000.2
518.354	1006.79
518.561	1036.63
518.767	1029.85
518.973	1076.73
519.179	1118.97
519.386	1078.28
519.592	1074.22
519.798	1067.63
520.004	1169.15
520.21	1116.45
520.417	1143.96
520.623	1171.86
520.829	1226.31
521.035	1195.31
521.241	1170.12
521.447	1208.87
521.653	1307.29
521.859	1195.11
522.065	1231.34
522.271	1310.01
522.477	1254.59
522.683	1288.69
522.889	1229.21
523.095	1254.21
523.301	1228.83
523.507	1215.65
523.713	1227.66
523.919	1199.18
524.125	1318.72
524.331	1278.04
524.537	1330.35
524.742	1321.63
524.948	1333.26
525.154	1356.89
525.36	1409.79
525.566	1338.87
525.772	1387.31
525.977	1287.92
526.183	1360.38
526.389	1369.49
526.595	1318.92
526.8	1296.83
527.006	1260.6
527.212	1199.18
527.417	1195.89
527.623	1223.59
527.829	1276.49
528.034	1319.31
528.24	1324.54
528.446	1317.17
528.651	1404.55
528.857	1382.85
529.062	1417.54
529.268	1387.7
529.473	1416.37
529.679	1406.3
529.884	1486.9
530.09	1461.71
530.295	1486.12
530.501	1461.32
530.706	1468.68
530.912	1425.09
531.117	1519.25
531.323	1480.5
531.528	1484.38
531.733	1535.92
531.939	1445.05
532.144	1483.41
532.35	1503.17
532.555	1532.23
532.76	1514.41
532.966	1516.54
533.171	1516.54
533.376	1455.9
533.581	1443.3
533.787	1476.43
533.992	1514.8
534.197	1538.63
534.402	1489.03
534.607	1520.42
534.813	1600.24
535.018	1524.68
535.223	1519.25
535.428	1569.43
535.633	1585.32
535.838	1579.12
536.043	1568.08
536.249	1657.2
536.454	1536.5
536.659	1603.92
536.864	1565.17
537.069	1555.68
537.274	1613.8
537.479	1580.28
537.684	1640.73
537.889	1549.86
538.094	1670.38
538.299	1578.73
538.504	1591.33
538.708	1641.31
538.913	1655.84
539.118	1641.12
539.323	1633.56
539.528	1597.53
539.733	1598.3
539.938	1610.51
540.142	1637.63
540.347	1617.48
540.552	1557.03
540.757	1557.42
540.962	1561.1
541.166	1530.68
541.371	1602.76
541.576	1605.08
541.781	1527.2
541.985	1628.91
542.19	1593.46
542.395	1643.25
542.599	1724.04
542.804	1639.76
543.008	1706.41
543.213	1605.66
543.418	1593.65
543.622	1683.74
543.827	1614.96
544.031	1696.92
544.236	1695.76
544.44	1664.76
544.645	1748.46
544.849	1631.82
545.054	1685.49
545.258	1738.57
545.463	1738.38
545.667	1692.85
545.872	1670.38
546.076	1722.88
546.281	1727.72
546.485	1682.97
546.689	1718.81
546.894	1756.59
547.098	1716.68
547.302	1677.93
547.507	1731.21
547.711	1728.31
547.915	1738.19
548.119	1663.98
548.324	1726.56
548.528	1733.73
548.732	1674.64
548.936	1747.68
549.141	1760.27
549.345	1738.19
549.549	1756.98
549.753	1712.81
549.957	1786.24
550.161	1793.99
550.366	1747.49
550.57	1705.64
550.774	1735.86
550.978	1759.69
551.182	1758.53
551.386	1708.93
551.59	1718.42
551.794	1711.26
551.998	1749.23
552.202	1723.46
552.406	1710.87
552.61	1750.39
552.814	1767.06
553.018	1797.67
553.222	1765.89
553.426	1709.71
553.63	1803.87
553.833	1768.8
554.037	1677.74
554.241	1770.93
554.445	1787.79
554.649	1741.09
554.853	1757.76
555.056	1784.3
555.26	1809.1
555.464	1798.83
555.668	1757.37
555.871	1774.42
556.075	1805.03
556.279	1712.22
556.483	1714.55
556.686	1728.11
556.89	1733.15
557.094	1734.7
557.297	1661.66
557.501	1781.97
557.704	1668.83
557.908	1730.44
558.112	1683.94
558.315	1756.59
558.519	1713.19
558.722	1699.44
558.926	1686.65
559.129	1632.98
559.333	1624.65
559.536	1643.25
559.74	1626.78
559.943	1632.79
560.147	1605.86
560.35	1636.86
560.553	1623.88
560.757	1619.42
560.96	1701.96
561.164	1628.72
561.367	1667.66
561.57	1666.11
561.774	1644.61
561.977	1646.74
562.18	1605.28
562.384	1719.39
562.587	1608.76
562.79	1657.39
562.993	1620.97
563.197	1658.75
563.4	1685.68
563.603	1680.84
563.806	1694.01
564.009	1621.55
564.212	1663.79
564.416	1582.8
564.619	1661.27
564.822	1563.43
565.025	1669.21
565.228	1607.21
565.431	1628.53
565.634	1476.82
565.837	1549.28
566.04	1495.42
566.243	1519.64
566.446	1463.07
566.649	1568.85
566.852	1519.64
567.055	1541.34
567.258	1548.12
567.461	1604.89
567.664	1615.35
567.867	1503.37
568.07	1539.6
568.273	1506.85
568.475	1581.45
568.678	1495.62
568.881	1502.2
569.084	1534.17
569.287	1452.6
569.489	1456.09
569.692	1518.67
569.895	1500.27
570.098	1436.52
570.3	1394.29
570.503	1375.3
570.706	1400.87
570.909	1396.22
571.111	1379.17
571.314	1343.72
571.516	1377.04
571.719	1391.19
571.922	1397.19
572.124	1371.23
572.327	1391.96
572.529	1399.71
572.732	1365.42
572.935	1385.76
573.137	1473.72
573.34	1371.62
573.542	1401.45
573.745	1404.94
573.947	1397.19
574.15	1333.64
574.352	1321.63
574.554	1420.64
574.757	1369.29
574.959	1300.51
575.162	1312.33
575.364	1315.43
575.566	1387.5
575.769	1307.87
575.971	1359.02
576.173	1246.07
576.376	1327.06
576.578	1382.85
576.78	1377.43
576.982	1252.46
577.185	1329.38
577.387	1291.02
577.589	1272.03
577.791	1321.63
577.993	1326.47
578.196	1283.85
578.398	1310.01
578.6	1295.28
578.802	1233.67
579.004	1241.61
579.206	1239.48
579.408	1270.29
579.61	1281.91
579.812	1326.67
580.014	1264.86
580.216	1264.09
580.418	1308.26
580.62	1254.98
580.822	1266.03
581.024	1268.35
581.226	1317.37
581.428	1274.94
581.63	1364.64
581.832	1265.06
582.034	1314.85
582.236	1306.13
582.438	1344.3
582.64	1327.25
582.841	1336.74
583.043	1379.17
583.245	1305.55
583.447	1311.75
583.649	1297.99
583.85	1312.14
584.052	1340.62
584.254	1270.09
584.456	1341.39
584.657	1278.62
584.859	1293.92
585.061	1263.7
585.262	1246.46
585.464	1249.94
585.666	1291.79
585.867	1230.96
586.069	1310.2
586.27	1315.82
586.472	1264.67
586.674	1233.67
586.875	1243.16
587.077	1241.42
587.278	1283.27
587.48	1254.98
587.681	1329.77
587.883	1283.85
588.084	1204.8
588.285	1275.13
588.487	1236.96
588.688	1197.63
588.89	1150.94
589.091	1131.37
589.292	1141.64
589.494	1131.18
589.695	1100.76
589.896	1021.13
590.098	1044.77
590.299	1108.12
590.5	1081.19
590.702	1085.26
590.903	1134.47
591.104	1202.86
591.305	1128.85
591.507	1206.54
591.708	1185.23
591.909	1160.63
592.11	1210.81
592.311	1191.63
592.512	1166.05
592.714	1099.6
592.915	1129.05
593.116	1164.89
593.317	1157.53
593.518	1120.33
593.719	1154.43
593.92	1189.11
594.121	1203.44
594.322	1143.38
594.523	1175.55
594.724	1100.76
594.925	1132.92
595.126	1147.06
595.327	1175.16
595.528	1146.1
595.729	1158.3
595.929	1128.27
596.13	1163.34
596.331	1140.28
596.532	1158.11
596.733	1222.24
596.934	1206.54
597.135	1188.33
597.335	1181.16
597.536	1150.75
597.737	1174.96
597.938	1155.2
598.138	1138.35
598.339	1147.84
598.54	1157.53
598.74	1117.61
598.941	1161.21
599.142	1164.7
599.342	1153.07
599.543	1126.14
599.744	1150.75
599.944	1174.77
600.145	1140.28
600.345	1162.76
600.546	1255.18
600.746	1175.35
600.947	1238.71
601.147	1170.9
601.348	1203.83
601.548	1143.77
601.749	1160.82
601.949	1103.47
602.15	1170.31
602.35	1137.18
602.551	1202.28
602.751	1111.61
602.951	1107.35
603.152	1099.79
603.352	1150.94
603.552	1143.19
603.753	1183.1
603.953	1166.05
604.153	1172.06
604.354	1153.07
604.554	1138.54
604.754	1135.25
604.954	1125.36
605.155	1176.51
605.355	1151.52
605.555	1193.56
605.755	1187.75
605.955	1111.61
606.155	1203.06
606.356	1138.35
606.556	1180.39
606.756	1163.92
606.956	1108.12
607.156	1197.05
607.356	1146.1
607.556	1133.89
607.756	1173.03
607.956	1194.73
608.156	1174.38
608.356	1125.17
608.556	1149
608.756	1092.43
608.956	1069.76
609.156	1146.1
609.356	1115.29
609.556	1116.26
609.755	1155.4
609.955	1092.62
610.155	1127.88
610.355	1094.17
610.555	1085.07
610.755	1120.33
610.954	1049.42
611.154	1106.18
611.354	1149.2
611.554	1064.72
611.753	1097.27
611.953	1059.49
612.153	1090.3
612.352	1118
612.552	1022.68
612.752	1025.39
612.951	1043.41
613.151	1095.53
613.351	1035.27
613.55	1071.12
613.75	1080.61
613.949	1052.71
614.149	1090.3
614.348	1040.12
614.548	1019
614.747	973.66
614.947	1045.93
615.146	973.47
615.346	1083.13
615.545	1084.29
615.745	1047.87
615.944	1081.97
616.144	1045.73
616.343	1053.29
616.542	1043.02
616.742	1030.82
616.941	1020.93
617.14	939.37
617.34	992.45
617.539	1001.17
617.738	996.72
617.938	1081.19
