Data from oakcork_FLMT105791__179__17-31-52-057.txt Node

Date: Mon Mar 20 17:31:52 GMT 2023
User: antho
Spectrometer: FLMT10579
Trigger mode: 0
Integration Time (sec): 1.000000E-1
Scans to average: 10
Electric dark correction enabled: true
Nonlinearity correction enabled: false
Boxcar width: 0
XAxis mode: Wavelengths
Number of Pixels in Spectrum: 3648
>>>>>Begin Spectral Data<<<<<
345.248	-122.22
345.464	-122.22
345.681	-122.22
345.898	-153.03
346.114	-152.06
346.331	-20.5
346.548	28.71
346.764	21.54
346.981	-16.63
347.197	-6.36
347.414	32.19
347.631	-37.55
347.847	48.28
348.064	-12.95
348.28	4.49
348.497	-39.1
348.713	-2.1
348.93	45.76
349.146	29.48
349.363	1.78
349.579	38.2
349.796	-18.37
350.012	25.8
350.229	14.37
350.445	27.16
350.661	-12.56
350.878	8.36
351.094	29.48
351.311	9.53
351.527	29.68
351.743	1.78
351.96	33.74
352.176	24.06
352.392	44.01
352.609	33.94
352.825	4.68
353.041	5.84
353.257	-11.21
353.474	2.16
353.69	25.22
353.906	-3.65
354.122	-9.46
354.339	43.43
354.555	-10.04
354.771	-1.71
354.987	71.72
355.203	70.94
355.42	1
355.636	3.52
355.852	1
356.068	-0.16
356.284	-7.52
356.5	78.69
356.716	35.68
356.932	44.98
357.148	17.66
357.364	23.67
357.58	50.21
357.796	40.33
358.012	81.79
358.228	31.81
358.444	-35.42
358.66	74.04
358.876	4.1
359.092	22.31
359.308	31.81
359.524	48.28
359.74	17.66
359.956	13.01
360.172	16.11
360.388	32
360.604	-7.33
360.819	88.19
361.035	9.33
361.251	35.29
361.467	-9.66
361.683	49.24
361.898	16.69
362.114	58.74
362.33	42.66
362.546	68.62
362.762	6.04
362.977	27.54
363.193	7.01
363.409	39.36
363.624	-9.66
363.84	-9.46
364.056	-4.81
364.271	17.66
364.487	51.76
364.703	-9.66
364.918	8.75
365.134	-8.3
365.35	15.92
365.565	118.41
365.781	15.53
365.996	76.56
366.212	56.61
366.427	34.33
366.643	-2.49
366.858	-10.82
367.074	-0.55
367.289	54.48
367.505	101.75
367.72	2.55
367.936	8.36
368.151	56.8
368.367	46.34
368.582	20.57
368.798	0.61
369.013	62.42
369.228	29.68
369.444	29.48
369.659	63.78
369.874	57.58
370.09	67.65
370.305	-19.54
370.52	-15.47
370.736	74.82
370.951	13.98
371.166	70.17
371.381	63.78
371.597	44.79
371.812	-2.49
372.027	15.73
372.242	25.61
372.458	75.79
372.673	46.73
372.888	26.58
373.103	56.03
373.318	97.29
373.533	33.16
373.749	45.37
373.964	-16.24
374.179	79.08
374.394	0.81
374.609	62.61
374.824	-1.91
375.039	79.66
375.254	18.63
375.469	81.79
375.684	44.21
375.899	40.14
376.114	34.91
376.329	31.03
376.544	87.61
376.759	53.31
376.974	20.18
377.189	46.73
377.404	22.31
377.619	50.02
377.834	-39.69
378.049	-14.69
378.264	-20.31
378.478	10.88
378.693	-14.11
378.908	53.12
379.123	32.39
379.338	71.72
379.553	46.73
379.767	15.14
379.982	33.74
380.197	63.39
380.412	22.12
380.626	43.04
380.841	116.09
381.056	51.76
381.271	97.68
381.485	3.13
381.7	-2.49
381.915	33.36
382.129	24.64
382.344	44.4
382.559	28.9
382.773	44.59
382.988	-19.73
383.202	26.38
383.417	12.04
383.632	114.34
383.846	42.27
384.061	39.17
384.275	0.03
384.49	58.54
384.704	44.79
384.919	49.05
385.133	43.63
385.348	61.45
385.562	0.23
385.777	43.43
385.991	40.53
386.206	32.58
386.42	-12.56
386.634	84.31
386.849	66.68
387.063	65.33
387.277	9.33
387.492	19.02
387.706	6.62
387.92	17.86
388.135	78.89
388.349	38.59
388.563	30.06
388.778	31.61
388.992	44.79
389.206	58.35
389.42	81.02
389.635	37.62
389.849	60.09
390.063	78.89
390.277	45.56
390.491	98.84
390.706	59.51
390.92	59.32
391.134	41.49
391.348	57.58
391.562	18.44
391.776	35.49
391.99	16.31
392.205	85.47
392.419	17.47
392.633	34.71
392.847	91.87
393.061	10.88
393.275	93.03
393.489	59.13
393.703	47.5
393.917	76.17
394.131	23.28
394.345	57.38
394.559	81.02
394.773	51.18
394.986	56.61
395.2	46.73
395.414	58.74
395.628	22.51
395.842	28.13
396.056	43.24
396.27	-5.78
396.484	77.53
396.697	53.12
396.911	68.04
397.125	61.64
397.339	56.61
397.553	56.22
397.766	106.4
397.98	50.79
398.194	90.71
398.408	31.03
398.621	58.54
398.835	66.68
399.049	41.11
399.262	88.38
399.476	99.81
399.69	90.9
399.903	115.89
400.117	65.91
400.331	113.37
400.544	21.93
400.758	151.35
400.971	74.62
401.185	93.42
401.398	36.46
401.612	91.09
401.826	90.51
402.039	98.26
402.253	66.29
402.466	71.33
402.68	58.35
402.893	85.47
403.106	91.09
403.32	55.64
403.533	91.29
403.747	52.15
403.96	62.61
404.174	87.99
404.387	44.59
404.6	59.51
404.814	105.43
405.027	61.84
405.24	56.99
405.454	53.51
405.667	110.66
405.88	20.57
406.094	68.62
406.307	74.43
406.52	48.47
406.733	39.94
406.947	23.09
407.16	127.52
407.373	114.92
407.586	55.83
407.799	54.09
408.012	99.81
408.226	77.72
408.439	121.71
408.652	60.68
408.865	80.24
409.078	98.07
409.291	110.27
409.504	40.91
409.717	86.44
409.93	101.94
410.143	97.87
410.357	11.46
410.57	24.25
410.783	97.87
410.996	107.37
411.209	57.58
411.421	114.54
411.634	93.42
411.847	62.61
412.06	71.72
412.273	72.88
412.486	88.77
412.699	159.49
412.912	56.61
413.125	118.99
413.338	82.37
413.55	93.03
413.763	78.5
413.976	68.43
414.189	47.31
414.402	68.81
414.615	126.74
414.827	43.63
415.04	95.74
415.253	93.81
415.466	130.04
415.678	137.98
415.891	88.19
416.104	95.16
416.316	83.92
416.529	61.45
416.742	74.04
416.954	114.54
417.167	87.61
417.38	94.97
417.592	121.12
417.805	61.84
418.017	26.96
418.23	109.89
418.442	76.37
418.655	63
418.868	91.29
419.08	138.17
419.293	121.32
419.505	110.08
419.718	60.48
419.93	135.46
420.142	100.59
420.355	146.31
420.567	145.73
420.78	115.31
420.992	84.12
421.205	139.72
421.417	41.88
421.629	92.06
421.842	64.36
422.054	49.83
422.266	117.25
422.479	132.56
422.691	76.37
422.903	120.35
423.115	85.67
423.328	84.31
423.54	88.19
423.752	81.41
423.964	51.18
424.177	106.98
424.389	76.37
424.601	170.53
424.813	109.69
425.025	124.03
425.238	106.59
425.45	100.59
425.662	89.93
425.874	395.28
426.086	101.17
426.298	143.41
426.51	116.67
426.722	113.57
426.934	79.27
427.146	154.84
427.358	47.69
427.57	134.3
427.782	84.31
427.994	100.01
428.206	70.36
428.418	81.6
428.63	112.41
428.842	122.09
429.054	111.05
429.266	123.84
429.478	69.98
429.69	103.3
429.902	65.71
430.114	106.21
430.325	106.01
430.537	90.51
430.749	93.03
430.961	47.5
431.173	92.84
431.384	104.07
431.596	35.68
431.808	77.14
432.02	95.94
432.231	124.22
432.443	143.6
432.655	125.77
432.867	118.8
433.078	131.2
433.29	167.62
433.502	111.24
433.713	141.66
433.925	112.79
434.136	122.09
434.348	83.92
434.56	49.05
434.771	202.3
434.983	78.89
435.194	70.75
435.406	95.94
435.617	150.19
435.829	165.3
436.04	145.34
436.252	135.27
436.463	160.45
436.675	130.04
436.886	144.18
437.098	96.13
437.309	165.69
437.521	121.9
437.732	137.79
437.943	118.41
438.155	107.37
438.366	65.71
438.578	172.08
438.789	140.5
439	157.94
439.211	141.86
439.423	147.09
439.634	146.31
439.845	141.27
440.057	146.89
440.268	153.67
440.479	91.29
440.69	132.17
440.902	119.77
441.113	126.74
441.324	103.11
441.535	139.34
441.746	184.67
441.957	140.11
442.168	101.17
442.38	145.34
442.591	166.85
442.802	118.99
443.013	120.35
443.224	151.93
443.435	111.63
443.646	143.21
443.857	126.55
444.068	130.81
444.279	102.52
444.49	182.15
444.701	131.39
444.912	219.55
445.123	182.74
445.334	185.45
445.545	170.14
445.756	137.21
445.967	104.46
446.178	161.62
446.388	180.99
446.599	186.8
446.81	174.79
447.021	144.18
447.232	180.41
447.443	195.52
447.653	96.91
447.864	168.2
448.075	148.64
448.286	180.8
448.496	158.13
448.707	193.39
448.918	147.09
449.129	246.87
449.339	114.73
449.55	169.17
449.761	160.07
449.971	212.38
450.182	155.81
450.393	170.92
450.603	166.46
450.814	181.96
451.024	207.15
451.235	222.84
451.446	210.64
451.656	223.42
451.867	145.34
452.077	177.89
452.288	222.65
452.498	264.3
452.709	169.56
452.919	195.72
453.13	128.1
453.34	210.44
453.55	120.35
453.761	185.06
453.971	212.96
454.182	219.55
454.392	188.55
454.602	250.93
454.813	184.87
455.023	203.27
455.233	138.76
455.444	189.52
455.654	125.97
455.864	180.99
456.075	178.47
456.285	181.96
456.495	183.9
456.705	190.29
456.916	228.85
457.126	235.44
457.336	182.54
457.546	134.11
457.756	197.65
457.967	239.89
458.177	164.72
458.387	194.75
458.597	160.07
458.807	176.92
459.017	198.24
459.227	180.8
459.437	193.39
459.647	230.4
459.857	207.73
460.068	177.7
460.278	241.44
460.488	209.86
460.698	248.03
460.908	193
461.117	166.27
461.327	188.74
461.537	208.31
461.747	201.34
461.957	202.5
462.167	298.4
462.377	243.77
462.587	204.44
462.797	233.5
463.007	200.75
463.216	200.95
463.426	241.05
463.636	243.19
463.846	150.77
464.056	202.3
464.265	259.46
464.475	169.75
464.685	240.28
464.895	224.39
465.104	206.57
465.314	231.75
465.524	216.06
465.733	191.07
465.943	271.08
466.153	262.75
466.362	268.95
466.572	247.64
466.782	211.6
466.991	218.97
467.201	259.46
467.41	166.65
467.62	240.47
467.829	162.59
468.039	224.78
468.249	222.07
468.458	201.53
468.668	249.38
468.877	214.9
469.086	255.58
469.296	250.55
469.505	195.33
469.715	314.1
469.924	247.83
470.134	266.24
470.343	291.23
470.552	213.93
470.762	250.35
470.971	226.52
471.18	240.28
471.39	200.17
471.599	188.94
471.808	244.54
472.018	211.41
472.227	262.37
472.436	270.7
472.645	235.82
472.855	213.54
473.064	299.18
473.273	240.28
473.482	272.44
473.691	274.77
473.901	278.06
474.11	248.03
474.319	334.63
474.528	255.58
474.737	304.8
474.946	274.96
475.155	273.22
475.364	284.26
475.573	295.11
475.783	254.81
475.992	287.94
476.201	305.96
476.41	269.15
476.619	251.71
476.828	284.45
477.037	238.34
477.245	302.86
477.454	323.01
477.663	289.1
477.872	259.65
478.081	363.31
478.29	279.22
478.499	344.9
478.708	312.16
478.917	347.61
479.125	282.32
479.334	322.43
479.543	285.42
479.752	309.25
479.961	297.82
480.169	352.85
480.378	310.03
480.587	405.35
480.796	338.12
481.004	319.13
481.213	347.23
481.422	342.19
481.63	311.97
481.839	352.07
482.048	382.88
482.256	308.28
482.465	328.24
482.674	348.2
482.882	365.83
483.091	426.86
483.299	338.12
483.508	365.44
483.716	349.55
483.925	365.83
484.134	342.96
484.342	330.57
484.551	384.04
484.759	379.2
484.967	373.38
485.176	385.2
485.384	399.35
485.593	434.8
485.801	373.38
486.01	341.8
486.218	366.99
486.426	311.97
486.635	340.83
486.843	322.82
487.051	346.06
487.26	341.03
487.468	367.76
487.676	380.94
487.885	330.37
488.093	367.18
488.301	372.41
488.509	370.86
488.717	405.16
488.926	397.8
489.134	373.77
489.342	378.23
489.55	375.51
489.758	369.9
489.967	353.23
490.175	487.89
490.383	351.1
490.591	442.94
490.799	354.01
491.007	417.36
491.215	394.5
491.423	358.66
491.631	387.72
491.839	404.58
492.047	426.86
492.255	379.58
492.463	373.96
492.671	363.11
492.879	448.56
493.087	406.9
493.295	468.71
493.503	432.09
493.711	411.55
493.919	449.91
494.127	474.71
494.334	481.49
494.542	386.36
494.75	432.28
494.958	421.63
495.166	465.03
495.374	427.83
495.581	463.67
495.789	462.12
495.997	485.37
496.205	439.84
496.412	418.33
496.62	443.52
496.828	465.22
497.035	436.54
497.243	459.99
497.451	417.56
497.658	447.01
497.866	434.41
498.074	490.99
498.281	415.23
498.489	546.4
498.696	446.23
498.904	453.4
499.112	422.21
499.319	508.04
499.527	427.05
499.734	510.94
499.942	407.68
500.149	455.73
500.357	497.58
500.564	435.19
500.771	464.64
500.979	422.21
501.186	423.37
501.394	462.7
501.601	475.68
501.808	469.68
502.016	459.79
502.223	472.19
502.43	461.73
502.638	446.81
502.845	427.24
503.052	529.16
503.26	457.66
503.467	559.19
503.674	486.34
503.881	482.46
504.089	556.28
504.296	499.71
504.503	460.57
504.71	506.29
504.917	451.85
505.125	499.71
505.332	495.83
505.539	509.59
505.746	553.76
505.953	521.41
506.16	518.69
506.367	566.55
506.574	586.7
506.781	556.28
506.988	525.47
507.195	527.02
507.402	537.29
507.609	564.42
507.816	519.86
508.023	506.1
508.23	528.19
508.437	495.44
508.644	558.41
508.851	583.99
509.058	575.85
509.265	563.26
509.472	556.47
509.679	635.72
509.885	537.29
510.092	557.06
510.299	566.55
510.506	554.73
510.713	568.1
510.92	554.73
511.126	584.76
511.333	614.02
511.54	618.28
511.746	622.93
511.953	600.07
512.16	617.31
512.367	592.12
512.573	549.5
512.78	585.92
512.987	598.52
513.193	598.9
513.4	527.61
513.606	591.35
513.813	609.95
514.02	608.98
514.226	677.37
514.433	624.87
514.639	581.66
514.846	604.91
515.052	575.27
515.259	605.3
515.465	604.91
515.672	630.1
515.878	716.9
516.085	641.14
516.291	667.3
516.497	587.28
516.704	598.32
516.91	594.84
517.117	581.27
517.323	560.54
517.529	600.65
517.736	567.71
517.942	632.04
518.148	604.14
518.354	642.11
518.561	631.45
518.767	621.77
518.973	630.87
519.179	636.3
519.386	618.67
519.592	617.5
519.798	615.18
520.004	700.82
520.21	649.09
520.417	708.95
520.623	693.26
520.829	721.35
521.035	738.21
521.241	698.3
521.447	747.7
521.653	831.98
521.859	732.78
522.065	724.45
522.271	826.36
522.477	762.62
522.683	817.84
522.889	795.36
523.095	767.66
523.301	771.92
523.507	732.59
523.713	778.12
523.919	729.49
524.125	804.47
524.331	785.48
524.537	868.21
524.742	809.12
524.948	844.58
525.154	824.62
525.36	914.52
525.566	838.57
525.772	889.91
525.977	804.66
526.183	874.8
526.389	868.21
526.595	834.5
526.8	818.81
527.006	794.2
527.212	760.49
527.417	781.8
527.623	755.45
527.829	815.32
528.034	821.71
528.24	842.64
528.446	812.61
528.651	857.95
528.857	887.2
529.062	937.19
529.268	884.49
529.473	898.24
529.679	883.52
529.884	939.9
530.09	925.76
530.295	969.16
530.501	937.38
530.706	936.22
530.912	887.2
531.117	920.14
531.323	929.63
531.528	991.44
531.733	993.37
531.939	934.67
532.144	980.2
532.35	955.59
532.555	1034.84
532.76	966.25
532.966	980.97
533.171	954.04
533.376	923.63
533.581	915.29
533.787	942.03
533.992	990.86
534.197	1014.88
534.402	946.49
534.607	951.52
534.813	1055.37
535.018	937.77
535.223	952.69
535.428	993.96
535.633	1036.19
535.838	990.66
536.043	1015.07
536.249	1095.67
536.454	1011.2
536.659	1029.02
536.864	1017.21
537.069	995.12
537.274	1037.94
537.479	1009.46
537.684	1032.71
537.889	994.92
538.094	1084.24
538.299	1051.5
538.504	1094.7
538.708	1038.71
538.913	1054.02
539.118	1071.84
539.323	1064.09
539.528	1036.97
539.733	1043.75
539.938	1062.15
540.142	1077.46
540.347	1030.96
540.552	1040.84
540.757	1045.88
540.962	1028.64
541.166	1031.35
541.371	1039.68
541.576	1039.29
541.781	958.11
541.985	1037.16
542.19	1044.91
542.395	1136.75
542.599	1125.51
542.804	1090.44
543.008	1137.72
543.213	1059.83
543.418	1022.63
543.622	1104.59
543.827	1014.11
544.031	1118.15
544.236	1111.37
544.44	1089.09
544.645	1167.17
544.849	1071.26
545.054	1114.66
545.258	1190.03
545.463	1157.67
545.667	1080.37
545.872	1122.8
546.076	1129.58
546.281	1092.96
546.485	1104.78
546.689	1150.12
546.894	1172.78
547.098	1123.18
547.302	1066.8
547.507	1122.6
547.711	1126.87
547.915	1161.16
548.119	1098.58
548.324	1119.31
548.528	1166.78
548.732	1143.92
548.936	1119.89
549.141	1185.77
549.345	1126.09
549.549	1141.78
549.753	1153.02
549.957	1182.86
550.161	1174.53
550.366	1160.58
550.57	1140.04
550.774	1154.38
550.978	1131.9
551.182	1117.76
551.386	1120.09
551.59	1112.14
551.794	1151.08
551.998	1143.92
552.202	1126.09
552.406	1108.65
552.61	1153.8
552.814	1128.42
553.018	1183.44
553.222	1112.72
553.426	1122.6
553.63	1200.68
553.833	1158.06
554.037	1128.42
554.241	1161.74
554.445	1136.94
554.649	1116.4
554.853	1129.19
555.056	1162.52
555.26	1170.85
555.464	1167.36
555.668	1156.32
555.871	1198.17
556.075	1172.4
556.279	1152.25
556.483	1090.83
556.686	1127.06
556.89	1114.47
557.094	1135
557.297	1091.02
557.501	1183.25
557.704	1046.85
557.908	1127.83
558.112	1093.93
558.315	1154.57
558.519	1092.19
558.722	1119.12
558.926	1104
559.129	1029.8
559.333	1053.44
559.536	1038.71
559.74	1042.78
559.943	1037.74
560.147	1036
560.35	1089.28
560.553	1046.46
560.757	1019.92
560.96	1121.63
561.164	1040.26
561.367	1104.39
561.57	1027.09
561.774	1059.64
561.977	1042
562.18	1040.07
562.384	1117.37
562.587	1076.49
562.79	1049.56
562.993	1038.32
563.197	1074.36
563.4	1099.35
563.603	1096.45
563.806	1141.98
564.009	1030.38
564.212	1081.92
564.416	1006.74
564.619	1092.57
564.822	990.66
565.025	1053.24
565.228	1005.97
565.431	1028.06
565.634	982.52
565.837	1010.42
566.04	974.39
566.243	978.65
566.446	886.43
566.649	999.77
566.852	962.37
567.055	983.69
567.258	990.86
567.461	1028.64
567.664	1038.52
567.867	932.34
568.07	988.72
568.273	965.67
568.475	984.85
568.678	939.32
568.881	954.62
569.084	971.48
569.287	882.74
569.489	951.91
569.692	969.93
569.895	962.18
570.098	866.47
570.3	897.86
570.503	841.67
570.706	863.95
570.909	863.18
571.111	840.9
571.314	839.15
571.516	853.1
571.719	866.28
571.922	837.6
572.124	855.62
572.327	891.08
572.529	796.14
572.732	856.59
572.935	847.48
573.137	894.76
573.34	837.41
573.542	878.09
573.745	863.56
573.947	841.09
574.15	830.24
574.352	801.18
574.554	897.47
574.757	821.71
574.959	803.89
575.162	820.36
575.364	820.75
575.566	905.03
575.769	803.89
575.971	825.59
576.173	745.57
576.376	788.39
576.578	830.43
576.78	856.59
576.982	755.84
577.185	791.3
577.387	735.11
577.589	757.2
577.791	794.78
577.993	830.24
578.196	781.22
578.398	771.15
578.6	809.9
578.802	726.78
579.004	764.95
579.206	753.9
579.408	805.83
579.61	774.05
579.812	809.51
580.014	761.65
580.216	737.05
580.418	759.52
580.62	773.86
580.822	732.59
581.024	756.03
581.226	782.77
581.428	770.18
581.63	806.6
581.832	758.36
582.034	825.01
582.236	736.85
582.438	794.01
582.64	807.76
582.841	789.94
583.043	841.67
583.245	766.11
583.447	772.11
583.649	754.87
583.85	800.4
584.052	818.42
584.254	723.87
584.456	833.73
584.657	752.16
584.859	762.04
585.061	769.6
585.262	752.93
585.464	736.08
585.666	782.58
585.867	756.62
586.069	814.55
586.27	771.73
586.472	755.65
586.674	751.97
586.875	732.98
587.077	728.91
587.278	753.52
587.48	740.34
587.681	799.05
587.883	765.92
588.084	681.44
588.285	713.8
588.487	696.75
588.688	744.6
588.89	669.82
589.091	660.9
589.292	685.9
589.494	661.49
589.695	675.24
589.896	608.59
590.098	594.84
590.299	620.41
590.5	622.35
590.702	650.44
590.903	659.16
591.104	712.63
591.305	652.77
591.507	736.08
591.708	680.67
591.909	641.53
592.11	761.27
592.311	679.12
592.512	662.84
592.714	615.57
592.915	632.04
593.116	683.38
593.317	660.71
593.518	656.45
593.719	682.02
593.92	692.1
594.121	716.7
594.322	676.6
594.523	670.2
594.724	644.44
594.925	664.97
595.126	711.08
595.327	694.62
595.528	679.12
595.729	666.72
595.929	670.79
596.13	650.64
596.331	679.12
596.532	683.38
596.733	732.59
596.934	702.75
597.135	702.37
597.335	715.35
597.536	641.53
597.737	654.51
597.938	667.88
598.138	712.63
598.339	696.55
598.54	670.4
598.74	646.95
598.941	663.42
599.142	695.97
599.342	665.94
599.543	650.25
599.744	644.05
599.944	640.56
600.145	645.99
600.345	683.96
600.546	742.08
600.746	714.77
600.947	743.25
601.147	682.41
601.348	684.54
601.548	625.64
601.749	655.29
601.949	613.63
602.15	663.42
602.35	629.71
602.551	687.83
602.751	617.7
602.951	654.51
603.152	567.32
603.352	668.07
603.552	637.27
603.753	684.15
603.953	678.34
604.153	659.35
604.354	637.07
604.554	653.15
604.754	665.94
604.954	601.62
605.155	656.84
605.355	651.22
605.555	667.49
605.755	703.53
605.955	659.55
606.155	673.69
606.356	682.6
606.556	684.73
606.756	661.68
606.956	589.02
607.156	689.58
607.356	627.19
607.556	655.87
607.756	651.6
607.956	670.79
608.156	651.41
608.356	638.24
608.556	652.38
608.756	639.79
608.956	603.55
609.156	643.85
609.356	616.92
609.556	632.04
609.755	628.35
609.955	588.83
610.155	625.84
610.355	635.14
610.555	609.37
610.755	640.37
610.954	560.16
611.154	617.12
611.354	666.14
611.554	580.5
611.753	583.02
611.953	575.46
612.153	621.77
612.352	621.57
612.552	576.62
612.752	535.94
612.951	597.16
613.151	617.89
613.351	571.59
613.55	597.74
613.75	624.87
613.949	599.49
614.149	606.65
614.348	573.91
614.548	560.16
614.747	535.55
614.947	582.24
615.146	513.46
615.346	591.74
615.545	594.64
615.745	547.17
615.944	587.47
616.144	573.72
616.343	594.64
616.542	555.31
616.742	582.82
616.941	571.01
617.14	515.01
617.34	577.59
617.539	578.95
617.738	533.81
617.938	629.32
618.137	565.97
618.336	522.96
618.535	580.69
618.734	562.29
618.934	549.5
619.133	546.79
619.332	583.99
619.531	537.49
619.73	540.78
619.929	582.63
620.128	584.96
620.328	647.73
620.527	499.71
620.726	532.84
620.925	565.97
621.124	549.89
621.323	555.89
621.522	522.57
621.721	528.96
621.92	539.81
622.119	557.64
622.318	507.26
622.517	519.27
622.715	528.77
622.914	477.04
623.113	540.59
623.312	488.28
623.511	549.11
623.71	513.27
623.909	500.87
