Data from oakcork_FLMT105791__162__17-31-35-058.txt Node

Date: Mon Mar 20 17:31:35 GMT 2023
User: antho
Spectrometer: FLMT10579
Trigger mode: 0
Integration Time (sec): 1.000000E-1
Scans to average: 10
Electric dark correction enabled: true
Nonlinearity correction enabled: false
Boxcar width: 0
XAxis mode: Wavelengths
Number of Pixels in Spectrum: 3648
>>>>>Begin Spectral Data<<<<<
345.248	-144.58
345.464	-144.58
345.681	-144.58
345.898	-160.86
346.114	-152.53
346.331	-17.68
346.548	4.41
346.764	-11.29
346.981	12.74
347.197	15.84
347.414	6.93
347.631	-14.39
347.847	58.85
348.064	-26.4
348.28	24.94
348.497	-40.35
348.713	-13.61
348.93	24.36
349.146	27.27
349.363	-31.24
349.579	7.9
349.796	-10.7
350.012	-22.72
350.229	22.04
350.445	-12.64
350.661	-15.94
350.878	11.19
351.094	-5.86
351.311	15.84
351.527	7.7
351.743	-9.74
351.96	31.73
352.176	13.71
352.392	32.69
352.609	5.18
352.825	-13.8
353.041	11.58
353.257	-13.03
353.474	3.63
353.69	4.21
353.906	30.95
354.122	-26.01
354.339	60.79
354.555	-20.39
354.771	-25.82
354.987	34.83
355.203	55.94
355.42	1.11
355.636	-5.28
355.852	-10.51
356.068	33.86
356.284	-18.07
356.5	51.68
356.716	12.93
356.932	8.09
357.148	3.44
357.364	0.34
357.58	50.52
357.796	48.39
358.012	43.54
358.228	14.1
358.444	-47.52
358.66	51.49
358.876	23.2
359.092	-6.05
359.308	9.64
359.524	34.44
359.74	-21.55
359.956	0.92
360.172	18.55
360.388	33.66
360.604	4.6
360.819	92.95
361.035	14.48
361.251	25.53
361.467	7.9
361.683	35.99
361.898	32.5
362.114	37.93
362.33	17.78
362.546	32.69
362.762	4.21
362.977	14.1
363.193	-20.59
363.409	25.91
363.624	-34.15
363.84	26.88
364.056	-28.92
364.271	39.67
364.487	35.41
364.703	1.5
364.918	-3.34
365.134	-8.19
365.35	-3.54
365.565	88.11
365.781	20.88
365.996	28.43
366.212	57.3
366.427	12.74
366.643	-6.05
366.858	-10.51
367.074	-32.4
367.289	45.29
367.505	85.78
367.72	-18.26
367.936	-9.35
368.151	41.61
368.367	26.3
368.582	7.7
368.798	-8.19
369.013	38.31
369.228	24.56
369.444	12.35
369.659	39.67
369.874	40.25
370.09	71.44
370.305	-39.38
370.52	13.32
370.736	61.95
370.951	-29.5
371.166	88.11
371.381	80.36
371.597	37.73
371.812	-31.44
372.027	-9.35
372.242	0.73
372.458	77.84
372.673	31.53
372.888	-17.68
373.103	41.99
373.318	112.13
373.533	49.94
373.749	40.83
373.964	-20.59
374.179	70.28
374.394	-23.69
374.609	76.68
374.824	-18.26
375.039	63.69
375.254	-23.69
375.469	62.73
375.684	14.29
375.899	55.56
376.114	5.76
376.329	12.35
376.544	45.29
376.759	60.4
376.974	14.29
377.189	12.16
377.404	15.06
377.619	27.85
377.834	-28.72
378.049	-10.7
378.264	-3.54
378.478	25.72
378.693	-5.47
378.908	39.09
379.123	10.41
379.338	58.27
379.553	37.93
379.767	25.53
379.982	50.91
380.197	21.46
380.412	4.99
380.626	19.71
380.841	86.56
381.056	9.83
381.271	57.3
381.485	-24.65
381.7	-1.4
381.915	19.71
382.129	38.89
382.344	20.3
382.559	22.43
382.773	50.71
382.988	-17.29
383.202	25.14
383.417	-4.7
383.632	82.68
383.846	29.79
384.061	19.71
384.275	24.94
384.49	17.2
384.704	41.99
384.919	23.2
385.133	17.97
385.348	36.76
385.562	-2.57
385.777	55.75
385.991	9.45
386.206	-4.89
386.42	14.1
386.634	59.04
386.849	26.49
387.063	27.66
387.277	-18.07
387.492	4.6
387.706	3.25
387.92	-23.49
388.135	50.91
388.349	46.64
388.563	14.87
388.778	24.17
388.992	38.12
389.206	30.18
389.42	100.7
389.635	-9.35
389.849	42.38
390.063	73.19
390.277	24.75
390.491	65.05
390.706	51.88
390.92	58.27
391.134	39.48
391.348	62.53
391.562	-23.1
391.776	4.8
391.99	6.35
392.205	68.15
392.419	-20
392.633	5.96
392.847	73.19
393.061	-7.22
393.275	105.16
393.489	12.55
393.703	45.87
393.917	67.38
394.131	13.51
394.345	42.96
394.559	77.84
394.773	20.3
394.986	33.86
395.2	38.7
395.414	37.73
395.628	4.99
395.842	24.17
396.056	10.8
396.27	-43.64
396.484	27.85
396.697	36.57
396.911	70.09
397.125	60.59
397.339	54.78
397.553	32.69
397.766	85.01
397.98	57.88
398.194	55.36
398.408	15.65
398.621	57.3
398.835	48.78
399.049	17.78
399.262	65.24
399.476	72.8
399.69	34.05
399.903	95.86
400.117	33.47
400.331	44.9
400.544	29.79
400.758	128.6
400.971	49.55
401.185	58.08
401.398	18.55
401.612	75.13
401.826	54.59
402.039	58.27
402.253	14.29
402.466	44.32
402.68	16.03
402.893	49.55
403.106	36.18
403.32	35.99
403.533	47.03
403.747	72.8
403.96	48.39
404.174	54.78
404.387	9.83
404.6	51.29
404.814	84.04
405.027	31.53
405.24	4.6
405.454	6.93
405.667	92.37
405.88	34.24
406.094	39.28
406.307	90.82
406.52	60.98
406.733	1.11
406.947	10.61
407.16	113.49
407.373	79.19
407.586	34.63
407.799	25.72
408.012	82.49
408.226	57.3
408.439	98.76
408.652	5.57
408.865	72.61
409.078	67.76
409.291	58.46
409.504	25.14
409.717	53.23
409.93	82.1
410.143	55.94
410.357	16.03
410.57	22.43
410.783	47.23
410.996	50.13
411.209	62.92
411.421	103.03
411.634	46.26
411.847	32.5
412.06	54.2
412.273	31.53
412.486	42.96
412.699	127.44
412.912	34.05
413.125	60.79
413.338	54.59
413.55	88.69
413.763	65.24
413.976	61.56
414.189	34.44
414.402	31.34
414.615	79.97
414.827	29.01
415.04	80.74
415.253	69.12
415.466	95.66
415.678	121.82
415.891	35.99
416.104	38.89
416.316	48.97
416.529	47.61
416.742	103.99
416.954	76.87
417.167	52.07
417.38	53.62
417.592	99.15
417.805	29.59
418.017	19.13
418.23	52.46
418.442	73.19
418.655	37.73
418.868	82.68
419.08	65.83
419.293	104.96
419.505	55.94
419.718	87.91
419.93	106.32
420.142	62.92
420.355	84.62
420.567	119.69
420.78	81.33
420.992	58.27
421.205	124.92
421.417	24.56
421.629	48.19
421.842	35.99
422.054	20.68
422.266	56.91
422.479	93.92
422.691	57.11
422.903	111.16
423.115	52.65
423.328	37.73
423.54	94.69
423.752	73.77
423.964	59.63
424.177	78.03
424.389	58.27
424.601	169.29
424.813	65.24
425.025	107.68
425.238	90.63
425.45	61.56
425.662	37.34
425.874	337.46
426.086	67.38
426.298	90.43
426.51	71.25
426.722	64.08
426.934	30.95
427.146	84.04
427.358	24.94
427.57	85.78
427.782	38.7
427.994	47.42
428.206	40.25
428.418	28.24
428.63	90.24
428.842	83.46
429.054	78.03
429.266	88.49
429.478	45.87
429.69	58.85
429.902	4.41
430.114	107.29
430.325	85.98
430.537	57.11
430.749	48.58
430.961	45.87
431.173	69.51
431.384	81.71
431.596	13.9
431.808	78.03
432.02	71.06
432.231	80.94
432.443	99.34
432.655	68.73
432.867	47.61
433.078	86.56
433.29	107.29
433.502	109.23
433.713	108.84
433.925	64.28
434.136	105.54
434.348	9.25
434.56	40.83
434.771	148.75
434.983	32.31
435.194	42.38
435.406	66.6
435.617	122.79
435.829	118.33
436.04	104.58
436.252	126.27
436.463	128.79
436.675	126.66
436.886	83.84
437.098	109.81
437.309	119.11
437.521	82.29
437.732	120.27
437.943	68.93
438.155	81.52
438.366	66.99
438.578	152.04
438.789	67.76
439	111.36
439.211	72.8
439.423	112.32
439.634	95.28
439.845	109.03
440.057	84.62
440.268	135.96
440.479	68.34
440.69	90.82
440.902	83.07
441.113	117.56
441.324	72.99
441.535	116.59
441.746	153.98
441.957	58.46
442.168	73.38
442.38	133.44
442.591	115.42
442.802	59.43
443.013	66.6
443.224	97.99
443.435	70.48
443.646	70.48
443.857	99.15
444.068	82.29
444.279	61.18
444.49	156.11
444.701	75.51
444.912	195.83
445.123	159.79
445.334	107.09
445.545	111.55
445.756	116.39
445.967	89.66
446.178	139.06
446.388	141.58
446.599	134.41
446.81	142.16
447.021	114.84
447.232	168.32
447.443	171.81
447.653	82.1
447.864	128.41
448.075	135.57
448.286	150.49
448.496	131.51
448.707	144.87
448.918	97.79
449.129	206.68
449.339	82.1
449.55	167.35
449.761	135.57
449.971	169.67
450.182	109.61
450.393	170.64
450.603	115.23
450.814	143.52
451.024	153.59
451.235	164.25
451.446	165.22
451.656	176.46
451.867	122.79
452.077	137.51
452.288	158.82
452.498	188.86
452.709	118.91
452.919	154.17
453.13	117.56
453.34	177.62
453.55	82.68
453.761	175.68
453.971	150.88
454.182	181.69
454.392	145.26
454.602	198.93
454.813	150.11
455.023	126.27
455.233	89.08
455.444	136.74
455.654	88.88
455.864	153.79
456.075	121.82
456.285	105.93
456.495	117.94
456.705	135.19
456.916	180.52
457.126	176.26
457.336	137.32
457.546	68.34
457.756	113.68
457.967	171.61
458.177	137.9
458.387	169.09
458.597	119.88
458.807	146.42
459.017	145.65
459.227	148.94
459.437	144.87
459.647	167.93
459.857	174.71
460.068	112.71
460.278	179.36
460.488	155.53
460.698	236.32
460.908	152.43
461.117	117.75
461.327	133.25
461.537	150.3
461.747	138.67
461.957	142.94
462.167	228.19
462.377	198.74
462.587	140.61
462.797	186.72
463.007	153.98
463.216	185.17
463.426	202.42
463.636	182.46
463.846	121.82
464.056	128.02
464.265	197.57
464.475	125.5
464.685	142.74
464.895	177.42
465.104	141
465.314	189.24
465.524	172
465.733	131.7
465.943	247.75
466.153	227.8
466.362	190.41
466.572	160.57
466.782	155.92
466.991	161.73
467.201	221.79
467.41	114.07
467.62	189.82
467.829	152.04
468.039	182.46
468.249	165.02
468.458	163.47
468.668	209.78
468.877	209.78
469.086	205.71
469.296	202.8
469.505	149.33
469.715	230.7
469.924	178.78
470.134	233.03
470.343	230.7
470.552	191.96
470.762	162.89
470.971	149.52
471.18	191.96
471.39	173.94
471.599	169.48
471.808	190.79
472.018	169.87
472.227	233.61
472.436	213.65
472.645	181.69
472.855	179.17
473.064	216.17
473.273	175.1
473.482	234
473.691	228.38
473.901	227.99
474.11	191.18
474.319	269.26
474.528	199.7
474.737	233.03
474.946	209.39
475.155	222.95
475.364	263.64
475.573	222.37
475.783	218.69
475.992	229.35
476.201	259.19
476.41	219.47
476.619	199.9
476.828	220.82
477.037	202.42
477.245	224.7
477.454	242.14
477.663	202.22
477.872	219.08
478.081	288.63
478.29	212.69
478.499	305.68
478.708	233.22
478.917	294.83
479.125	231.87
479.334	222.18
479.543	215.79
479.752	246.59
479.961	240.78
480.169	258.41
480.378	219.08
480.587	332.03
480.796	271.39
481.004	232.25
481.213	282.24
481.422	237.29
481.63	232.25
481.839	269.07
482.048	313.24
482.256	258.8
482.465	269.26
482.674	269.45
482.882	268.68
483.091	345.21
483.299	259.77
483.508	318.28
483.716	244.85
483.925	290.57
484.134	248.53
484.342	275.65
484.551	306.65
484.759	281.47
484.967	267.52
485.176	317.7
485.384	297.16
485.593	316.73
485.801	316.53
486.01	271.39
486.218	276.82
486.426	222.95
486.635	272.94
486.843	261.12
487.051	270.04
487.26	266.74
487.468	290.18
487.676	310.92
487.885	248.14
488.093	269.45
488.301	326.8
488.509	275.07
488.717	325.25
488.926	300.26
489.134	311.11
489.342	315.95
489.55	265.58
489.758	276.24
489.967	240.97
490.175	421.35
490.383	307.04
490.591	340.17
490.799	267.9
491.007	373.11
491.215	298.52
491.423	318.47
491.631	307.23
491.839	312.47
492.047	346.95
492.255	282.82
492.463	276.43
492.671	334.36
492.879	357.8
493.087	327.77
493.295	364.39
493.503	354.51
493.711	367.1
493.919	362.45
494.127	377.37
494.334	374.85
494.542	316.92
494.75	341.92
494.958	344.82
495.166	373.69
495.374	331.84
495.581	361.87
495.789	344.82
495.997	401.4
496.205	335.72
496.412	336.1
496.62	345.21
496.828	374.46
497.035	347.34
497.243	401.4
497.451	359.93
497.658	366.91
497.866	353.73
498.074	406.05
498.281	359.55
498.489	435.3
498.696	373.3
498.904	354.32
499.112	360.71
499.319	444.41
499.527	345.21
499.734	432.01
499.942	336.1
500.149	351.99
500.357	372.33
500.564	333.97
500.771	356.83
500.979	341.33
501.186	327.58
501.394	379.11
501.601	399.26
501.808	411.28
502.016	361.87
502.223	389.38
502.43	388.03
502.638	384.15
502.845	374.46
503.052	466.49
503.26	383.96
503.467	461.46
503.674	393.26
503.881	430.07
504.089	461.84
504.296	405.46
504.503	370.4
504.71	401.78
504.917	365.17
505.125	411.08
505.332	395.97
505.539	418.25
505.746	452.93
505.953	449.45
506.16	422.32
506.367	468.24
506.574	461.07
506.781	446.35
506.988	367.88
507.195	423.48
507.402	405.27
507.609	463.01
507.816	425.42
508.023	415.73
508.23	410.5
508.437	386.48
508.644	412.83
508.851	490.52
509.058	455.06
509.265	415.93
509.472	457
509.679	509.31
509.885	438.4
510.092	463.59
510.299	437.63
510.506	439.56
510.713	472.31
510.92	445.57
511.126	458.94
511.333	489.55
511.54	482.19
511.746	537.21
511.953	536.05
512.16	511.06
512.367	464.36
512.573	458.94
512.78	518.03
512.987	480.83
513.193	469.98
513.4	392.1
513.606	472.89
513.813	501.18
514.02	476.18
514.226	535.28
514.433	533.73
514.639	433.75
514.846	489.94
515.052	457
515.259	475.41
515.465	504.47
515.672	483.35
515.878	574.61
516.085	487.42
516.291	557.75
516.497	472.89
516.704	498.66
516.91	449.25
517.117	453.13
517.323	417.09
517.529	454.87
517.736	452.55
517.942	488.78
518.148	476.57
518.354	515.71
518.561	484.51
518.767	478.7
518.973	522.1
519.179	547.48
519.386	501.56
519.592	517.45
519.798	479.28
520.004	560.66
520.21	531.79
520.417	563.56
520.623	592.24
520.829	582.94
521.035	601.34
521.241	560.07
521.447	579.84
521.653	656.56
521.859	603.67
522.065	561.43
522.271	674.97
522.477	646.49
522.683	687.56
522.889	625.17
523.095	626.72
523.301	619.94
523.507	590.11
523.713	624.59
523.919	592.62
524.125	663.54
524.331	627.5
524.537	691.24
524.742	663.15
524.948	673.8
525.154	669.93
525.36	792.96
525.566	690.47
525.772	742.97
525.977	647.65
526.183	692.4
526.389	708.29
526.595	658.3
526.8	662.95
527.006	641.64
527.212	634.67
527.417	629.24
527.623	626.72
527.829	679.23
528.034	710.62
528.24	697.05
528.446	672.64
528.651	735.03
528.857	725.73
529.062	776.1
529.268	745.3
529.473	731.15
529.679	706.55
529.884	819.7
530.09	766.61
530.295	822.99
530.501	789.47
530.706	793.35
530.912	729.99
531.117	791.99
531.323	784.82
531.528	813.11
531.733	808.85
531.939	775.52
532.144	787.34
532.35	778.23
532.555	819.7
532.76	833.06
532.966	815.05
533.171	804.58
533.376	773.2
533.581	755.37
533.787	810.2
533.992	803.42
534.197	838.88
534.402	780.17
534.607	799.35
534.813	884.99
535.018	777.85
535.223	812.33
535.428	834.03
535.633	871.81
535.838	882.86
536.043	857.48
536.249	914.44
536.454	843.33
536.659	887.31
536.864	839.46
537.069	815.05
537.274	857.28
537.479	846.05
537.684	873.17
537.889	819.89
538.094	935.56
538.299	869.88
538.504	849.92
538.708	873.36
538.913	892.35
539.118	859.8
539.323	882.08
539.528	860.77
539.733	865.61
539.938	850.89
540.142	894.29
540.347	846.43
540.552	839.65
540.757	881.31
540.962	845.66
541.166	851.86
541.371	803.23
541.576	865.03
541.781	760.99
541.985	889.45
542.19	858.83
542.395	897.78
542.599	952.22
542.804	928.78
543.008	920.64
543.213	900.1
543.418	862.32
543.622	901.26
543.827	879.18
544.031	937.3
544.236	958.42
544.44	884.99
544.645	973.73
544.849	890.8
545.054	957.64
545.258	993.87
545.463	974.69
545.667	908.63
545.872	932.65
546.076	934.39
546.281	911.73
546.485	889.25
546.689	954.93
546.894	984.38
547.098	917.73
547.302	889.25
547.507	927.03
547.711	926.06
547.915	980.7
548.119	913.86
548.324	936.33
548.528	991.94
548.732	951.25
548.936	966.94
549.141	977.41
549.345	942.73
549.549	927.23
549.753	923.54
549.957	1034.17
550.161	1016.74
550.366	941.76
550.57	909.98
550.774	952.99
550.978	929.74
551.182	976.63
551.386	946.21
551.59	935.36
551.794	931.49
551.998	964.23
552.202	945.05
552.406	920.06
552.61	943.69
552.814	947.76
553.018	995.23
553.222	966.36
553.426	934.78
553.63	1021.39
553.833	929.74
554.037	914.05
554.241	995.62
554.445	952.99
554.649	951.06
554.853	962.29
555.056	1000.07
555.26	971.01
555.464	974.69
555.668	963.46
555.871	977.6
556.075	966.36
556.279	927.61
556.483	930.71
556.686	968.11
556.89	942.73
557.094	963.84
557.297	904.56
557.501	990.58
557.704	915.6
557.908	939.24
558.112	871.04
558.315	988.45
558.519	943.89
558.722	924.9
558.926	902.23
559.129	892.35
559.333	864.65
559.536	884.6
559.74	871.04
559.943	846.43
560.147	850.5
560.35	892.55
560.553	873.75
560.757	821.05
560.96	951.44
561.164	876.08
561.367	945.63
561.57	885.76
561.774	883.63
561.977	866.39
562.18	884.21
562.384	976.05
562.587	896.23
562.79	861.55
562.993	874.72
563.197	881.7
563.4	938.85
563.603	903.78
563.806	960.94
564.009	845.46
564.212	901.84
564.416	865.42
564.619	862.71
564.822	852.83
565.025	905.14
565.228	869.68
565.431	842.95
565.634	789.47
565.837	818.34
566.04	828.03
566.243	822.21
566.446	714.49
566.649	847.98
566.852	762.54
567.055	825.12
567.258	830.74
567.461	885.76
567.664	869.88
567.867	736.97
568.07	811.95
568.273	795.48
568.475	852.63
568.678	800.32
568.881	779.98
569.084	808.65
569.287	704.03
569.489	767.97
569.692	810.4
569.895	797.8
570.098	711.39
570.3	759.44
570.503	717.59
570.706	708.68
570.909	721.66
571.111	678.45
571.314	709.26
571.516	711
571.719	720.69
571.922	717.79
572.124	701.7
572.327	730.18
572.529	666.05
572.732	688.34
572.935	697.44
573.137	749.56
573.34	679.42
573.542	719.92
573.745	729.22
573.947	723.21
574.15	673.8
574.352	657.34
574.554	747.23
574.757	683.1
574.959	679.42
575.162	676.71
575.364	656.75
575.566	739.87
575.769	655.2
575.971	674.97
576.173	605.02
576.376	676.32
576.578	701.51
576.78	733.09
576.982	609.09
577.185	662.18
577.387	633.12
577.589	628.47
577.791	676.32
577.993	676.32
578.196	628.86
578.398	687.95
578.6	704.61
578.802	592.43
579.004	608.51
579.206	618.2
579.408	663.92
579.61	617.81
579.812	673.61
580.014	625.17
580.216	600.57
580.418	620.91
580.62	608.51
580.822	570.34
581.024	612.97
581.226	672.25
581.428	627.69
581.63	680
581.832	594.56
582.034	679.81
582.236	633.51
582.438	682.33
582.64	654.62
582.841	675.16
583.043	711.59
583.245	655.79
583.447	644.55
583.649	633.31
583.85	655.98
584.052	689.5
584.254	598.82
584.456	684.85
584.657	585.84
584.859	633.31
585.061	627.89
585.262	594.17
585.464	609.87
585.666	661.79
585.867	599.99
586.069	668.19
586.27	640.87
586.472	631.18
586.674	610.84
586.875	607.54
587.077	584.49
587.278	636.99
587.48	593.59
587.681	694.54
587.883	602.7
588.084	578.29
588.285	582.74
588.487	590.69
588.688	576.35
588.89	566.08
589.091	539.34
589.292	575.57
589.494	568.21
589.695	515.32
589.896	465.33
590.098	485.87
590.299	544.96
590.5	496.33
590.702	509.31
590.903	551.74
591.104	584.1
591.305	565.89
591.507	599.79
591.708	587.78
591.909	563.95
592.11	618.59
592.311	575.77
592.512	576.16
592.714	529.27
592.915	525.2
593.116	511.25
593.317	558.91
593.518	558.33
593.719	569.76
593.92	564.14
594.121	608.51
594.322	534.69
594.523	556.39
594.724	528.49
594.925	522.1
595.126	557.94
595.327	552.52
595.528	566.86
595.729	581.77
595.929	531.79
596.13	566.08
596.331	553.1
596.532	561.43
596.733	603.86
596.934	587.01
597.135	580.81
597.335	581.58
597.536	537.02
597.737	557.56
597.938	504.47
598.138	539.54
598.339	558.33
598.54	571.51
598.74	532.37
598.941	589.91
599.142	606.38
599.342	558.33
599.543	525.98
599.744	535.28
599.944	521.13
600.145	560.66
600.345	548.26
600.546	622.46
600.746	591.46
600.947	619.56
601.147	583.52
601.348	603.67
601.548	544.19
601.749	574.61
601.949	541.48
602.15	536.05
602.35	562.01
602.551	597.86
602.751	536.83
602.951	556.59
603.152	517.64
603.352	539.34
603.552	549.61
603.753	560.85
603.953	560.85
604.153	533.53
604.354	551.55
604.554	559.88
604.754	562.59
604.954	508.73
605.155	562.21
605.355	548.84
605.555	571.89
605.755	581.58
605.955	542.83
606.155	598.05
606.356	559.49
606.556	575.96
606.756	555.62
606.956	545.16
607.156	594.17
607.356	507.38
607.556	548.45
607.756	551.36
607.956	574.02
608.156	549.03
608.356	493.62
608.556	540.12
608.756	537.6
608.956	525.78
609.156	535.66
609.356	472.69
609.556	506.99
609.755	524.62
609.955	491.1
610.155	528.69
610.355	523.07
610.555	517.26
610.755	536.44
610.954	451.38
611.154	542.83
611.354	562.01
611.554	525.59
611.753	498.66
611.953	494.39
612.153	537.41
612.352	513.19
612.552	469.98
612.752	449.64
612.951	483.93
613.151	495.56
613.351	451.19
613.55	487.81
613.75	512.99
613.949	476.57
614.149	504.47
614.348	501.37
614.548	479.86
614.747	418.64
614.947	477.34
615.146	439.18
615.346	496.53
615.545	501.18
615.745	491.1
615.944	505.63
616.144	509.7
616.343	494.01
616.542	462.62
616.742	460.68
616.941	435.69
617.14	411.47
617.34	480.83
617.539	473.66
617.738	434.14
617.938	532.56
618.137	472.5
618.336	437.82
618.535	459.71
618.734	450.41
618.934	467.27
619.133	478.51
619.332	499.63
619.531	455.84
619.73	458.16
619.929	492.84
620.128	480.25
620.328	508.73
620.527	438.4
620.726	417.28
620.925	475.99
621.124	433.56
621.323	474.24
621.522	422.13
621.721	415.54
621.92	401.59
622.119	461.84
622.318	426.58
622.517	448.86
622.715	457.58
622.914	383.38
623.113	449.25
623.312	400.81
623.511	451.77
623.71	417.86
623.909	411.86
624.107	473.08
624.306	428.52
624.505	410.5
624.704	405.66
624.902	407.98
625.101	452.16
625.3	438.21
625.499	433.95
625.697	416.7
625.896	400.04
626.095	451
626.293	396.36
626.492	380.86
626.69	455.26
626.889	364.78
