Data from oakcork_FLMT105791__33__17-27-08-066.txt Node

Date: Mon Mar 20 17:27:08 GMT 2023
User: antho
Spectrometer: FLMT10579
Trigger mode: 0
Integration Time (sec): 1.000000E-1
Scans to average: 10
Electric dark correction enabled: true
Nonlinearity correction enabled: false
Boxcar width: 0
XAxis mode: Wavelengths
Number of Pixels in Spectrum: 3648
>>>>>Begin Spectral Data<<<<<
345.248	-148.8
345.464	-148.8
345.681	-148.8
345.898	-162.17
346.114	-150.15
346.331	-23.64
346.548	22.28
346.764	10.85
346.981	-8.14
347.197	-22.28
347.414	19.57
347.631	-25.77
347.847	58.32
348.064	-9.3
348.28	53.86
348.497	-66.46
348.713	-9.3
348.93	51.54
349.146	-0
349.363	2.32
349.579	13.37
349.796	12.59
350.012	6.59
350.229	40.88
350.445	30.61
350.661	-7.17
350.878	10.85
351.094	33.13
351.311	36.23
351.527	16.66
351.743	-2.13
351.96	47.86
352.176	54.25
352.392	49.6
352.609	44.37
352.825	-20.15
353.041	7.75
353.257	-6.01
353.474	24.99
353.69	7.56
353.906	8.14
354.122	-3.29
354.339	77.5
354.555	36.81
354.771	0.19
354.987	47.08
355.203	108.11
355.42	-15.5
355.636	24.8
355.852	38.75
356.068	10.66
356.284	-19.57
356.5	58.32
356.716	18.02
356.932	9.88
357.148	22.47
357.364	30.03
357.58	46.31
357.796	74.59
358.012	68.01
358.228	18.6
358.444	-67.81
358.66	61.22
358.876	12.98
359.092	-1.94
359.308	-0.58
359.524	25.77
359.74	-7.36
359.956	-24.99
360.172	10.07
360.388	28.67
360.604	-3.68
360.819	86.8
361.035	10.07
361.251	29.06
361.467	-30.03
361.683	61.03
361.898	6.59
362.114	25.38
362.33	29.64
362.546	49.99
362.762	13.76
362.977	15.11
363.193	-13.17
363.409	47.66
363.624	-25.96
363.84	-11.04
364.056	8.91
364.271	23.06
364.487	53.28
364.703	3.68
364.918	7.75
365.134	-9.88
365.35	34.68
365.565	121.48
365.781	9.88
365.996	73.24
366.212	83.7
366.427	29.45
366.643	6.78
366.858	19.96
367.074	-1.36
367.289	83.89
367.505	149.38
367.72	-6.2
367.936	6.78
368.151	73.62
368.367	57.16
368.582	54.64
368.798	14.53
369.013	79.82
369.228	43.59
369.444	48.82
369.659	74.79
369.874	45.53
370.09	67.62
370.305	-2.32
370.52	6.01
370.736	82.54
370.951	18.99
371.166	72.07
371.381	67.81
371.597	67.81
371.812	5.04
372.027	-2.91
372.242	16.86
372.458	101.91
372.673	4.46
372.888	36.04
373.103	46.89
373.318	116.64
373.533	41.85
373.749	28.67
373.964	14.34
374.179	58.12
374.394	0.97
374.609	75.37
374.824	-1.94
375.039	85.44
375.254	6.01
375.469	79.82
375.684	21.89
375.899	75.56
376.114	27.32
376.329	47.47
376.544	51.73
376.759	53.47
376.974	34.87
377.189	2.91
377.404	12.59
377.619	86.02
377.834	-10.27
378.049	0.39
378.264	9.49
378.478	39.72
378.693	4.46
378.908	47.08
379.123	36.04
379.338	72.46
379.553	72.66
379.767	56.77
379.982	46.69
380.197	68.39
380.412	26.54
380.626	75.17
380.841	120.12
381.056	43.98
381.271	82.54
381.485	24.41
381.7	21.31
381.915	48.24
382.129	13.56
382.344	57.16
382.559	36.62
382.773	42.24
382.988	-19.76
383.202	52.89
383.417	13.95
383.632	102.88
383.846	39.14
384.061	40.69
384.275	37.01
384.49	78.27
384.704	83.7
384.919	54.06
385.133	23.06
385.348	56.19
385.562	18.99
385.777	60.26
385.991	64.91
386.206	11.04
386.42	24.41
386.634	96.49
386.849	67.23
387.063	66.65
387.277	14.53
387.492	24.22
387.706	7.36
387.92	-18.79
388.135	78.08
388.349	63.55
388.563	68.59
388.778	46.31
388.992	67.23
389.206	85.83
389.42	126.9
389.635	59.48
389.849	74.01
390.063	70.72
390.277	48.82
390.491	117.6
390.706	63.55
390.92	113.54
391.134	57.35
391.348	93.39
391.562	6.01
391.776	66.46
391.99	37.97
392.205	81.57
392.419	40.49
392.633	56.38
392.847	90.09
393.061	38.17
393.275	98.04
393.489	44.76
393.703	32.16
393.917	87.96
394.131	21.51
394.345	89.32
394.559	82.54
394.773	40.88
394.986	84.09
395.2	75.95
395.414	95.32
395.628	38.56
395.842	77.11
396.056	74.59
396.27	10.85
396.484	61.61
396.697	57.54
396.911	78.86
397.125	74.21
397.339	105.01
397.553	66.84
397.766	119.93
397.98	88.35
398.194	120.7
398.408	34.1
398.621	83.12
398.835	102.1
399.049	96.87
399.262	121.87
399.476	114.12
399.69	113.15
399.903	138.92
400.117	84.47
400.331	87.96
400.544	73.43
400.758	208.08
400.971	87.19
401.185	148.6
401.398	87.77
401.612	141.82
401.826	106.17
402.039	113.54
402.253	83.89
402.466	126.13
402.68	84.67
402.893	98.62
403.106	108.11
403.32	87.96
403.533	109.08
403.747	84.67
403.96	118.38
404.174	117.99
404.387	93.97
404.6	128.07
404.814	139.11
405.027	140.85
405.24	88.15
405.454	76.53
405.667	137.75
405.88	32.74
406.094	107.72
406.307	145.5
406.52	120.9
406.733	68.97
406.947	48.82
407.16	167.4
407.373	137.17
407.586	113.73
407.799	99.97
408.012	146.47
408.226	107.14
408.439	156.55
408.652	87.19
408.865	126.9
409.078	159.45
409.291	128.07
409.504	96.87
409.717	159.07
409.93	101.33
410.143	137.95
410.357	81.18
410.57	66.84
410.783	79.82
410.996	126.9
411.209	115.09
411.421	172.24
411.634	121.67
411.847	101.33
412.06	126.9
412.273	142.6
412.486	138.92
412.699	200.92
412.912	125.74
413.125	164.49
413.338	131.94
413.55	156.35
413.763	150.35
413.976	147.64
414.189	105.01
414.402	112.18
414.615	176.5
414.827	115.67
415.04	158.68
415.253	155.97
415.466	162.94
415.678	179.99
415.891	142.21
416.104	122.45
416.316	139.89
416.529	123.22
416.742	157.52
416.954	184.64
417.167	145.89
417.38	113.73
417.592	157.32
417.805	117.6
418.017	80.79
418.23	141.24
418.442	115.86
418.655	108.11
418.868	164.3
419.08	182.51
419.293	168.56
419.505	173.6
419.718	138.92
419.93	181.15
420.142	133.49
420.355	164.1
420.567	188.32
420.78	161.2
420.992	131.36
421.205	203.24
421.417	98.04
421.629	127.1
421.842	114.7
422.054	114.89
422.266	198.4
422.479	163.72
422.691	137.37
422.903	199.95
423.115	146.09
423.328	133.3
423.54	150.74
423.752	156.74
423.964	128.07
424.177	167.2
424.389	151.51
424.601	242.57
424.813	177.86
425.025	169.14
425.238	206.15
425.45	160.81
425.662	160.42
425.874	468.09
426.086	145.5
426.298	202.08
426.51	181.73
426.722	158.1
426.934	161.39
427.146	193.75
427.358	117.6
427.57	198.2
427.782	145.31
427.994	172.82
428.206	142.79
428.418	122.45
428.63	192.2
428.842	231.33
429.054	178.63
429.266	198.01
429.478	158.49
429.69	197.62
429.902	122.25
430.114	200.53
430.325	177.08
430.537	112.18
430.749	165.46
430.961	89.51
431.173	128.84
431.384	171.27
431.596	76.53
431.808	139.69
432.02	195.3
432.231	195.49
432.443	231.53
432.655	183.28
432.867	173.79
433.078	191.23
433.29	238.89
433.502	223.97
433.713	228.04
433.925	200.92
434.136	233.47
434.348	148.99
434.56	134.46
434.771	282.87
434.983	132.72
435.194	174.18
435.406	199.56
435.617	248.97
435.829	253.23
436.04	255.17
436.252	238.31
436.463	228.04
436.675	258.27
436.886	221.84
437.098	248.19
437.309	245.87
437.521	233.85
437.732	247.03
437.943	235.6
438.155	239.47
438.366	185.03
438.578	269.11
438.789	212.73
439	242.38
439.211	204.98
439.423	226.68
439.634	250.9
439.845	256.52
440.057	233.08
440.268	292.75
440.479	221.07
440.69	251.48
440.902	217
441.113	249.74
441.324	205.18
441.535	270.08
441.746	286.55
441.957	195.1
442.168	250.9
442.38	259.82
442.591	277.83
442.802	238.7
443.013	242.77
443.224	252.26
443.435	230.75
443.646	237.34
443.857	260.01
444.068	245.87
444.279	218.35
444.49	333.83
444.701	280.93
444.912	371.41
445.123	332.08
445.334	266.98
445.545	268.53
445.756	269.5
445.967	255.36
446.178	259.43
446.388	297.01
446.599	317.94
446.81	315.03
447.021	267.56
447.232	304.18
447.443	326.66
447.653	263.3
447.864	319.49
448.075	316.2
448.286	325.69
448.496	294.69
448.707	319.88
448.918	296.24
449.129	377.81
449.339	273.57
449.55	297.79
449.761	274.35
449.971	326.85
450.182	273.57
450.393	301.86
450.603	296.63
450.814	352.23
451.024	295.85
451.235	348.36
451.446	380.91
451.656	386.14
451.867	303.8
452.077	360.56
452.288	388.08
452.498	396.02
452.709	316
452.919	336.54
453.13	319.1
453.34	351.07
453.55	275.7
453.761	340.22
453.971	325.5
454.182	357.08
454.392	353.2
454.602	399.89
454.813	329.76
455.023	357.08
455.233	278.03
455.444	345.45
455.654	262.72
455.864	315.42
456.075	337.7
456.285	323.75
456.495	315.61
456.705	335.18
456.916	379.94
457.126	402.41
457.336	341.58
457.546	265.24
457.756	298.76
457.967	361.92
458.177	280.74
458.387	322.78
458.597	309.41
458.807	333.44
459.017	334.41
459.227	336.54
459.437	342.93
459.647	386.91
459.857	370.83
460.068	296.43
460.278	388.27
460.488	359.59
460.698	412.88
460.908	343.32
461.117	292.56
461.327	336.35
461.537	364.05
461.747	379.55
461.957	362.69
462.167	443.87
462.377	384.78
462.587	360.76
462.797	399.7
463.007	368.7
463.216	384.39
463.426	436.9
463.636	395.05
463.846	305.93
464.056	346.42
464.265	402.99
464.475	341
464.685	372.96
464.895	392.53
465.104	342.74
465.314	416.17
465.524	357.08
465.733	327.24
465.943	406.48
466.153	446.39
466.362	431.67
466.572	387.3
466.782	356.69
466.991	383.62
467.201	439.22
467.41	336.93
467.62	412.68
467.829	361.34
468.039	426.05
468.249	400.48
468.458	379.74
468.668	421.59
468.877	423.92
469.086	427.41
469.296	450.66
469.505	393.5
469.715	459.96
469.924	408.03
470.134	470.81
470.343	443.1
470.552	427.6
470.762	427.41
470.971	389.04
471.18	431.67
471.39	388.27
471.599	392.34
471.808	453.56
472.018	417.14
472.227	472.55
472.436	450.07
472.645	441.94
472.855	443.68
473.064	506.84
473.273	473.13
473.482	453.37
473.691	498.51
473.901	470.61
474.11	471.58
474.319	531.84
474.528	458.6
474.737	509.17
474.946	482.82
475.155	503.74
475.364	531.84
475.573	489.02
475.783	499.09
475.992	539.2
476.201	535.13
476.41	493.67
476.619	463.83
476.828	496.96
477.037	481.07
477.245	507.81
477.454	523.89
477.663	506.46
477.872	516.53
478.081	613.98
478.29	486.69
478.499	587.83
478.708	554.31
478.917	600.42
479.125	508.59
479.334	539.97
479.543	522.73
479.752	537.84
479.961	570.78
480.169	597.32
480.378	556.25
480.587	678.7
480.796	595.39
481.004	591.51
481.213	638.2
481.422	576.59
481.63	583.57
481.839	606.43
482.048	628.9
482.256	616.5
482.465	628.13
482.674	628.9
482.882	624.83
483.091	706.98
483.299	619.02
483.508	673.85
483.716	618.83
483.925	653.51
484.134	627.35
484.342	628.13
484.551	675.02
484.759	640.53
484.967	668.04
485.176	680.83
485.384	680.63
485.593	650.41
485.801	667.27
486.01	603.33
486.218	585.12
486.426	567.49
486.635	576.79
486.843	558.96
487.051	593.84
487.26	604.3
487.468	637.04
487.676	677.73
487.885	657.58
488.093	666.49
488.301	668.43
488.509	670.56
488.717	718.22
488.926	672.88
489.134	658.74
489.342	684.51
489.55	628.71
489.758	703.5
489.967	674.24
490.175	766.85
490.383	686.45
490.591	786.61
490.799	676.95
491.007	769.95
491.215	690.9
491.423	705.63
491.631	717.06
491.839	685.28
492.047	758.33
492.255	675.79
492.463	690.9
492.671	705.82
492.879	732.17
493.087	745.93
493.295	760.65
493.503	754.84
493.711	749.41
493.919	784.48
494.127	792.62
494.334	774.99
494.542	727.33
494.75	795.91
494.958	768.21
495.166	816.26
495.374	783.32
495.581	768.4
495.789	783.71
495.997	845.32
496.205	758.71
496.412	768.79
496.62	765.5
496.828	793.98
497.035	795.53
497.243	834.28
497.451	788.94
497.658	800.37
497.866	805.6
498.074	865.28
498.281	787.19
498.489	876.51
498.696	814.51
498.904	798.04
499.112	778.09
499.319	855.98
499.527	775.38
499.734	843.19
499.942	777.31
500.149	799.79
500.357	821.68
500.564	789.52
500.771	827.49
500.979	777.31
501.186	774.41
501.394	789.91
501.601	810.06
501.808	828.85
502.016	822.84
502.223	814.51
502.43	809.28
502.638	821.68
502.845	769.76
503.052	886.39
503.26	788.74
503.467	885.62
503.674	837.18
503.881	863.92
504.089	894.72
504.296	863.92
504.503	811.99
504.71	833.69
504.917	794.36
505.125	840.86
505.332	866.44
505.539	876.51
505.746	923.59
505.953	918.17
506.16	911.39
506.367	921.46
506.574	929.02
506.781	928.82
506.988	882.71
507.195	884.84
507.402	851.33
507.609	919.72
507.816	843.38
508.023	847.64
508.23	877.48
508.437	825.56
508.644	912.16
508.851	954.21
509.058	940.64
509.265	913.32
509.472	949.75
509.679	1031.12
509.885	928.82
510.092	901.51
510.299	917.97
510.506	915.65
510.713	931.34
510.92	910.22
511.126	963.5
511.333	958.08
511.54	980.94
511.746	1000.7
511.953	988.69
512.16	1042.75
512.367	927.47
512.573	936.57
512.78	957.31
512.987	946.07
513.193	965.25
513.4	886.78
513.606	950.33
513.813	960.02
514.02	939.29
514.226	1037.71
514.433	972.8
514.639	919.91
514.846	962.73
515.052	896.47
515.259	957.69
515.465	974.35
515.672	956.72
515.878	1059.99
516.085	965.25
516.291	1030.15
516.497	937.54
516.704	971.06
516.91	926.69
517.117	884.65
517.323	848.23
517.529	887.17
517.736	915.84
517.942	907.71
518.148	898.79
518.354	925.34
518.561	943.16
518.767	964.47
518.973	975.13
519.179	999.54
519.386	968.35
519.592	935.99
519.798	951.69
520.004	1036.35
520.21	971.84
520.417	1058.44
520.623	1078.01
520.829	1061.73
521.035	1072.39
521.241	1051.47
521.447	1099.9
521.653	1182.63
521.859	1042.94
522.065	1113.47
522.271	1191.93
522.477	1127.22
522.683	1179.34
522.889	1117.15
523.095	1105.91
523.301	1119.08
523.507	1066
523.713	1119.47
523.919	1077.04
524.125	1148.73
524.331	1117.92
524.537	1210.53
524.742	1175.66
524.948	1204.72
525.154	1193.87
525.36	1280.86
525.566	1199.1
525.772	1250.06
525.977	1152.8
526.183	1213.25
526.389	1237.85
526.595	1177.4
526.8	1127.03
527.006	1085.37
527.212	1109.2
527.417	1086.34
527.623	1077.82
527.829	1134.2
528.034	1192.51
528.24	1140.59
528.446	1141.95
528.651	1266.33
528.857	1230.88
529.062	1297.72
529.268	1228.74
529.473	1262.65
529.679	1259.16
529.884	1316.71
530.09	1303.92
530.295	1309.54
530.501	1267.11
530.706	1264.01
530.912	1233.39
531.117	1249.67
531.323	1294.23
531.528	1305.47
531.733	1309.93
531.939	1269.63
532.144	1316.32
532.35	1296.17
532.555	1361.85
532.76	1339.37
532.966	1332.4
533.171	1301.98
533.376	1277.76
533.581	1241.73
533.787	1281.25
533.992	1327.75
534.197	1352.74
534.402	1322.32
534.607	1319.03
534.813	1430.05
535.018	1304.5
535.223	1309.54
535.428	1364.37
535.633	1382.77
535.838	1412.61
536.043	1370.37
536.249	1448.07
536.454	1375.61
536.659	1411.06
536.864	1332.59
537.069	1359.91
537.274	1408.15
537.479	1369.02
537.684	1405.44
537.889	1338.21
538.094	1461.05
538.299	1372.89
538.504	1404.09
538.708	1398.47
538.913	1442.45
539.118	1391.11
539.323	1384.13
539.528	1381.22
539.733	1405.83
539.938	1426.75
540.142	1426.95
540.347	1386.26
540.552	1356.62
540.757	1357.39
540.962	1341.51
541.166	1325.04
541.371	1339.76
541.576	1403.5
541.781	1259.74
541.985	1391.3
542.19	1393.04
542.395	1473.64
542.599	1470.15
542.804	1427.34
543.008	1481.59
543.213	1419.78
543.418	1415.9
543.622	1457.75
543.827	1349.45
544.031	1462.99
544.236	1464.15
544.44	1454.85
544.645	1478.87
544.849	1429.85
545.054	1495.92
545.258	1518.59
545.463	1513.94
545.667	1431.79
545.872	1460.08
546.076	1455.62
546.281	1495.34
546.485	1445.55
546.689	1462.99
546.894	1540.1
547.098	1510.84
547.302	1394.98
547.507	1450.78
547.711	1500.57
547.915	1532.15
548.119	1416.68
548.324	1486.04
548.528	1539.9
548.732	1453.49
548.936	1509.48
549.141	1498.63
549.345	1491.85
549.549	1472.67
549.753	1496.89
549.957	1553.27
550.161	1563.93
550.366	1487.78
550.57	1441.48
550.774	1479.26
550.978	1493.4
551.182	1504.06
551.386	1443.42
551.59	1463.95
551.794	1496.5
551.998	1519.37
552.202	1475.97
552.406	1462.99
552.61	1510.26
552.814	1488.37
553.018	1580.4
553.222	1471.51
553.426	1457.75
553.63	1573.61
553.833	1493.98
554.037	1447.87
554.241	1515.49
554.445	1472.48
554.649	1490.3
554.853	1494.95
555.056	1512
555.26	1547.65
555.464	1548.43
555.668	1518.59
555.871	1572.07
556.075	1532.73
556.279	1455.04
556.483	1445.94
556.686	1504.06
556.89	1486.82
557.094	1500.38
557.297	1431.6
557.501	1485.46
557.704	1416.87
557.908	1507.93
558.112	1467.05
558.315	1481.2
558.519	1463.18
558.722	1441.29
558.926	1441.48
559.129	1400.02
559.333	1369.99
559.536	1401.37
559.74	1388.59
559.943	1350.61
560.147	1401.76
560.35	1404.86
560.553	1372.51
560.757	1345.96
560.96	1420.17
561.164	1376.19
561.367	1486.23
561.57	1417.84
561.774	1421.91
561.977	1405.44
562.18	1367.47
562.384	1505.22
562.587	1418.62
562.79	1391.3
562.993	1384.13
563.197	1426.37
563.4	1443.8
563.603	1437.02
563.806	1463.76
564.009	1363.98
564.212	1397.31
564.416	1335.5
564.619	1437.41
564.822	1340.15
565.025	1448.84
565.228	1377.35
565.431	1385.29
565.634	1270.59
565.837	1332.01
566.04	1297.53
566.243	1334.34
566.446	1224.87
566.649	1343.25
566.852	1299.08
567.055	1303.73
567.258	1322.91
567.461	1370.96
567.664	1361.46
567.867	1253.54
568.07	1313.22
568.273	1330.66
568.475	1395.95
568.678	1339.18
568.881	1279.7
569.084	1268.66
569.287	1206.66
569.489	1217.12
569.692	1288.61
569.895	1260.52
570.098	1242.89
570.3	1232.04
570.503	1200.85
570.706	1140.4
570.909	1219.45
571.111	1146.01
571.314	1159.19
571.516	1213.63
571.719	1175.27
571.922	1166.36
572.124	1213.44
572.327	1226.23
572.529	1168.1
572.732	1138.46
572.935	1167.91
573.137	1248.7
573.34	1185.35
573.542	1221.77
573.745	1222.74
573.947	1187.28
574.15	1181.47
574.352	1157.25
574.554	1225.64
574.757	1152.21
574.959	1175.08
575.162	1125.28
575.364	1112.5
575.566	1221.38
575.769	1147.76
575.971	1134
576.173	1018.34
576.376	1129.93
576.578	1133.42
576.78	1242.69
576.982	1075.68
577.185	1126.83
577.387	1109.4
577.589	1079.75
577.791	1162.68
577.993	1144.46
578.196	1128.97
578.398	1148.34
578.6	1161.51
578.802	1085.57
579.004	1063.48
579.206	1086.92
579.408	1105.33
579.61	1077.04
579.812	1155.51
580.014	1072.97
580.216	1097.58
580.418	1066
580.62	1099.52
580.822	1060.77
581.024	1067.16
581.226	1123.54
581.428	1075.1
581.63	1196.39
581.832	1102.62
582.034	1131.1
582.236	1113.27
582.438	1134.97
582.64	1140.98
582.841	1173.53
583.043	1170.43
583.245	1136.33
583.447	1145.63
583.649	1119.47
583.85	1135.17
584.052	1176.24
584.254	1100.29
584.456	1117.53
584.657	1054.18
584.859	1111.14
585.061	1078.01
585.262	1095.25
585.464	1045.27
585.666	1129.74
585.867	1061.54
586.069	1140.01
586.27	1087.5
586.472	1097.38
586.674	1053.21
586.875	1083.82
587.077	1051.66
587.278	1103.97
587.48	1065.22
587.681	1152.21
587.883	1104.94
588.084	1030.35
588.285	1021.24
588.487	1041.78
588.688	1042.36
588.89	971.45
589.091	989.08
589.292	988.69
589.494	977.07
589.695	914.29
589.896	871.67
590.098	932.31
590.299	932.51
590.5	905.57
590.702	928.24
590.903	978.81
591.104	998.38
591.305	983.85
591.507	1038.29
591.708	1020.08
591.909	953.43
592.11	1058.25
592.311	1017.56
592.512	977.07
592.714	938.71
592.915	972.42
593.116	963.12
593.317	985.01
593.518	963.5
593.719	967.19
593.92	1008.26
594.121	1050.69
594.322	980.94
594.523	1007.1
594.724	934.44
594.925	955.17
595.126	1014.85
595.327	984.24
595.528	984.62
595.729	1014.46
595.929	960.99
596.13	983.65
596.331	993.54
596.532	989.27
596.733	1056.31
596.934	1035.19
597.135	1010.2
597.335	1011.75
597.536	952.27
597.737	974.16
597.938	940.26
598.138	1015.62
598.339	971.64
598.54	1004.19
598.74	1000.51
598.941	983.65
599.142	1034.03
599.342	986.95
599.543	982.88
599.744	972.61
599.944	984.43
600.145	987.14
600.345	996.44
600.546	1059.02
600.746	1009.62
600.947	1056.89
601.147	995.09
601.348	1028.41
601.548	941.42
601.749	982.88
601.949	949.56
602.15	986.37
602.35	989.66
602.551	1022.99
602.751	972.61
602.951	938.32
603.152	923.59
603.352	977.45
603.552	972.03
603.753	968.93
603.953	1028.6
604.153	995.47
604.354	965.25
604.554	981.72
604.754	990.05
604.954	942.77
605.155	991.79
605.355	969.7
605.555	1025.5
605.755	1033.45
605.955	960.02
606.155	990.05
606.356	962.92
606.556	977.07
606.756	1008.26
606.956	938.12
607.156	1015.24
607.356	931.15
607.556	997.41
607.756	971.45
607.956	1018.92
608.156	1007.68
608.356	948.01
608.556	991.6
608.756	952.85
608.956	925.14
609.156	981.72
609.356	925.53
609.556	944.91
609.755	955.56
609.955	917.59
610.155	951.3
610.355	941.03
610.555	918.36
610.755	926.69
610.954	878.64
611.154	937.16
611.354	977.84
611.554	905.96
611.753	889.49
611.953	872.83
612.153	943.36
612.352	938.51
612.552	918.75
612.752	829.63
612.951	920.69
613.151	922.62
613.351	891.04
613.55	887.36
613.75	919.14
613.949	913.13
614.149	926.89
614.348	875.35
614.548	872.64
614.747	838.93
614.947	853.84
615.146	818.39
615.346	911.97
615.545	883.1
615.745	879.03
615.944	912.16
616.144	899.18
616.343	877.48
616.542	869.93
616.742	866.44
616.941	847.84
617.14	811.8
617.34	845.32
617.539	857.72
617.738	841.25
617.938	899.18
618.137	848.42
618.336	816.26
618.535	854.23
618.734	837.57
618.934	887.75
619.133	864.69
619.332	847.84
619.531	837.57
619.73	857.14
619.929	911.77
