Data from oakcork_FLMT105791__169__17-31-42-057.txt Node

Date: Mon Mar 20 17:31:42 GMT 2023
User: antho
Spectrometer: FLMT10579
Trigger mode: 0
Integration Time (sec): 1.000000E-1
Scans to average: 10
Electric dark correction enabled: true
Nonlinearity correction enabled: false
Boxcar width: 0
XAxis mode: Wavelengths
Number of Pixels in Spectrum: 3648
>>>>>Begin Spectral Data<<<<<
345.248	-135.33
345.464	-135.33
345.681	-135.33
345.898	-158.58
346.114	-136.69
346.331	-23.54
346.548	24.7
346.764	-21.22
346.981	-12.5
347.197	1.65
347.414	-3.97
347.631	-4.94
347.847	41.37
348.064	-3.2
348.28	42.72
348.497	-37.3
348.713	-3.78
348.93	14.63
349.146	40.98
349.363	-5.13
349.579	13.08
349.796	-24.7
350.012	-0.68
350.229	28.58
350.445	-1.84
350.661	-34.39
350.878	3.58
351.094	28.77
351.311	26.25
351.527	38.27
351.743	-0.68
351.96	40.78
352.176	29.93
352.392	2.81
352.609	33.42
352.825	-17.15
353.041	-3.97
353.257	28.97
353.474	-11.14
353.69	21.8
353.906	15.02
354.122	-29.35
354.339	33.62
354.555	-1.45
354.771	-7.65
354.987	46.4
355.203	76.63
355.42	-3.58
355.636	15.98
355.852	-12.11
356.068	23.73
356.284	-20.44
356.5	66.55
356.716	12.5
356.932	13.27
357.148	59.96
357.364	9.59
357.58	61.71
357.796	59.77
358.012	39.62
358.228	37.68
358.444	-33.23
358.66	45.24
358.876	14.24
359.092	9.01
359.308	7.07
359.524	31.68
359.74	-24.51
359.956	-19.28
360.172	15.21
360.388	60.93
360.604	-20.63
360.819	83.02
361.035	28.97
361.251	62.68
361.467	-23.73
361.683	16.57
361.898	32.84
362.114	38.85
362.33	35.55
362.546	54.73
362.762	-0.29
362.977	19.28
363.193	-3.2
363.409	43.88
363.624	-40.59
363.84	-12.11
364.056	6.68
364.271	33.23
364.487	38.07
364.703	7.27
364.918	-9.2
365.134	-2.62
365.35	-3.78
365.565	108.01
365.781	19.47
365.996	33.23
366.212	52.02
366.427	11.14
366.643	23.93
366.858	-4.17
367.074	-25.28
367.289	43.88
367.505	96
367.72	-23.35
367.936	9.01
368.151	69.65
368.367	33.03
368.582	19.67
368.798	-3.2
369.013	67.13
369.228	29.55
369.444	8.23
369.659	60.93
369.874	19.28
370.09	51.63
370.305	-49.5
370.52	9.98
370.736	64.81
370.951	-18.5
371.166	48.53
371.381	60.35
371.597	32.07
371.812	-22.18
372.027	-27.8
372.242	9.01
372.458	56.86
372.673	-5.13
372.888	11.53
373.103	32.65
373.318	81.08
373.533	54.54
373.749	56.09
373.964	-19.67
374.179	50.47
374.394	-19.08
374.609	52.41
374.824	-6.3
375.039	90.19
375.254	-3.97
375.469	73.53
375.684	40.98
375.899	38.07
376.114	27.22
376.329	34.58
376.544	42.72
376.759	40.78
376.974	-38.65
377.189	20.05
377.404	16.37
377.619	63.26
377.834	-16.95
378.049	-12.69
378.264	-27.61
378.478	11.72
378.693	-5.91
378.908	55.9
379.123	21.99
379.338	33.62
379.553	32.65
379.767	35.55
379.982	33.03
380.197	66.55
380.412	27.03
380.626	47.76
380.841	84.57
381.056	46.6
381.271	82.44
381.485	8.82
381.7	5.33
381.915	18.31
382.129	16.95
382.344	48.73
382.559	-6.88
382.773	72.75
382.988	4.36
383.202	17.73
383.417	1.26
383.632	91.93
383.846	22.57
384.061	41.75
384.275	10.75
384.49	22.38
384.704	46.6
384.919	26.83
385.133	26.25
385.348	52.6
385.562	-20.83
385.777	83.8
385.991	28.77
386.206	-1.45
386.42	-6.1
386.634	45.82
386.849	62.29
387.063	64.23
387.277	-27.22
387.492	12.3
387.706	-23.15
387.92	-13.47
388.135	69.46
388.349	29.74
388.563	43.11
388.778	30.71
388.992	38.46
389.206	36.13
389.42	77.98
389.635	17.53
389.849	51.05
390.063	64.81
390.277	34
390.491	70.62
390.706	34.97
390.92	45.24
391.134	49.11
391.348	65.78
391.562	-43.3
391.776	7.07
391.99	3.58
392.205	52.21
392.419	-5.72
392.633	13.27
392.847	75.27
393.061	-0.29
393.275	68.49
393.489	20.05
393.703	52.8
393.917	59.96
394.131	10.37
394.345	45.24
394.559	65.2
394.773	3.39
394.986	40.4
395.2	21.8
395.414	76.24
395.628	-19.08
395.842	41.95
396.056	-3
396.27	-18.89
396.484	26.45
396.697	64.03
396.911	82.63
397.125	22.77
397.339	51.83
397.553	38.46
397.766	85.54
397.98	62.1
398.194	53.96
398.408	0.68
398.621	39.43
398.835	56.09
399.049	45.43
399.262	82.63
399.476	65.39
399.69	35.36
399.903	95.23
400.117	21.6
400.331	63.65
400.544	5.72
400.758	169.82
400.971	43.11
401.185	50.28
401.398	4.55
401.612	59.58
401.826	75.66
402.039	42.33
402.253	15.02
402.466	68.1
402.68	43.11
402.893	52.99
403.106	36.72
403.32	26.83
403.533	51.25
403.747	40.78
403.96	41.95
404.174	49.89
404.387	25.48
404.6	43.11
404.814	56.09
405.027	51.44
405.24	23.93
405.454	30.32
405.667	84.76
405.88	-13.66
406.094	55.51
406.307	53.18
406.52	39.23
406.733	10.56
406.947	6.1
407.16	88.83
407.373	70.04
407.586	-5.52
407.799	-32.26
408.012	56.86
408.226	52.02
408.439	86.9
408.652	-7.85
408.865	46.98
409.078	67.13
409.291	50.66
409.504	-6.68
409.717	24.7
409.93	17.15
410.143	68.3
410.357	-0.87
410.57	5.33
410.783	36.72
410.996	59.77
411.209	40.01
411.421	80.5
411.634	10.95
411.847	18.5
412.06	37.68
412.273	40.98
412.486	28.38
412.699	109.56
412.912	27.22
413.125	60.93
413.338	12.3
413.55	78.56
413.763	44.85
413.976	73.53
414.189	-2.23
414.402	27.22
414.615	89.22
414.827	1.26
415.04	49.5
415.253	67.91
415.466	67.91
415.678	106.66
415.891	48.53
416.104	19.28
416.316	34.39
416.529	15.21
416.742	70.62
416.954	85.73
417.167	46.6
417.38	36.91
417.592	43.88
417.805	39.04
418.017	-14.05
418.23	75.66
418.442	6.68
418.655	32.84
418.868	52.41
419.08	78.76
419.293	92.32
419.505	64.61
419.718	57.83
419.93	67.33
420.142	30.13
420.355	77.98
420.567	81.28
420.78	41.95
420.992	21.02
421.205	85.15
421.417	15.21
421.629	50.47
421.842	-5.13
422.054	-3.97
422.266	46.79
422.479	79.15
422.691	2.81
422.903	89.03
423.115	16.37
423.328	47.18
423.54	55.31
423.752	49.5
423.964	31.48
424.177	51.63
424.389	47.95
424.601	142.31
424.813	77.79
425.025	63.84
425.238	60.35
425.45	31.87
425.662	34.78
425.874	299.44
426.086	38.27
426.298	52.99
426.51	64.61
426.722	36.91
426.934	33.42
427.146	46.98
427.358	4.36
427.57	66.16
427.782	50.66
427.994	45.43
428.206	21.22
428.418	11.33
428.63	50.47
428.842	60.93
429.054	66.16
429.266	58.41
429.478	21.8
429.69	40.2
429.902	-21.99
430.114	70.62
430.325	68.49
430.537	44.08
430.749	44.27
430.961	8.04
431.173	42.53
431.384	84.96
431.596	-15.4
431.808	20.25
432.02	61.13
432.231	53.96
432.443	39.23
432.655	51.44
432.867	22.77
433.078	60.93
433.29	84.38
433.502	72.95
433.713	64.81
433.925	33.42
434.136	63.06
434.348	42.92
434.56	-7.65
434.771	142.11
434.983	1.84
435.194	38.46
435.406	24.7
435.617	70.81
435.829	101.43
436.04	60.35
436.252	80.31
436.463	79.53
436.675	83.41
436.886	41.75
437.098	56.86
437.309	78.56
437.521	45.43
437.732	66.16
437.943	46.4
438.155	55.9
438.366	-0.48
438.578	88.83
438.789	62.87
439	64.42
439.211	42.14
439.423	66.94
439.634	81.28
439.845	65.39
440.057	47.18
440.268	95.23
440.479	40.78
440.69	66.94
440.902	46.6
441.113	44.27
441.324	15.98
441.535	81.86
441.746	93.87
441.957	18.31
442.168	26.06
442.38	74.69
442.591	49.89
442.802	52.21
443.013	9.98
443.224	62.87
443.435	20.83
443.646	32.65
443.857	69.85
444.068	39.23
444.279	51.63
444.49	112.28
444.701	56.86
444.912	144.83
445.123	83.8
445.334	70.43
445.545	60.55
445.756	29.35
445.967	46.6
446.178	78.95
446.388	104.14
446.599	86.31
446.81	80.5
447.021	43.5
447.232	74.5
447.443	127.97
447.653	8.04
447.864	74.11
448.075	52.6
448.286	79.15
448.496	76.24
448.707	106.66
448.918	69.26
449.129	124.48
449.339	28
449.55	80.7
449.761	79.92
449.971	95.61
450.182	57.83
450.393	108.6
450.603	29.93
450.814	81.86
451.024	57.64
451.235	84.96
451.446	87.48
451.656	92.71
451.867	63.26
452.077	87.28
452.288	132.62
452.498	125.06
452.709	71.78
452.919	81.86
453.13	78.37
453.34	148.12
453.55	9.78
453.761	85.35
453.971	101.04
454.182	105.88
454.392	61.51
454.602	128.36
454.813	96
455.023	114.6
455.233	24.9
455.444	61.9
455.654	26.45
455.864	61.51
456.075	59.77
456.285	54.73
456.495	70.04
456.705	76.05
456.916	92.13
457.126	115.57
457.336	60.74
457.546	27.03
457.756	38.85
457.967	104.14
458.177	65.78
458.387	87.09
458.597	43.11
458.807	74.3
459.017	49.7
459.227	72.95
459.437	65.58
459.647	102.59
459.857	101.04
460.068	49.11
460.278	121.77
460.488	89.61
460.698	148.12
460.908	87.48
461.117	44.85
461.327	41.75
461.537	80.7
461.747	78.37
461.957	72.56
462.167	176.21
462.377	110.73
462.587	96.78
462.797	103.36
463.007	117.51
463.216	111.31
463.426	130.49
463.636	89.61
463.846	54.54
464.056	56.67
464.265	121.77
464.475	65.97
464.685	77.98
464.895	103.95
465.104	102.78
465.314	120.22
465.524	59.38
465.733	75.27
465.943	142.69
466.153	130.68
466.362	103.56
466.572	82.63
466.782	59
466.991	104.72
467.201	153.16
467.41	39.43
467.62	79.15
467.829	74.11
468.039	91.74
468.249	80.5
468.458	75.66
468.668	75.27
468.877	106.08
469.086	132.62
469.296	125.84
469.505	51.83
469.715	142.5
469.924	106.46
470.134	140.18
470.343	148.7
470.552	86.7
470.762	103.36
470.971	43.69
471.18	106.85
471.39	86.31
471.599	78.56
471.808	116.15
472.018	77.98
472.227	112.66
472.436	118.48
472.645	72.75
472.855	75.27
473.064	131.26
473.273	108.6
473.482	142.89
473.691	133.98
473.901	116.73
474.11	108.4
474.319	206.63
474.528	98.71
474.737	117.7
474.946	126.61
475.155	116.93
475.364	126.23
475.573	121.58
475.783	98.33
475.992	147.93
476.201	144.44
476.41	94.06
476.619	76.82
476.828	102.59
477.037	116.54
477.245	129.52
477.454	130.68
477.663	104.53
477.872	114.02
478.081	175.63
478.29	78.18
478.499	183.58
478.708	127
478.917	160.91
479.125	100.46
479.334	145.21
479.543	96.2
479.752	127
479.961	130.88
480.169	127.78
480.378	85.93
480.587	224.26
480.796	140.95
481.004	120.8
481.213	129.13
481.422	131.26
481.63	93.29
481.839	150.25
482.048	172.53
482.256	114.6
482.465	129.33
482.674	155.29
482.882	155.29
483.091	227.94
483.299	177.96
483.508	161.68
483.716	118.28
483.925	123.13
484.134	116.93
484.342	117.9
484.551	163.81
484.759	177.96
484.967	120.41
485.176	180.86
485.384	164.2
485.593	174.28
485.801	146.18
486.01	166.91
486.218	163.81
486.426	114.41
486.635	136.49
486.843	180.48
487.051	141.73
487.26	138.43
487.468	160.71
487.676	166.33
487.885	134.56
488.093	166.33
488.301	151.41
488.509	143.86
488.717	164.39
488.926	136.3
489.134	128.16
489.342	157.03
489.55	136.88
489.758	140.95
489.967	112.47
490.175	236.66
490.383	114.02
490.591	179.31
490.799	82.83
491.007	184.74
491.215	153.54
491.423	143.66
491.631	169.43
491.839	172.34
492.047	198.69
492.255	155.09
492.463	95.23
492.671	139.98
492.879	196.94
493.087	148.31
493.295	161.88
493.503	166.53
493.711	167.49
493.919	220
494.127	186.09
494.334	200.63
494.542	150.64
494.75	182.22
494.958	175.63
495.166	188.81
495.374	166.53
495.581	169.04
495.789	157.42
495.997	201.79
496.205	174.86
496.412	154.71
496.62	152.58
496.828	173.89
497.035	159.94
497.243	206.63
497.451	173.5
497.658	179.7
497.866	179.12
498.074	218.26
498.281	136.49
498.489	242.86
498.696	183.77
498.904	176.41
499.112	169.63
499.319	231.62
499.527	176.02
499.734	209.73
499.942	134.94
500.149	175.05
500.357	192.88
500.564	136.3
500.771	201.79
500.979	186.68
501.186	190.94
501.394	191.91
501.601	196.56
501.808	213.61
502.016	165.36
502.223	181.64
502.43	182.03
502.638	203.53
502.845	157.42
503.052	220.97
503.26	192.49
503.467	237.82
503.674	184.74
503.881	178.34
504.089	268.05
504.296	210.12
504.503	173.69
504.71	202.76
504.917	176.41
505.125	200.82
505.332	194.43
505.539	194.81
505.746	240.15
505.953	226.01
506.16	191.13
506.367	263.21
506.574	230.66
506.781	248.87
506.988	170.98
507.195	217.87
507.402	197.72
507.609	231.43
507.816	182.61
508.023	198.88
508.23	195.39
508.437	145.02
508.644	231.24
508.851	269.41
509.058	239.76
509.265	217.48
509.472	233.95
509.679	302.15
509.885	204.31
510.092	229.49
510.299	229.49
510.506	246.54
510.713	239.18
510.92	229.11
511.126	244.8
511.333	249.45
511.54	237.82
511.746	252.55
511.953	273.47
512.16	268.82
512.367	226.97
512.573	213.8
512.78	237.05
512.987	211.09
513.193	235.69
513.4	186.29
513.606	229.88
513.813	232.98
514.02	241.51
514.226	300.99
514.433	308.35
514.639	225.23
514.846	251.19
515.052	252.94
515.259	237.82
515.465	248.29
515.672	253.13
515.878	327.14
516.085	246.54
516.291	265.34
516.497	220
516.704	238.6
516.91	229.3
517.117	220.39
517.323	200.24
517.529	264.95
517.736	237.63
517.942	228.52
518.148	212.83
518.354	249.06
518.561	229.11
518.767	267.86
518.973	292.66
519.179	296.72
519.386	250.03
519.592	238.6
519.798	219.81
520.004	291.11
520.21	240.73
520.417	298.86
520.623	310.09
520.829	297.31
521.035	293.82
521.241	284.13
521.447	301.37
521.653	370.35
521.859	255.26
522.065	312.61
522.271	382.55
522.477	311.45
522.683	338.77
522.889	327.14
523.095	350
523.301	275.02
523.507	295.37
523.713	341.87
523.919	269.99
524.125	339.93
524.331	290.72
524.537	354.85
524.742	328.3
524.948	338.57
525.154	322.69
525.36	446.68
525.566	352.52
525.772	390.5
525.977	317.84
526.183	357.37
526.389	393.02
526.595	328.89
526.8	336.83
527.006	354.07
527.212	301.18
527.417	323.46
527.623	278.32
527.829	382.17
528.034	332.76
528.24	370.35
528.446	322.69
528.651	379.65
528.857	354.85
529.062	431.18
529.268	331.6
529.473	356.98
529.679	337.41
529.884	414.33
530.09	366.09
530.295	424.21
530.501	387.98
530.706	372.48
530.912	342.25
531.117	362.79
531.323	368.41
531.528	392.24
531.733	406.19
531.939	352.33
532.144	393.79
532.35	374.22
532.555	414.13
532.76	428.28
532.966	433.32
533.171	416.46
533.376	408.71
533.581	378.49
533.787	393.98
533.992	396.89
534.197	457.53
534.402	409.68
534.607	384.1
534.813	500.55
535.018	363.76
535.223	389.53
535.428	412.78
535.633	435.45
535.838	415.1
536.043	412.58
536.249	466.83
536.454	424.4
536.659	433.51
536.864	406.97
537.069	420.92
537.274	436.22
537.479	435.25
537.684	426.92
537.889	412.39
538.094	473.62
538.299	435.45
538.504	438.35
538.708	444.75
538.913	447.27
539.118	423.05
539.323	423.82
539.528	443.39
539.733	437
539.938	458.12
540.142	485.82
540.347	431.96
540.552	414.72
540.757	435.06
540.962	411.03
541.166	424.6
541.371	386.43
541.576	453.27
541.781	327.34
541.985	439.71
542.19	439.9
542.395	485.24
542.599	498.61
542.804	505.58
543.008	492.8
543.213	423.24
543.418	458.5
543.622	471.68
543.827	443.97
544.031	515.27
544.236	505.2
544.44	420.92
544.645	508.88
544.849	462.57
545.054	483.88
545.258	517.98
545.463	516.82
545.667	443.78
545.872	483.69
546.076	491.25
546.281	453.27
546.485	401.54
546.689	482.53
546.894	512.36
547.098	493.96
547.302	431.38
547.507	455.79
547.711	490.28
547.915	531.35
548.119	461.22
548.324	466.25
548.528	544.53
548.732	479.43
548.936	511.2
549.141	501.9
549.345	484.27
549.549	477.1
549.753	463.93
549.957	545.5
550.161	535.23
550.366	471.68
550.57	459.86
550.774	468.97
550.978	485.43
551.182	500.35
551.386	490.28
551.59	464.32
551.794	480.4
551.998	479.23
552.202	496.09
552.406	445.13
552.61	503.26
552.814	485.43
553.018	530.77
553.222	477.68
553.426	475.36
553.63	549.37
553.833	467.03
554.037	432.73
554.241	508.3
554.445	489.31
554.649	486.98
554.853	459.86
555.056	535.81
555.26	517.98
555.464	467.03
555.668	527.48
555.871	512.17
556.075	512.75
556.279	463.54
556.483	468.19
556.686	498.22
556.89	448.23
557.094	504.42
557.297	480.59
557.501	485.05
557.704	421.88
557.908	528.83
558.112	445.13
558.315	527.86
558.519	475.75
558.722	504.42
558.926	477.88
559.129	445.91
559.333	428.47
559.536	427.7
559.74	420.72
559.943	438.35
560.147	472.45
560.35	482.72
560.553	444.36
560.757	397.47
560.96	508.88
561.164	432.54
561.367	505.78
561.57	448.04
561.774	461.22
561.977	460.25
562.18	430.41
562.384	525.93
562.587	457.15
562.79	417.82
562.993	457.53
563.197	506.36
563.4	529.61
563.603	507.13
563.806	526.51
564.009	436.8
564.212	489.7
564.416	414.33
564.619	458.12
564.822	428.86
565.025	483.69
565.228	440.68
565.431	438.35
565.634	374.03
565.837	446.88
566.04	440.87
566.243	435.83
566.446	349.23
566.649	460.83
566.852	404.83
567.055	427.31
567.258	457.34
567.461	495.7
567.664	481.17
567.867	384.49
568.07	454.05
568.273	437
568.475	465.09
568.678	393.98
568.881	420.14
569.084	451.33
569.287	349.42
569.489	385.85
569.692	430.41
569.895	426.73
570.098	373.84
570.3	342.84
570.503	339.93
570.706	353.88
570.909	361.82
571.111	330.24
571.314	353.69
571.516	362.4
571.719	407.55
571.922	355.04
572.124	350.97
572.327	390.89
572.529	339.93
572.732	350.97
572.935	375.77
573.137	433.9
573.34	343.03
573.542	385.65
573.745	363.37
573.947	401.54
574.15	365.7
574.352	342.64
574.554	385.07
574.757	342.84
574.959	342.84
575.162	344.97
575.364	340.9
575.566	431.57
575.769	364.34
575.971	358.14
576.173	274.06
576.376	343.03
576.578	368.99
576.78	435.06
576.982	307.57
577.185	335.86
577.387	281.22
577.589	288.01
577.791	384.88
577.993	331.79
578.196	348.65
578.398	361.44
578.6	386.04
578.802	308.93
579.004	312.8
579.206	314.55
579.408	351.55
579.61	318.23
579.812	368.02
580.014	323.85
580.216	306.8
580.418	335.28
580.62	315.52
580.822	264.56
581.024	340.9
581.226	356.98
581.428	328.3
581.63	382.55
581.832	298.27
582.034	362.79
582.236	324.43
582.438	361.63
582.64	378.68
582.841	366.67
583.043	405.22
583.245	348.07
583.447	340.32
583.649	341.48
583.85	351.75
584.052	385.46
584.254	292.46
584.456	366.67
584.657	291.88
584.859	313.58
585.061	334.89
585.262	281.22
585.464	279.48
585.666	378.1
585.867	301.57
586.069	379.84
586.27	363.57
586.472	350.97
586.674	298.66
586.875	312.8
587.077	314.94
587.278	341.29
587.48	324.82
587.681	402.9
587.883	330.05
588.084	289.94
588.285	272.89
588.487	310.87
588.688	322.88
588.89	284.91
589.091	273.67
589.292	316.29
589.494	300.99
589.695	301.18
589.896	234.72
590.098	249.26
590.299	308.93
590.5	255.65
590.702	269.79
590.903	282.97
591.104	351.17
591.305	288.97
591.507	337.8
591.708	273.09
591.909	282.39
592.11	352.14
592.311	337.41
592.512	289.75
592.714	227.56
592.915	251.97
593.116	263.79
593.317	285.49
593.518	298.27
593.719	272.7
593.92	306.22
594.121	311.45
594.322	317.84
594.523	298.08
594.724	262.24
594.925	304.86
595.126	289.36
595.327	326.17
595.528	296.14
595.729	306.22
595.929	285.68
596.13	294.21
596.331	273.86
596.532	304.09
596.733	359.89
596.934	304.09
597.135	306.22
597.335	334.5
597.536	266.89
597.737	290.72
597.938	272.89
598.138	325.4
598.339	293.82
598.54	316.1
598.74	290.72
598.941	308.74
599.142	349.42
599.342	313.19
599.543	252.74
599.744	295.56
599.944	279.09
600.145	281.03
600.345	292.27
600.546	329.66
600.746	336.05
600.947	348.84
601.147	327.14
601.348	331.21
601.548	251.19
601.749	314.74
601.949	276.19
602.15	262.62
602.35	326.95
602.551	355.24
602.751	276.19
602.951	263.21
603.152	212.83
603.352	299.24
603.552	283.16
603.753	307.96
603.953	313.97
604.153	298.66
604.354	287.81
604.554	284.32
604.754	289.56
604.954	251.19
605.155	281.61
605.355	266.89
605.555	299.63
605.755	349.23
605.955	293.62
606.155	315.32
606.356	291.3
606.556	322.1
606.756	299.63
606.956	239.76
607.156	315.32
607.356	251.58
607.556	292.27
607.756	279.87
607.956	306.6
608.156	331.79
608.356	273.86
608.556	313.39
608.756	289.36
608.956	250.42
609.156	296.14
609.356	294.59
609.556	247.9
609.755	294.21
609.955	264.17
610.155	280.26
610.355	288.97
610.555	270.57
610.755	309.7
610.954	233.76
611.154	282.19
611.354	327.72
611.554	292.66
611.753	275.41
611.953	243.06
612.153	310.09
612.352	288.97
612.552	246.74
612.752	213.61
612.951	239.18
613.151	272.89
613.351	245.77
613.55	253.91
613.75	284.52
613.949	260.88
614.149	276.96
614.348	298.08
614.548	262.43
614.747	234.53
614.947	251.19
615.146	233.17
615.346	287.23
615.545	261.07
615.745	279.09
615.944	291.3
616.144	264.37
616.343	302.34
616.542	248.29
616.742	251.77
616.941	245.77
617.14	223.1
617.34	250.42
617.539	292.27
617.738	221.55
617.938	319.59
618.137	250.61
618.336	218.06
618.535	269.41
618.734	261.07
618.934	253.32
619.133	247.71
619.332	268.82
619.531	250.42
619.73	273.86
619.929	288.78
620.128	275.22
620.328	298.86
620.527	234.14
620.726	243.64
620.925	265.34
621.124	243.44
621.323	269.6
621.522	219.61
621.721	216.71
621.92	215.35
622.119	274.25
622.318	220.58
622.517	220.58
622.715	242.09
622.914	179.89
623.113	240.92
623.312	196.36
623.511	238.6
623.71	216.51
623.909	216.32
624.107	302.34
624.306	208.57
624.505	220
624.704	225.62
624.902	220.77
625.101	267.08
625.3	273.67
625.499	190.94
625.697	207.21
625.896	212.25
626.095	262.62
626.293	189
626.492	202.95
626.69	254.1
626.889	197.72
627.088	252.55
627.286	206.83
627.485	205.08
627.683	190.94
627.882	249.26
628.08	189
628.279	214.77
628.477	285.29
628.676	225.23
628.874	273.67
