Data from oakcork_FLMT105791__231__17-33-02-055.txt Node

Date: Mon Mar 20 17:33:02 GMT 2023
User: antho
Spectrometer: FLMT10579
Trigger mode: 0
Integration Time (sec): 1.000000E-1
Scans to average: 10
Electric dark correction enabled: true
Nonlinearity correction enabled: false
Boxcar width: 0
XAxis mode: Wavelengths
Number of Pixels in Spectrum: 3648
>>>>>Begin Spectral Data<<<<<
345.248	-155.89
345.464	-155.89
345.681	-155.89
345.898	-153.75
346.114	-165.57
346.331	-32.66
346.548	16.94
346.764	-0.69
346.981	-1.47
347.197	12.87
347.414	15.39
347.631	-30.73
347.847	60.34
348.064	-12.71
348.28	7.44
348.497	-48.74
348.713	14.03
348.93	25.46
349.146	37.86
349.363	1.05
349.579	29.34
349.796	2.41
350.012	-3.6
350.229	32.44
350.445	-8.44
350.661	-6.89
350.878	29.34
351.094	16.94
351.311	34.18
351.527	1.24
351.743	14.03
351.96	11.71
352.176	47.36
352.392	31.86
352.609	33.41
352.825	-3.41
353.041	8.22
353.257	-4.57
353.474	23.14
353.69	2.41
353.906	13.64
354.122	-9.61
354.339	62.27
354.555	15.19
354.771	-34.99
354.987	59.56
355.203	53.75
355.42	-28.21
355.636	3.37
355.852	-28.59
356.068	21.59
356.284	-8.06
356.5	64.79
356.716	27.79
356.932	22.36
357.148	51.42
357.364	-1.28
357.58	40.19
357.796	59.17
358.012	34.76
358.228	27.98
358.444	-51.26
358.66	77.77
358.876	27.59
359.092	3.57
359.308	43.29
359.524	26.82
359.74	26.62
359.956	0.08
360.172	48.13
360.388	53.36
360.604	0.08
360.819	80.68
361.035	27.98
361.251	59.56
361.467	14.22
361.683	45.42
361.898	18.29
362.114	38.25
362.33	21.2
362.546	46.77
362.762	7.64
362.977	16.36
363.193	-14.06
363.409	43.29
363.624	-5.93
363.84	7.83
364.056	-1.66
364.271	38.25
364.487	29.14
364.703	36.51
364.918	4.15
365.134	12.29
365.35	-5.15
365.565	100.64
365.781	0.86
365.996	30.31
366.212	91.53
366.427	71.57
366.643	27.21
366.858	18.49
367.074	-20.07
367.289	92.69
367.505	106.84
367.72	-21.23
367.936	1.05
368.151	68.47
368.367	43.87
368.582	18.68
368.798	32.05
369.013	72.35
369.228	22.75
369.444	25.27
369.659	68.09
369.874	41.54
370.09	61.3
370.305	-24.53
370.52	38.83
370.736	84.94
370.951	16.36
371.166	83
371.381	77.39
371.597	48.13
371.812	17.13
372.027	29.34
372.242	10.74
372.458	95.21
372.673	-0.69
372.888	35.54
373.103	57.24
373.318	122.14
373.533	57.62
373.749	51.62
373.964	-14.64
374.179	62.47
374.394	15
374.609	73.32
374.824	24.3
375.039	59.56
375.254	15
375.469	102.96
375.684	55.1
375.899	78.55
376.114	29.92
376.329	54.14
376.544	63.44
376.759	57.24
376.974	6.67
377.189	15.58
377.404	40.38
377.619	63.05
377.834	2.99
378.049	16.94
378.264	-10.58
378.478	35.34
378.693	27.01
378.908	38.44
379.123	26.43
379.338	67.31
379.553	32.24
379.767	52.97
379.982	38.06
380.197	53.36
380.412	58.2
380.626	49.1
380.841	145
381.056	60.14
381.271	93.27
381.485	40.77
381.7	11.32
381.915	42.71
382.129	27.21
382.344	38.44
382.559	46.58
382.773	81.45
382.988	-12.9
383.202	39.61
383.417	32.82
383.632	131.44
383.846	47.94
384.061	42.12
384.275	21.97
384.49	64.4
384.704	53.55
384.919	60.53
385.133	37.28
385.348	85.72
385.562	24.11
385.777	86.3
385.991	50.65
386.206	27.01
386.42	18.87
386.634	86.1
386.849	59.17
387.063	44.84
387.277	13.84
387.492	29.34
387.706	7.44
387.92	27.4
388.135	79.9
388.349	31.08
388.563	32.24
388.778	49.87
388.992	93.47
389.206	72.54
389.42	137.25
389.635	72.93
389.849	82.42
390.063	117.69
390.277	68.86
390.491	95.4
390.706	83.39
390.92	107.03
391.134	74.29
391.348	74.87
391.562	43.67
391.776	62.27
391.99	40.38
392.205	79.32
392.419	36.12
392.633	64.6
392.847	101.6
393.061	37.47
393.275	101.99
393.489	76.42
393.703	54.14
393.917	95.21
394.131	21.78
394.345	82.42
394.559	88.82
394.773	36.51
394.986	68.28
395.2	73.7
395.414	90.75
395.628	55.1
395.842	69.44
396.056	54.52
396.27	26.82
396.484	82.04
396.697	86.69
396.911	106.06
397.125	105.09
397.339	81.84
397.553	79.13
397.766	112.84
397.98	101.99
398.194	122.34
398.408	84.75
398.621	119.82
398.835	121.17
399.049	111.49
399.262	140.35
399.476	128.54
399.69	154.3
399.903	200.61
400.117	93.66
400.331	127.76
400.544	102.19
400.758	213.98
400.971	113.81
401.185	164.77
401.398	108.77
401.612	165.93
401.826	144.62
402.039	143.84
402.253	86.49
402.466	142.1
402.68	116.91
402.893	133.77
403.106	111.68
403.32	117.69
403.533	150.23
403.747	144.42
403.96	130.47
404.174	145.58
404.387	95.4
404.6	121.37
404.814	171.93
405.027	141.52
405.24	115.36
405.454	121.37
405.667	166.9
405.88	76.03
406.094	135.32
406.307	154.3
406.52	125.44
406.733	91.14
406.947	82.81
407.16	186.47
407.373	159.73
407.586	121.56
407.799	97.73
408.012	180.07
408.226	142.68
408.439	165.15
408.652	106.06
408.865	129.31
409.078	187.63
409.291	185.3
409.504	122.72
409.717	164.96
409.93	164.77
410.143	151.98
410.357	86.1
410.57	84.55
410.783	135.12
410.996	152.37
411.209	136.87
411.421	210.3
411.634	141.13
411.847	134.15
412.06	170
412.273	158.37
412.486	171.93
412.699	223.28
412.912	166.7
413.125	150.23
413.338	148.68
413.55	181.43
413.763	153.72
413.976	180.65
414.189	171.93
414.402	177.55
414.615	220.76
414.827	125.63
415.04	205.07
415.253	170.38
415.466	200.42
415.678	227.35
415.891	166.51
416.104	171.55
416.316	159.15
416.529	149.07
416.742	205.26
416.954	198.09
417.167	165.93
417.38	168.64
417.592	202.35
417.805	135.9
418.017	105.87
418.23	191.31
418.442	154.88
418.655	157.02
418.868	156.24
419.08	189.95
419.293	219.79
419.505	189.57
419.718	188.98
419.93	233.16
420.142	153.72
420.355	234.13
420.567	238.97
420.78	197.7
420.992	180.46
421.205	233.93
421.417	156.05
421.629	185.69
421.842	161.67
422.054	158.57
422.266	227.35
422.479	230.64
422.691	162.25
422.903	228.7
423.115	166.12
423.328	190.53
423.54	196.54
423.752	186.08
423.964	166.12
424.177	207.97
424.389	194.6
424.601	272.1
424.813	234.13
425.025	223.67
425.238	226.18
425.45	200.42
425.662	193.05
425.874	482.71
426.086	187.63
426.298	212.04
426.51	231.03
426.722	210.1
426.934	179.88
427.146	216.88
427.358	143.45
427.57	252.73
427.782	198.48
427.994	203.71
428.206	179.3
428.418	176.39
428.63	229.67
428.842	258.93
429.054	238.2
429.266	238
429.478	173.29
429.69	175.81
429.902	171.35
430.114	215.72
430.325	206.81
430.537	166.12
430.749	178.91
430.961	123.11
431.173	163.22
431.384	194.8
431.596	108.39
431.808	197.7
432.02	220.37
432.231	254.08
432.443	268.23
432.655	242.26
432.867	191.89
433.078	251.37
433.29	293.22
433.502	265.9
433.713	285.28
433.925	269.39
434.136	279.27
434.348	200.61
434.56	187.05
434.771	310.46
434.983	216.11
435.194	234.13
435.406	242.46
435.617	281.21
435.829	306.98
436.04	278.88
436.252	282.76
436.463	311.82
436.675	301.75
436.886	273.46
437.098	295.55
437.309	327.9
437.521	269
437.732	294.58
437.943	286.05
438.155	271.52
438.366	227.15
438.578	327.13
438.789	284.89
439	305.81
439.211	231.8
439.423	268.23
439.634	274.62
439.845	305.81
440.057	290.31
440.268	340.11
440.479	273.85
440.69	298.26
440.902	300.2
441.113	296.9
441.324	279.27
441.535	332.74
441.746	379.24
441.957	280.24
442.168	278.69
442.38	317.83
442.591	337.78
442.802	300
443.013	305.62
443.224	339.33
443.435	303.49
443.646	299.81
443.857	334.29
444.068	291.28
444.279	280.24
444.49	363.74
444.701	326.93
444.912	430.78
445.123	351.93
445.334	357.35
445.545	359.87
445.756	332.16
445.967	329.64
446.178	355.22
446.388	343.01
446.599	368.59
446.81	340.69
447.021	352.7
447.232	365.49
447.443	392.42
447.653	317.44
447.864	372.27
448.075	357.16
448.286	379.24
448.496	394.36
448.707	377.11
448.918	334.1
449.129	460.62
449.339	342.04
449.55	382.15
449.761	349.99
449.971	411.6
450.182	345.14
450.393	404.43
450.603	360.06
450.814	415.28
451.024	381.96
451.235	429.04
451.446	437.56
451.656	461.39
451.867	388.93
452.077	441.05
452.288	454.03
452.498	477.47
452.709	386.22
452.919	411.6
453.13	360.26
453.34	413.54
453.55	336.43
453.761	427.68
453.971	413.15
454.182	417.99
454.392	420.51
454.602	463.52
454.813	409.27
455.023	437.56
455.233	365.68
455.444	404.04
455.654	349.41
455.864	357.93
456.075	405.01
456.285	392.42
456.495	366.26
456.705	397.46
456.916	455.19
457.126	448.8
457.336	406.56
457.546	365.49
457.756	389.9
457.967	438.72
458.177	407.53
458.387	407.14
458.597	378.08
458.807	421.67
459.017	430.2
459.227	427.68
459.437	401.91
459.647	426.13
459.857	456.55
460.068	408.5
460.278	490.26
460.488	433.88
460.698	510.41
460.908	409.47
461.117	404.62
461.327	417.41
461.537	436.98
461.747	449.77
461.957	456.55
462.167	571.64
462.377	483.09
462.587	452.48
462.797	498.01
463.007	446.47
463.216	452.29
463.426	501.89
463.636	494.52
463.846	431.94
464.056	445.51
464.265	497.62
464.475	412.76
464.685	452.48
464.895	479.41
465.104	456.94
465.314	517.58
465.524	446.47
465.733	444.92
465.943	554.39
466.153	538.5
466.362	516.61
466.572	490.84
466.782	484.45
466.991	471.08
467.201	548.77
467.41	441.63
467.62	507.31
467.829	448.02
468.039	513.32
468.249	471.47
468.458	485.61
468.668	513.12
468.877	517.58
469.086	541.02
469.296	556.72
469.505	478.06
469.715	571.05
469.924	512.93
470.134	560.2
470.343	568.34
470.552	502.08
470.762	501.5
470.971	509.44
471.18	527.65
471.39	530.17
471.599	512.74
471.808	545.29
472.018	494.52
472.227	578.61
472.436	598.18
472.645	566.4
472.855	547.22
473.064	581.9
473.273	582.1
473.482	580.35
473.691	601.67
473.901	630.15
474.11	586.17
474.319	646.03
474.528	583.45
474.737	646.23
474.946	591.2
475.155	614.07
475.364	644.87
475.573	603.99
475.783	619.88
475.992	641.19
476.201	648.36
476.41	627.43
476.619	599.34
476.828	609.8
477.037	596.05
477.245	625.11
477.454	674.13
477.663	640.8
477.872	663.47
478.081	746.78
478.29	597.02
478.499	747.75
478.708	705.51
478.917	721.21
479.125	670.83
479.334	681.49
479.543	693.7
479.752	709.39
479.961	697.96
480.169	758.99
480.378	700.09
480.587	829.71
480.796	721.98
481.004	727.02
481.213	757.83
481.422	761.12
481.63	744.65
481.839	780.49
482.048	824.09
482.256	793.67
482.465	787.28
482.674	792.51
482.882	808.98
483.091	842.49
483.299	802.19
483.508	820.02
483.716	762.67
483.925	807.04
484.134	755.11
484.342	783.21
484.551	816.53
484.759	841.72
484.967	853.54
485.176	837.26
485.384	843.27
485.593	851.41
485.801	856.83
486.01	827.19
486.218	778.56
486.426	710.36
486.635	704.93
486.843	723.92
487.051	748.33
487.26	736.71
487.468	785.92
487.676	814.98
487.885	798.9
488.093	847.92
488.301	849.66
488.509	852.18
488.717	881.63
488.926	864
489.134	856.44
489.342	866.13
489.55	845.98
489.758	905.27
489.967	896.16
490.175	969.59
490.383	932
490.591	1009.89
490.799	903.52
491.007	979.47
491.215	945.18
491.423	920.57
491.631	920.96
491.839	922.51
492.047	972.11
492.255	889.57
492.463	871.94
492.671	906.24
492.879	975.02
493.087	923.48
493.295	953.12
493.503	938.4
493.711	988.39
493.919	1025.2
494.127	1000.59
494.334	1031.78
494.542	974.24
494.75	992.26
494.958	983.35
495.166	1050.19
495.374	1024.23
495.581	1038.18
495.789	1022.1
495.997	1087.58
496.205	972.11
496.412	1011.44
496.62	1008.54
496.828	1020.55
497.035	1022.68
497.243	1027.52
497.451	1038.57
497.658	1025.58
497.866	1060.07
498.074	1085.45
498.281	995.94
498.489	1090.68
498.696	1037.02
498.904	1005.05
499.112	994.39
499.319	1086.23
499.527	1005.82
499.734	1066.66
499.942	1009.12
500.149	1001.37
500.357	1045.93
500.564	1016.48
500.771	1047.48
500.979	1007.18
501.186	996.14
501.394	1018.22
501.601	1015.9
501.808	1037.6
502.016	995.17
502.223	1026.17
502.43	1041.08
502.638	1050
502.845	1001.75
503.052	1107.73
503.26	1026.75
503.467	1094.37
503.674	1042.05
503.881	1048.06
504.089	1141.06
504.296	1050.97
504.503	978.7
504.71	1021.9
504.917	1009.89
505.125	1070.53
505.332	1072.47
505.539	1073.25
505.746	1152.88
505.953	1114.13
506.16	1114.13
506.367	1190.27
506.574	1172.64
506.781	1205.58
506.988	1077.12
507.195	1136.6
507.402	1131.37
507.609	1135.63
507.816	1093.4
508.023	1090.68
508.23	1076.15
508.437	1105.8
508.644	1148.61
508.851	1166.25
509.058	1164.7
509.265	1142.03
509.472	1183.3
509.679	1244.13
509.885	1146.29
510.092	1183.88
510.299	1147.84
510.506	1137.76
510.713	1142.41
510.92	1156.36
511.126	1174.77
511.333	1213.91
511.54	1199.57
511.746	1248.01
511.953	1225.34
512.16	1261.18
512.367	1160.63
512.573	1158.11
512.78	1188.53
512.987	1187.56
513.193	1248.2
513.4	1123.04
513.606	1181.75
513.813	1173.22
514.02	1198.02
514.226	1245.68
514.433	1231.73
514.639	1143.19
514.846	1183.88
515.052	1158.88
515.259	1195.69
515.465	1223.21
515.672	1212.16
515.878	1287.34
516.085	1220.3
516.291	1252.27
516.497	1216.04
516.704	1204.61
516.91	1140.09
517.117	1092.82
517.323	1044.77
517.529	1117.23
517.736	1109.48
517.942	1117.42
518.148	1108.9
518.354	1167.21
518.561	1183.1
518.767	1164.7
518.973	1177.48
519.179	1212.94
519.386	1209.84
519.592	1185.62
519.798	1177.68
520.004	1253.24
520.21	1244.71
520.417	1272.23
520.623	1306.71
520.829	1334.61
521.035	1285.59
521.241	1321.82
521.447	1325.7
521.653	1447.95
521.859	1314.46
522.065	1315.04
522.271	1427.03
522.477	1364.06
522.683	1404.36
522.889	1397.19
523.095	1375.69
523.301	1385.57
523.507	1327.64
523.713	1361.16
523.919	1312.91
524.125	1405.72
524.331	1401.07
524.537	1448.73
524.742	1446.21
524.948	1444.08
525.154	1466.94
525.36	1544.44
525.566	1471.01
525.772	1525.07
525.977	1427.8
526.183	1469.27
526.389	1492.13
526.595	1415.99
526.8	1396.42
527.006	1373.94
527.212	1326.47
527.417	1304.19
527.623	1310.78
527.829	1402.81
528.034	1417.92
528.24	1420.25
528.446	1414.44
528.651	1542.31
528.857	1502.59
529.062	1596.56
529.268	1524.1
529.473	1514.99
529.679	1544.83
529.884	1600.82
530.09	1556.65
530.295	1598.3
530.501	1612.64
530.706	1559.75
530.912	1528.55
531.117	1563.62
531.323	1585.9
531.528	1622.33
531.733	1587.84
531.939	1611.48
532.144	1607.99
532.35	1595.59
532.555	1622.91
532.76	1602.37
532.966	1597.53
533.171	1532.82
533.376	1545.8
533.581	1537.85
533.787	1513.44
533.992	1589.78
534.197	1600.43
534.402	1607.6
534.607	1603.53
534.813	1688.98
535.018	1614
535.223	1634.73
535.428	1623.1
535.633	1679.87
535.838	1712.81
536.043	1675.8
536.249	1768.99
536.454	1696.73
536.659	1734.7
536.864	1665.34
537.069	1670.57
537.274	1696.14
537.479	1701.38
537.684	1676.38
537.889	1663.79
538.094	1769.19
538.299	1700.99
538.504	1765.89
538.708	1724.04
538.913	1735.86
539.118	1748.07
539.323	1747.68
539.528	1696.14
539.733	1729.47
539.938	1743.61
540.142	1740.12
540.347	1725.98
540.552	1691.3
540.757	1663.79
540.962	1661.66
541.166	1657.59
541.371	1631.04
541.576	1703.12
541.781	1605.47
541.985	1724.62
542.19	1723.07
542.395	1789.14
542.599	1809.49
542.804	1731.79
543.008	1752.72
543.213	1744.97
543.418	1685.88
543.622	1792.44
543.827	1734.7
544.031	1787.21
544.236	1800.57
544.44	1792.63
544.645	1848.43
544.849	1768.8
545.054	1799.02
545.258	1868.39
545.463	1819.17
545.667	1754.46
545.872	1796.89
546.076	1804.06
546.281	1862.77
546.485	1767.06
546.689	1833.7
546.894	1849.79
547.098	1801.35
547.302	1789.53
547.507	1802.9
547.711	1800.77
547.915	1859.28
548.119	1765.51
548.324	1787.21
548.528	1864.7
548.732	1809.87
548.936	1826.34
549.141	1839.32
549.345	1850.17
549.549	1818.98
549.753	1855.4
549.957	1919.53
550.161	1912.17
550.366	1817.82
550.57	1798.25
550.774	1836.42
550.978	1829.64
551.182	1826.34
551.386	1787.21
551.59	1774.03
551.794	1810.26
551.998	1851.72
552.202	1813.94
552.406	1813.36
552.61	1820.53
552.814	1843.59
553.018	1869.55
553.222	1848.04
553.426	1828.86
553.63	1900.74
553.833	1825.37
554.037	1771.12
554.241	1836.8
554.445	1850.17
554.649	1810.07
554.853	1805.61
555.056	1873.81
555.26	1891.44
555.464	1874.39
555.668	1843.78
555.871	1870.71
556.075	1896.87
556.279	1828.28
556.483	1812.39
556.686	1831.57
556.89	1819.56
557.094	1817.82
557.297	1734.89
557.501	1814.52
557.704	1773.45
557.908	1807.94
558.112	1768.61
558.315	1831.77
558.519	1787.79
558.722	1776.55
558.926	1739.35
559.129	1694.98
559.333	1683.74
559.536	1730.05
559.74	1748.65
559.943	1669.79
560.147	1689.94
560.35	1713.19
560.553	1678.9
560.757	1697.89
560.96	1746.13
561.164	1736.06
561.367	1791.08
561.57	1709.51
561.774	1726.37
561.977	1714.94
562.18	1697.69
562.384	1801.15
562.587	1715.13
562.79	1698.08
562.993	1676.96
563.197	1742.64
563.4	1813.17
563.603	1744.58
563.806	1809.68
564.009	1719.59
564.212	1734.51
564.416	1648.29
564.619	1709.71
564.822	1651.58
565.025	1703.12
565.228	1639.96
565.431	1691.3
565.634	1637.24
565.837	1629.11
566.04	1619.42
566.243	1610.31
566.446	1569.43
566.649	1659.72
566.852	1597.53
567.055	1608.57
567.258	1635.11
567.461	1697.69
567.664	1690.91
567.867	1592.49
568.07	1629.11
568.273	1611.09
568.475	1648.09
568.678	1599.46
568.881	1592.68
569.084	1570.98
569.287	1470.82
569.489	1522.16
569.692	1562.26
569.895	1578.73
570.098	1508.4
570.3	1517.7
570.503	1479.15
570.706	1478.76
570.909	1506.08
571.111	1447.95
571.314	1433.23
571.516	1460.35
571.719	1482.25
571.922	1484.96
572.124	1482.63
572.327	1487.48
572.529	1463.07
572.732	1463.45
572.935	1471.4
573.137	1502.78
573.34	1443.11
573.542	1503.37
573.745	1495.23
573.947	1497.94
574.15	1474.5
574.352	1466.75
574.554	1522.93
574.757	1439.04
574.959	1420.83
575.162	1433.42
575.364	1424.7
575.566	1555.87
575.769	1400.87
575.971	1416.57
576.173	1369.87
576.376	1422.19
576.578	1432.26
576.78	1486.12
576.982	1352.05
577.185	1405.52
577.387	1366.39
577.589	1383.82
577.791	1438.85
577.993	1436.52
578.196	1374.91
578.398	1387.31
578.6	1444.27
578.802	1353.99
579.004	1357.47
579.206	1324.92
579.408	1399.71
579.61	1358.06
579.812	1402.62
580.014	1342.36
580.216	1336.36
580.418	1356.51
580.62	1354.57
580.822	1347.59
581.024	1385.76
581.226	1412.3
581.428	1365.42
581.63	1459.97
581.832	1364.25
582.034	1435.55
582.236	1397.97
582.438	1427.42
582.64	1488.25
582.841	1474.69
583.043	1487.48
583.245	1437.49
583.447	1456.09
583.649	1424.32
583.85	1428.97
584.052	1455.51
584.254	1375.3
584.456	1456.09
584.657	1353.41
584.859	1389.05
585.061	1387.31
585.262	1390.99
585.464	1357.86
585.666	1403.39
585.867	1363.48
586.069	1410.17
586.27	1406.49
586.472	1409.2
586.674	1369.68
586.875	1376.27
587.077	1354.18
587.278	1370.07
587.48	1354.18
587.681	1440.59
587.883	1367.74
588.084	1298.38
588.285	1309.23
588.487	1290.82
588.688	1321.05
588.89	1258.86
589.091	1226.11
589.292	1241.61
589.494	1188.91
589.695	1192.59
589.896	1135.44
590.098	1133.11
590.299	1192.21
590.5	1144.55
590.702	1194.92
590.903	1229.41
591.104	1339.26
591.305	1254.59
591.507	1300.71
591.708	1238.71
591.909	1277.07
592.11	1317.37
592.311	1285.98
592.512	1250.72
592.714	1221.66
592.915	1215.26
593.116	1235.03
593.317	1272.81
593.518	1253.04
593.719	1242.19
593.92	1281.91
594.121	1298.96
594.322	1256.14
594.523	1256.53
594.724	1193.76
594.925	1237.74
595.126	1238.9
595.327	1252.27
595.528	1278.42
595.729	1255.37
595.929	1234.83
596.13	1247.81
596.331	1270.09
596.532	1281.33
596.733	1294.89
596.934	1320.08
597.135	1296.06
597.335	1270.29
597.536	1253.63
597.737	1294.51
597.938	1234.25
598.138	1303.61
598.339	1266.03
598.54	1230.38
598.74	1282.88
598.941	1227.28
599.142	1316.01
599.342	1275.71
599.543	1232.31
599.744	1263.12
599.944	1280.17
600.145	1271.45
600.345	1269.71
600.546	1338.29
600.746	1308.84
600.947	1367.35
601.147	1252.46
601.348	1320.08
601.548	1240.64
601.749	1286.95
601.949	1194.73
602.15	1241.42
602.35	1227.08
602.551	1311.94
602.751	1235.03
602.951	1268.93
603.152	1195.5
603.352	1269.32
603.552	1229.79
603.753	1295.09
603.953	1291.79
604.153	1288.89
604.354	1277.26
604.554	1244.52
604.754	1262.34
604.954	1211.19
605.155	1279.2
605.355	1260.02
605.555	1309.04
605.755	1317.76
605.955	1282.88
606.155	1296.06
606.356	1224.56
606.556	1248.39
606.756	1261.38
606.956	1208.29
607.156	1313.69
607.356	1227.08
607.556	1273
607.756	1256.34
607.956	1291.79
608.156	1279.01
608.356	1199.57
608.556	1277.26
608.756	1248.01
608.956	1235.99
609.156	1245.1
609.356	1226.11
609.556	1202.48
609.755	1251.49
609.955	1187.36
610.155	1257.5
610.355	1257.31
610.555	1205.58
610.755	1221.85
610.954	1165.86
611.154	1274.16
611.354	1277.46
611.554	1181.55
611.753	1229.21
611.953	1154.62
612.153	1206.16
612.352	1209.26
612.552	1179.23
612.752	1128.46
612.951	1186.2
613.151	1201.12
613.351	1168.96
613.55	1192.98
613.75	1198.99
613.949	1165.66
614.149	1209.84
614.348	1154.62
614.548	1168.57
614.747	1124.4
614.947	1165.86
615.146	1129.82
615.346	1202.67
615.545	1197.24
615.745	1201.31
615.944	1200.93
616.144	1153.46
616.343	1193.37
616.542	1157.53
