Data from oakcork_FLMT105791__23__17-26-58-066.txt Node

Date: Mon Mar 20 17:26:58 GMT 2023
User: antho
Spectrometer: FLMT10579
Trigger mode: 0
Integration Time (sec): 1.000000E-1
Scans to average: 10
Electric dark correction enabled: true
Nonlinearity correction enabled: false
Boxcar width: 0
XAxis mode: Wavelengths
Number of Pixels in Spectrum: 3648
>>>>>Begin Spectral Data<<<<<
345.248	-154.09
345.464	-154.09
345.681	-154.09
345.898	-145.76
346.114	-173.08
346.331	-28.16
346.548	18.92
346.764	-11.11
346.981	-3.36
347.197	-22.54
347.414	17.57
347.631	-3.94
347.847	68.33
348.064	8.65
348.28	16.21
348.497	-69.43
348.713	8.85
348.93	17.57
349.146	28.8
349.363	-22.15
349.579	-10.33
349.796	-38.81
350.012	-3.75
350.229	47.79
350.445	10.79
350.661	-4.71
350.878	-0.45
351.094	13.5
351.311	51.08
351.527	11.17
351.743	-27.96
351.96	58.45
352.176	30.16
352.392	25.32
352.609	46.63
352.825	-45.01
353.041	-5.49
353.257	18.34
353.474	0.13
353.69	10.98
353.906	9.04
354.122	-3.16
354.339	73.56
354.555	5.94
354.771	-0.26
354.987	42.95
355.203	79.76
355.42	1.29
355.636	6.33
355.852	2.65
356.068	24.74
356.284	-41.14
356.5	73.95
356.716	42.17
356.932	8.85
357.148	22.22
357.364	-13.82
357.58	68.91
357.796	44.69
358.012	71.62
358.228	16.4
358.444	-27.38
358.66	47.6
358.876	23.77
359.092	3.23
359.308	32.87
359.524	38.1
359.74	3.42
359.956	-4.52
360.172	27.06
360.388	29.58
360.604	8.85
360.819	91.97
361.035	30.74
361.251	49.15
361.467	-19.83
361.683	40.62
361.898	10.59
362.114	63.29
362.33	36.75
362.546	73.56
362.762	21.44
362.977	69.49
363.193	-11.3
363.409	29
363.624	-22.54
363.84	-7.04
364.056	-3.55
364.271	24.74
364.487	5.55
364.703	17.18
364.918	-13.82
365.134	31.52
365.35	15.24
365.565	107.47
365.781	40.23
365.996	30.55
366.212	78.02
366.427	33.07
366.643	0.52
366.858	-4.13
367.074	-14.79
367.289	53.99
367.505	99.91
367.72	-4.52
367.936	47.98
368.151	48.95
368.367	8.27
368.582	37.52
368.798	22.8
369.013	87.51
369.228	32.29
369.444	30.74
369.659	78.02
369.874	68.52
370.09	74.33
370.305	-24.48
370.52	33.07
370.736	74.53
370.951	40.23
371.166	81.5
371.381	70.27
371.597	51.08
371.812	-0.26
372.027	-20.99
372.242	22.22
372.458	91.97
372.673	38.88
372.888	28.03
373.103	51.86
373.318	119.67
373.533	66.78
373.749	28.42
373.964	-41.72
374.179	111.73
374.394	-20.41
374.609	95.07
374.824	-25.06
375.039	64.84
375.254	5.17
375.469	100.88
375.684	47.21
375.899	88.67
376.114	17.76
376.329	56.12
376.544	73.95
376.759	67.17
376.974	0.52
377.189	38.68
377.404	45.85
377.619	59.22
377.834	-14.98
378.049	-5.68
378.264	-3.94
378.478	59.8
378.693	5.17
378.908	56.51
379.123	23.57
379.338	63.87
379.553	42.56
379.767	54.96
379.982	60.77
380.197	46.05
380.412	51.67
380.626	48.18
380.841	104.37
381.056	60.77
381.271	111.53
381.485	20.28
381.7	0.9
381.915	59.22
382.129	34.81
382.344	48.57
382.559	39.65
382.773	73.56
382.988	-32.61
383.202	69.3
383.417	10.4
383.632	142.92
383.846	29.19
384.061	43.53
384.275	4.97
384.49	27.84
384.704	73.17
384.919	49.53
385.133	50.5
385.348	47.79
385.562	16.02
385.777	74.14
385.991	73.75
386.206	26.29
386.42	12.53
386.634	94.48
386.849	53.22
387.063	72.01
387.277	14.85
387.492	18.54
387.706	15.24
387.92	38.88
388.135	97.2
388.349	26.29
388.563	49.34
388.778	26.09
388.992	54.18
389.206	74.92
389.42	125.68
389.635	45.27
389.849	93.52
390.063	94.29
390.277	43.53
390.491	92.16
390.706	73.95
390.92	89.25
391.134	62.32
391.348	89.64
391.562	17.95
391.776	57.87
391.99	21.44
392.205	89.25
392.419	12.14
392.633	48.37
392.847	92.55
393.061	44.3
393.275	110.37
393.489	17.18
393.703	44.11
393.917	85.18
394.131	32.48
394.345	76.27
394.559	96.42
394.773	40.23
394.986	55.54
395.2	69.1
395.414	107.08
395.628	18.92
395.842	92.16
396.056	36.17
396.27	7.3
396.484	71.04
396.697	77.82
396.911	111.53
397.125	44.5
397.339	89.25
397.553	67.17
397.766	136.72
397.98	106.88
398.194	118.7
398.408	59.8
398.621	110.76
398.835	88.48
399.049	84.41
399.262	123.16
399.476	141.37
399.69	112.5
399.903	181.48
400.117	79.18
400.331	114.44
400.544	69.1
400.758	198.72
400.971	127.81
401.185	160.94
401.398	91.97
401.612	157.26
401.826	109.02
402.039	135.36
402.253	103.2
402.466	116.57
402.68	92.74
402.893	117.35
403.106	111.34
403.32	64.65
403.533	141.76
403.747	101.27
403.96	136.33
404.174	128.39
404.387	90.42
404.6	104.37
404.814	138.85
405.027	115.02
405.24	100.68
405.454	99.33
405.667	134.59
405.88	48.37
406.094	80.34
406.307	147.18
406.52	112.31
406.733	69.68
406.947	81.89
407.16	179.93
407.373	170.05
407.586	107.47
407.799	97.78
408.012	141.95
408.226	115.41
408.439	150.28
408.652	71.23
408.865	136.53
409.078	149.12
409.291	135.75
409.504	92.16
409.717	141.95
409.93	148.54
410.143	124.71
410.357	78.02
410.57	96.03
410.783	118.51
410.996	117.54
411.209	118.12
411.421	171.4
411.634	119.09
411.847	72.2
412.06	139.82
412.273	132.07
412.486	114.25
412.699	217.9
412.912	127.23
413.125	153.19
413.338	121.41
413.55	172.18
413.763	115.41
413.976	140.01
414.189	133.81
414.402	117.54
414.615	172.76
414.827	111.92
415.04	154.16
415.253	153.19
415.466	168.5
415.678	192.91
415.891	144.86
416.104	158.23
416.316	144.08
416.529	157.06
416.742	163.26
416.954	161.71
417.167	158.23
417.38	142.73
417.592	172.56
417.805	111.34
418.017	60.77
418.23	155.32
418.442	128.78
418.655	131.3
418.868	154.93
419.08	180.7
419.293	188.45
419.505	157.45
419.718	171.79
419.93	187.29
420.142	153.38
420.355	189.03
420.567	221.39
420.78	190
420.992	165.4
421.205	185.35
421.417	84.8
421.629	141.95
421.842	136.33
422.054	101.07
422.266	166.95
422.479	192.13
422.691	150.09
422.903	188.84
423.115	122
423.328	151.83
423.54	174.31
423.752	155.32
423.964	121.8
424.177	166.75
424.389	144.86
424.601	261.11
424.813	186.9
425.025	193.88
425.238	210.34
425.45	146.99
425.662	178.96
425.874	429.28
426.086	167.14
426.298	209.76
426.51	166.75
426.722	181.28
426.934	142.73
427.146	184
427.358	134.2
427.57	182.64
427.782	149.51
427.994	156.29
428.206	131.1
428.418	134.78
428.63	170.24
428.842	211.31
429.054	181.28
429.266	198.14
429.478	130.13
429.69	169.46
429.902	132.46
430.114	194.46
430.325	171.79
430.537	140.21
430.749	135.95
430.961	106.3
431.173	149.7
431.384	176.05
431.596	92.55
431.808	119.86
432.02	180.7
432.231	214.61
432.443	239.41
432.655	184
432.867	160.75
433.078	192.91
433.29	255.68
433.502	226.62
433.713	235.53
433.925	206.86
434.136	216.74
434.348	159
434.56	148.93
434.771	286.68
434.983	165.4
435.194	182.45
435.406	189.81
435.617	243.28
435.829	260.53
436.04	242.7
436.252	226.81
436.463	266.14
436.675	251.03
436.886	211.89
437.098	243.86
437.309	289.2
437.521	195.62
437.732	220.42
437.943	224.68
438.155	241.34
438.366	199.5
438.578	259.17
438.789	255.49
439	238.83
439.211	217.13
439.423	226.04
439.634	252
439.845	231.85
440.057	256.07
440.268	292.49
440.479	234.18
440.69	271.38
440.902	240.38
441.113	213.25
441.324	221.78
441.535	269.05
441.746	302.37
441.957	233.4
442.168	222.74
442.38	253.16
442.591	280.29
442.802	216.16
443.013	242.12
443.224	271.57
443.435	246.19
443.646	226.04
443.857	284.94
444.068	234.76
444.279	239.79
444.49	331.24
444.701	254.71
444.912	357.01
445.123	299.08
445.334	273.7
445.545	308.57
445.756	266.53
445.967	237.08
446.178	285.91
446.388	302.18
446.599	292.88
446.81	273.31
447.021	262.66
447.232	342.87
447.443	303.34
447.653	249.68
447.864	316.32
448.075	298.89
448.286	328.34
448.496	317.49
448.707	336.86
448.918	295.01
449.129	354.69
449.339	286.1
449.55	316.32
449.761	274.28
449.971	352.56
450.182	299.47
450.393	329.31
450.603	316.32
450.814	335.31
451.024	302.57
451.235	345.97
451.446	351.59
451.656	406.42
451.867	305.67
452.077	322.52
452.288	384.14
452.498	384.14
452.709	309.35
452.919	323.49
453.13	306.83
453.34	338.99
453.55	276.61
453.761	324.66
453.971	310.71
454.182	330.86
454.392	370.57
454.602	401.57
454.813	350.04
455.023	357.21
455.233	268.66
455.444	334.15
455.654	245.22
455.864	314
456.075	305.28
456.285	296.37
456.495	315.74
456.705	341.71
456.916	382.59
457.126	382.97
457.336	361.08
457.546	289.59
457.756	333.37
457.967	399.64
458.177	335.51
458.387	342.48
458.597	295.98
458.807	321.94
459.017	308.57
459.227	345.39
459.437	326.79
459.647	380.26
459.857	366.12
460.068	311.48
460.278	387.04
460.488	332.02
460.698	433.74
460.908	337.83
461.117	314.77
461.327	322.72
461.537	343.84
461.747	345
461.957	345.19
462.167	458.34
462.377	393.63
462.587	369.02
462.797	372.51
463.007	388.01
463.216	387.24
463.426	413.39
463.636	420.95
463.846	339.19
464.056	350.04
464.265	416.49
464.475	339.57
464.685	360.5
464.895	385.69
465.104	363.79
465.314	413.2
465.524	374.26
465.733	360.89
465.943	427.92
466.153	430.25
466.362	409.9
466.572	422.69
466.782	365.54
466.991	381.42
467.201	444.97
467.41	346.55
467.62	387.24
467.829	367.67
468.039	389.56
468.249	382.39
468.458	382
468.668	402.74
468.877	422.5
469.086	417.65
469.296	449.43
469.505	379.1
469.715	474.03
469.924	414.17
470.134	449.24
470.343	473.26
470.552	401.38
470.762	401.57
470.971	414.75
471.18	434.51
471.39	416.1
471.599	403.51
471.808	454.27
472.018	408.74
472.227	482.75
472.436	474.81
472.645	422.69
472.855	420.17
473.064	507.55
473.273	482.37
473.482	477.91
473.691	492.05
473.901	498.06
474.11	456.02
474.319	525.57
474.528	443.23
474.737	516.85
474.946	497.09
475.155	498.64
475.364	515.3
475.573	503.29
475.783	482.56
475.992	526.73
476.201	571.88
476.41	498.64
476.619	504.45
476.828	487.98
477.037	485.85
477.245	501.74
477.454	521.31
477.663	498.83
477.872	518.02
478.081	589.7
478.29	504.45
478.499	594.16
478.708	547.66
478.917	599.58
479.125	552.31
479.334	572.65
479.543	539.91
479.752	574.2
479.961	568.78
480.169	593.96
480.378	553.08
480.587	686.38
480.796	609.46
481.004	593.77
481.213	613.15
481.422	573.23
481.63	593.58
481.839	612.95
482.048	690.45
482.256	625.93
482.465	643.95
482.674	643.76
482.882	645.31
483.091	720.87
483.299	629.42
483.508	678.63
483.716	622.64
483.925	670.11
484.134	621.48
484.342	601.13
484.551	680.76
484.759	687.16
484.967	651.51
485.176	680.96
485.384	684.25
485.593	669.91
485.801	683.86
486.01	661.58
486.218	617.41
486.426	537.97
486.635	579.05
486.843	565.87
487.051	598.61
487.26	608.88
487.468	659.45
487.676	640.27
487.885	626.51
488.093	667.59
488.301	670.88
488.509	697.81
488.717	721.26
488.926	694.52
489.134	663.52
489.342	689.09
489.55	622.25
489.758	677.08
489.967	676.69
490.175	793.72
490.383	675.14
490.591	784.42
490.799	683.67
491.007	763.11
491.215	747.02
491.423	723.39
491.631	734.04
491.839	726.88
492.047	753.03
492.255	722.81
492.463	679.02
492.671	690.45
492.879	792.75
493.087	718.74
493.295	759.62
493.503	749.74
493.711	806.51
493.919	772.21
494.127	775.89
494.334	814.84
494.542	731.91
494.75	771.24
494.958	755.55
495.166	807.47
495.374	798.56
495.581	793.14
495.789	797.21
495.997	846.8
496.205	769.5
496.412	776.47
496.62	792.17
496.828	805.15
497.035	777.44
497.243	831.69
497.451	808.44
497.658	811.54
497.866	808.44
498.074	850.1
498.281	778.22
498.489	872.77
498.696	795.27
498.904	801.08
499.112	786.16
499.319	864.82
499.527	807.47
499.734	864.82
499.942	757.29
500.149	819.49
500.357	842.54
500.564	799.92
500.771	825.69
500.979	756.52
501.186	769.89
501.394	821.04
501.601	790.23
501.808	826.46
502.016	802.63
502.223	816.39
502.43	779.57
502.638	801.08
502.845	813.67
503.052	906.28
503.26	828.2
503.467	898.92
503.674	840.22
503.881	828.2
504.089	902.99
504.296	883.81
504.503	785.58
504.71	830.34
504.917	798.76
505.125	855.52
505.332	871.8
505.539	874.12
505.746	938.64
505.953	911.32
506.16	858.62
506.367	928.76
506.574	943.68
506.781	942.52
506.988	878.77
507.195	872.96
507.402	905.12
507.609	938.45
507.816	842.35
508.023	860.95
508.23	849.9
508.437	816.39
508.644	894.85
508.851	962.28
509.058	957.05
509.265	915.39
509.472	917.33
509.679	978.17
509.885	923.72
510.092	917.72
510.299	949.88
510.506	911.71
510.713	957.43
510.92	923.92
511.126	934.77
511.333	989.02
511.54	932.25
511.746	984.37
511.953	970.03
512.16	1014.78
512.367	934.18
512.573	952.78
512.78	934.38
512.987	965.96
513.193	958.02
513.4	905.9
513.606	932.25
513.813	939.61
514.02	929.15
514.226	999.86
514.433	991.73
514.639	905.12
514.846	937.67
515.052	917.52
515.259	923.92
515.465	982.23
515.672	972.74
515.878	1034.74
516.085	973.13
516.291	1016.72
516.497	953.95
516.704	960.15
516.91	909.97
517.117	892.14
517.323	834.4
517.529	884.97
517.736	879.74
517.942	901.44
518.148	924.5
518.354	911.13
518.561	939.61
518.767	948.72
518.973	968.48
519.179	962.86
519.386	964.6
519.592	950.65
519.798	929.34
520.004	1037.26
520.21	984.75
520.417	1019.43
520.623	1059.54
520.829	1041.71
521.035	1075.43
521.241	1040.94
521.447	1060.31
521.653	1195.16
521.859	1039
522.065	1085.5
522.271	1180.24
522.477	1092.28
522.683	1140.72
522.889	1098.09
523.095	1104.1
523.301	1108.75
523.507	1065.16
523.713	1126.77
523.919	1077.94
524.125	1136.84
524.331	1088.99
524.537	1231.97
524.742	1181.02
524.948	1174.24
525.154	1207.95
525.36	1280.6
525.566	1156.41
525.772	1249.22
525.977	1138.01
526.183	1193.03
526.389	1210.47
526.595	1148.47
526.8	1177.34
527.006	1078.91
527.212	1092.09
527.417	1051.6
527.623	1108.75
527.829	1118.83
528.034	1140.33
528.24	1142.85
528.446	1126.19
528.651	1209.69
528.857	1180.82
529.062	1250.96
529.268	1224.42
529.473	1232.17
529.679	1249.99
529.884	1318.58
530.09	1251.16
530.295	1301.34
530.501	1274.79
530.706	1252.51
530.912	1234.49
531.117	1286.8
531.323	1241.27
531.528	1342.02
531.733	1330.79
531.939	1282.74
532.144	1292.23
532.35	1303.85
532.555	1369.73
532.76	1295.33
532.966	1299.59
533.171	1277.5
533.376	1249.61
533.581	1212.02
533.787	1259.29
533.992	1300.17
534.197	1299.4
534.402	1255.42
534.607	1327.1
534.813	1402.86
535.018	1278.28
535.223	1284.29
535.428	1314.9
535.633	1361.2
535.838	1362.37
536.043	1341.25
536.249	1435.41
536.454	1315.87
536.659	1344.73
536.864	1343.57
537.069	1339.31
537.274	1346.48
537.479	1342.99
537.684	1360.04
537.889	1299.59
538.094	1429.79
538.299	1338.34
538.504	1362.95
538.708	1383.48
538.913	1384.07
539.118	1379.22
539.323	1406.54
539.528	1346.48
539.733	1377.28
539.938	1396.08
540.142	1334.85
540.347	1360.62
540.552	1386.78
540.757	1340.08
540.962	1328.27
541.166	1288.35
541.371	1314.32
541.576	1333.11
541.781	1239.34
541.985	1359.46
542.19	1387.75
542.395	1438.7
542.599	1451.49
542.804	1392.98
543.008	1421.85
543.213	1370.7
543.418	1336.02
543.622	1406.15
543.827	1342.02
544.031	1411.97
544.236	1449.94
544.44	1407.7
544.645	1487.53
544.849	1399.18
545.054	1465.05
545.258	1494.7
545.463	1490.43
545.667	1398.4
545.872	1435.41
546.076	1448.97
546.281	1446.26
546.485	1374.96
546.689	1441.8
546.894	1453.62
547.098	1430.37
547.302	1397.82
547.507	1455.95
547.711	1453.62
547.915	1462.34
548.119	1376.9
548.324	1446.06
548.528	1484.81
548.732	1447.61
548.936	1476.48
549.141	1479.39
549.345	1449.55
549.549	1448
549.753	1424.56
549.957	1526.08
550.161	1527.83
550.366	1484.04
550.57	1405.77
550.774	1457.5
550.978	1452.65
551.182	1488.88
551.386	1468.15
551.59	1454.2
551.794	1426.5
551.998	1473.96
552.202	1480.55
552.406	1395.5
552.61	1463.11
552.814	1472.22
553.018	1533.64
553.222	1477.26
553.426	1460.98
553.63	1530.54
553.833	1440.64
554.037	1406.73
554.241	1479.2
554.445	1455.95
554.649	1436.38
554.853	1447.42
555.056	1501.67
555.26	1509.42
555.464	1479.78
555.668	1469.12
555.871	1507.48
556.075	1495.28
556.279	1427.85
556.483	1403.05
556.686	1461.56
556.89	1441.41
557.094	1441.8
557.297	1400.15
557.501	1472.22
557.704	1378.06
557.908	1465.83
558.112	1404.99
558.315	1463.7
558.519	1386.39
558.722	1397.43
558.926	1400.15
559.129	1326.52
559.333	1333.3
559.536	1338.73
559.74	1343.57
559.943	1336.21
560.147	1326.33
560.35	1387.55
560.553	1348.8
560.757	1330.01
560.96	1421.46
561.164	1339.89
561.367	1421.27
561.57	1353.45
561.774	1389.3
561.977	1352.48
562.18	1335.44
562.384	1443.93
562.587	1353.65
562.79	1348.03
562.993	1341.05
563.197	1359.07
563.4	1393.37
563.603	1400.53
563.806	1456.72
564.009	1333.11
564.212	1377.09
564.416	1288.55
564.619	1387.17
564.822	1297.46
565.025	1405.18
565.228	1317.61
565.431	1330.4
565.634	1269.75
565.837	1266.07
566.04	1245.54
566.243	1301.34
566.446	1213.76
566.649	1302.5
566.852	1245.73
567.055	1279.05
567.258	1299.4
567.461	1311.02
567.664	1344.15
567.867	1252.7
568.07	1287.39
568.273	1309.28
568.475	1326.52
568.678	1271.5
568.881	1246.89
569.084	1270.72
569.287	1161.45
569.489	1177.53
569.692	1241.27
569.895	1253.09
570.098	1223.84
570.3	1156.22
570.503	1155.06
570.706	1156.8
570.909	1162.03
571.111	1127.54
571.314	1156.41
571.516	1145.18
571.719	1169.78
571.922	1156.03
572.124	1134.52
572.327	1194
572.529	1125.61
572.732	1131.81
572.935	1155.64
573.137	1222.09
573.34	1158.93
573.542	1218.99
573.745	1183.34
573.947	1182.18
574.15	1133.74
574.352	1117.28
574.554	1202.52
574.757	1119.21
574.959	1107.39
575.162	1115.92
575.364	1089.96
575.566	1195.36
575.769	1055.08
575.971	1118.05
576.173	1031.83
576.376	1101.19
576.578	1125.8
576.78	1173.85
576.982	1039
577.185	1107.39
577.387	1055.86
577.589	1088.79
577.791	1104.29
577.993	1111.08
578.196	1092.67
578.398	1125.22
578.6	1124.44
578.802	1047.14
579.004	1037.06
579.206	1057.99
579.408	1110.3
579.61	1082.01
579.812	1122.31
580.014	1056.63
580.216	1029.9
580.418	1055.66
580.62	1058.96
580.822	1024.47
581.024	1047.72
581.226	1093.25
581.428	1016.14
581.63	1144.79
581.832	1082.4
582.034	1125.03
582.236	1106.23
582.438	1119.6
582.64	1157.77
582.841	1137.23
583.043	1188.96
583.245	1115.34
583.447	1097.51
583.649	1108.75
583.85	1115.14
584.052	1164.74
584.254	1051.98
584.456	1133.94
584.657	1044.43
584.859	1121.73
585.061	1081.43
585.262	1091.12
585.464	1070.78
585.666	1105.65
585.867	1040.94
586.069	1135.88
586.27	1072.91
586.472	1064.38
586.674	1039.39
586.875	1054.31
587.077	1077.75
587.278	1064
587.48	1020.21
587.681	1147.5
587.883	1071.94
588.084	977.58
588.285	1040.55
588.487	1011.1
588.688	1020.4
588.89	964.99
589.091	937.87
589.292	960.53
589.494	942.9
589.695	923.53
589.896	858.04
590.098	848.74
590.299	921.59
590.5	886.91
590.702	901.44
590.903	942.9
591.104	1000.06
591.305	959.37
591.507	1004.9
591.708	991.73
591.909	956.66
592.11	1014.78
592.311	987.47
592.512	959.76
592.714	914.42
592.915	940.38
593.116	963.44
593.317	977.97
593.518	978.36
593.719	955.69
593.92	1003.55
594.121	1010.52
594.322	982.82
594.523	979.52
594.724	905.51
594.925	970.8
595.126	969.83
595.327	981.85
595.528	942.71
595.729	983.2
595.929	941.16
596.13	988.63
596.331	962.08
596.532	979.33
596.733	1040.36
596.934	1001.22
597.135	1008.58
597.335	999.48
597.536	937.09
597.737	989.21
597.938	934.18
598.138	949.3
598.339	968.28
598.54	1002.77
598.74	959.37
598.941	972.16
599.142	1015.56
599.342	961.31
599.543	911.32
599.744	942.32
599.944	929.73
600.145	943.68
600.345	980.68
600.546	1017.3
600.746	991.73
600.947	1077.36
601.147	977.39
601.348	1050.05
601.548	958.02
601.749	965.38
601.949	909.97
602.15	931.08
602.35	959.95
602.551	944.07
602.751	909
602.951	896.6
603.152	899.31
603.352	967.12
603.552	961.31
603.753	967.9
603.953	970.22
604.153	955.5
604.354	965.38
604.554	939.03
604.754	941.55
604.954	911.32
605.155	952.01
605.355	942.52
605.555	979.91
605.755	997.15
605.955	942.32
606.155	982.23
606.356	959.57
606.556	969.25
606.756	955.11
606.956	917.13
607.156	1009.75
607.356	915.78
607.556	954.53
607.756	911.71
607.956	1005.87
608.156	962.08
608.356	892.72
608.556	953.56
608.756	958.79
608.956	899.12
609.156	928.37
609.356	875.09
609.556	883.62
609.755	911.13
609.955	905.51
610.155	894.47
610.355	919.27
610.555	898.54
610.755	924.88
610.954	842.93
611.154	883.04
611.354	947.17
611.554	891.37
611.753	896.79
611.953	835.57
612.153	917.13
612.352	910.74
612.552	855.33
612.752	818.71
612.951	878
613.151	905.7
613.351	855.72
613.55	927.6
613.75	886.52
613.949	895.05
614.149	891.37
614.348	848.74
614.548	850.87
614.747	836.15
614.947	840.8
615.146	782.09
615.346	879.55
615.545	860.95
615.745	831.3
615.944	880.32
616.144	871.22
616.343	874.12
616.542	835.57
616.742	850.1
616.941	828.01
617.14	794.3
617.34	836.34
617.539	852.04
617.738	801.08
617.938	875.29
618.137	839.83
618.336	803.41
618.535	859.59
618.734	815.42
618.934	833.05
619.133	848.74
619.332	865.79
619.531	832.08
619.73	831.11
619.929	879.16
620.128	871.41
