Data from oakcork_FLMT105791__293__17-34-39-052.txt Node

Date: Mon Mar 20 17:34:39 GMT 2023
User: antho
Spectrometer: FLMT10579
Trigger mode: 0
Integration Time (sec): 1.000000E-1
Scans to average: 10
Electric dark correction enabled: true
Nonlinearity correction enabled: false
Boxcar width: 0
XAxis mode: Wavelengths
Number of Pixels in Spectrum: 3648
>>>>>Begin Spectral Data<<<<<
345.248	-140.48
345.464	-140.48
345.681	-140.48
345.898	-162.96
346.114	-131.76
346.331	-47.1
346.548	25.36
346.764	-2.92
346.981	14.9
347.197	-2.15
347.414	16.26
347.631	-16.87
347.847	70.31
348.064	-16.87
348.28	19.75
348.497	-57.17
348.713	-3.5
348.93	31.76
349.146	42.03
349.363	15.68
349.579	23.04
349.796	20.91
350.012	8.31
350.229	25.36
350.445	9.86
350.661	-1.95
350.878	3.47
351.094	14.51
351.311	11.41
351.527	8.12
351.743	-16.1
351.96	38.15
352.176	35.25
352.392	-4.08
352.609	24.98
352.825	-0.02
353.041	3.47
353.257	-1.76
353.474	5.8
353.69	15.29
353.906	-8.35
354.122	5.41
354.339	36.02
354.555	15.1
354.771	0.95
354.987	50.94
355.203	49.97
355.42	-6.99
355.636	-6.99
355.852	11.41
356.068	4.25
356.284	5.6
356.5	50.16
356.716	37.76
356.932	-9.12
357.148	24.2
357.364	26.91
357.58	55.2
357.796	41.06
358.012	36.99
358.228	-1.76
358.444	-47.68
358.66	42.41
358.876	43.96
359.092	-1.18
359.308	21.68
359.524	35.25
359.74	-3.5
359.956	-21.13
360.172	5.8
360.388	46.87
360.604	4.25
360.819	79.23
361.035	29.82
361.251	23.81
361.467	-3.5
361.683	42.8
361.898	5.99
362.114	43.96
362.33	21.1
362.546	31.76
362.762	19.16
362.977	58.3
363.193	-14.55
363.409	54.81
363.624	-19.97
363.84	-22.68
364.056	-22.1
364.271	15.1
364.487	-5.63
364.703	12
364.918	-3.31
365.134	0.18
365.35	0.37
365.565	108.48
365.781	18.39
365.996	29.05
366.212	60.82
366.427	20.91
366.643	-17.65
366.858	-7.38
367.074	-30.05
367.289	68.57
367.505	114.49
367.72	-12.61
367.936	22.46
368.151	41.25
368.367	4.05
368.582	27.3
368.798	-3.89
369.013	63.92
369.228	11.03
369.444	19.94
369.659	68.18
369.874	32.34
370.09	45.51
370.305	-54.65
370.52	-0.6
370.736	49.39
370.951	16.45
371.166	75.93
371.381	70.51
371.597	47.06
371.812	-3.12
372.027	-2.34
372.242	-5.44
372.458	60.63
372.673	31.95
372.888	5.6
373.103	5.6
373.318	99.18
373.533	33.31
373.749	5.41
373.964	-43.22
374.179	57.72
374.394	-0.6
374.609	47.84
374.824	-7.57
375.039	82.71
375.254	-0.6
375.469	47.84
375.684	40.28
375.899	46.1
376.114	13.93
376.329	29.63
376.544	42.41
376.759	33.5
376.974	-5.83
377.189	14.71
377.404	7.73
377.619	44.16
377.834	-37.41
378.049	-12.42
378.264	-33.34
378.478	46.1
378.693	-2.34
378.908	47.84
379.123	-1.57
379.338	42.03
379.553	41.83
379.767	29.24
379.982	62.56
380.197	61.79
380.412	5.02
380.626	43.77
380.841	68.18
381.056	24.01
381.271	73.61
381.485	-8.15
381.7	3.47
381.915	32.15
382.129	-9.32
382.344	53.26
382.559	13.55
382.773	65.66
382.988	-26.95
383.202	31.37
383.417	-6.41
383.632	91.82
383.846	51.71
384.061	9.28
384.275	24.78
384.49	24.78
384.704	49
384.919	31.76
385.133	25.95
385.348	44.16
385.562	-29.85
385.777	54.04
385.991	36.21
386.206	-3.31
386.42	-2.53
386.634	56.36
386.849	41.25
387.063	30.21
387.277	-27.72
387.492	-15.52
387.706	5.6
387.92	-14.16
388.135	65.28
388.349	15.1
388.563	18.58
388.778	39.51
388.992	41.64
389.206	43
389.42	90.27
389.635	8.31
389.849	48.61
390.063	28.27
390.277	45.9
390.491	78.65
390.706	39.51
390.92	75.55
391.134	21.1
391.348	32.73
391.562	-26.95
391.776	-2.73
391.99	14.9
392.205	45.71
392.419	26.72
392.633	4.44
392.847	74
393.061	14.71
393.275	72.06
393.489	40.67
393.703	38.35
393.917	99.38
394.131	9.86
394.345	45.13
394.559	26.33
394.773	34.28
394.986	52.88
395.2	10.83
395.414	54.81
395.628	5.02
395.842	41.06
396.056	33.7
396.27	-14.35
396.484	38.35
396.697	6.77
396.911	64.31
397.125	40.48
397.339	73.03
397.553	59.46
397.766	87.36
397.98	46.48
398.194	75.74
398.408	13.74
398.621	49.58
398.835	39.51
399.049	62.37
399.262	72.45
399.476	42.41
399.69	66.83
399.903	92.79
400.117	45.13
400.331	53.85
400.544	21.88
400.758	123.21
400.971	66.05
401.185	69.15
401.398	25.56
401.612	110.23
401.826	69.35
402.039	85.43
402.253	15.1
402.466	38.15
402.68	30.6
402.893	44.35
403.106	19.94
403.32	36.99
403.533	44.55
403.747	18.58
403.96	52.1
404.174	48.42
404.387	27.88
404.6	57.33
404.814	60.24
405.027	34.47
405.24	48.61
405.454	27.88
405.667	89.88
405.88	-20.36
406.094	38.54
406.307	55.98
406.52	53.85
406.733	20.13
406.947	-1.18
407.16	96.47
407.373	65.47
407.586	30.98
407.799	26.14
408.012	65.86
408.226	56.95
408.439	73.22
408.652	-1.37
408.865	45.13
409.078	68.76
409.291	66.25
409.504	5.02
409.717	48.23
409.93	72.45
410.143	55.01
410.357	-26.17
410.57	-0.6
410.783	46.48
410.996	61.21
411.209	47.26
411.421	35.25
411.634	49.58
411.847	40.86
412.06	43.19
412.273	19.94
412.486	32.53
412.699	105.96
412.912	50.16
413.125	73.22
413.338	65.08
413.55	72.83
413.763	91.05
413.976	68.96
414.189	26.33
414.402	11.41
414.615	94.34
414.827	33.11
415.04	97.44
415.253	85.62
415.466	62.18
415.678	90.66
415.891	49.2
416.104	64.89
416.316	52.1
416.529	10.45
416.742	50.75
416.954	60.05
417.167	25.17
417.38	-5.25
417.592	81.55
417.805	41.25
418.017	-2.34
418.23	60.43
418.442	29.63
418.655	25.36
418.868	70.7
419.08	94.92
419.293	79.81
419.505	59.66
419.718	61.4
419.93	65.47
420.142	43.19
420.355	109.26
420.567	78.84
420.78	92.4
420.992	37.96
421.205	94.73
421.417	-3.5
421.629	31.37
421.842	30.79
422.054	1.53
422.266	86.4
422.479	75.16
422.691	25.17
422.903	73.22
423.115	26.53
423.328	59.27
423.54	63.92
423.752	29.82
423.964	36.8
424.177	58.5
424.389	29.05
424.601	149.75
424.813	48.42
425.025	105.77
425.238	88.33
425.45	49.78
425.662	33.5
425.874	284.6
426.086	70.9
426.298	59.85
426.51	49
426.722	41.25
426.934	29.63
427.146	76.71
427.358	11.03
427.57	103.25
427.782	44.16
427.994	46.68
428.206	61.01
428.418	33.31
428.63	71.48
428.842	83.1
429.054	56.75
429.266	100.34
429.478	38.15
429.69	55.59
429.902	19.75
430.114	62.76
430.325	63.92
430.537	16.26
430.749	58.88
430.961	-5.25
431.173	46.68
431.384	67.02
431.596	7.15
431.808	27.88
432.02	52.88
432.231	75.74
432.443	109.84
432.655	48.23
432.867	21.49
433.078	69.15
433.29	114.88
433.502	85.43
433.713	107.32
433.925	58.88
434.136	97.83
434.348	24.59
434.56	18.78
434.771	148.01
434.983	27.88
435.194	25.75
435.406	49
435.617	123.21
435.829	97.63
436.04	91.63
436.252	85.43
436.463	104.99
436.675	107.71
436.886	68.38
437.098	74
437.309	109.06
437.521	61.79
437.732	101.7
437.943	66.83
438.155	63.73
438.366	11.22
438.578	122.82
438.789	80.78
439	98.41
439.211	51.52
439.423	70.9
439.634	88.72
439.845	93.56
440.057	79.03
440.268	100.93
440.479	49.2
440.69	97.83
440.902	45.32
441.113	58.69
441.324	79.42
441.535	80.39
441.746	92.79
441.957	39.9
442.168	47.84
442.38	77.87
442.591	97.44
442.802	54.81
443.013	65.86
443.224	84.46
443.435	73.41
443.646	69.93
443.857	53.26
444.068	62.37
444.279	13.74
444.49	106.54
444.701	52.49
444.912	162.73
445.123	87.56
445.334	101.12
445.545	71.67
445.756	65.47
445.967	47.65
446.178	99.57
446.388	118.75
446.599	128.05
446.81	109.45
447.021	85.23
447.232	141.42
447.443	145.88
447.653	52.88
447.864	112.74
448.075	65.28
448.286	89.11
448.496	102.67
448.707	115.46
448.918	62.95
449.129	171.26
449.339	68.57
449.55	102.28
449.761	99.76
449.971	147.62
450.182	69.15
450.393	116.04
450.603	70.31
450.814	77.68
451.024	92.21
451.235	84.07
451.446	149.17
451.656	132.51
451.867	61.21
452.077	96.28
452.288	151.49
452.498	128.05
452.709	84.26
452.919	104.61
453.13	83.1
453.34	154.21
453.55	46.1
453.761	126.89
453.971	137.74
454.182	116.23
454.392	114.68
454.602	136.58
454.813	95.31
455.023	138.9
455.233	56.56
455.444	107.13
455.654	67.41
455.864	87.56
456.075	78.65
456.285	64.5
456.495	79.23
456.705	107.32
456.916	120.69
457.126	139.87
457.336	90.85
457.546	54.81
457.756	73.8
457.967	124.37
458.177	88.91
458.387	109.06
458.597	68.96
458.807	114.1
459.017	103.06
459.227	82.33
459.437	97.05
459.647	119.33
459.857	136.38
460.068	94.92
460.278	120.11
460.488	91.63
460.698	159.63
460.908	110.42
461.117	55.01
461.327	42.03
461.537	103.64
461.747	121.27
461.957	111.19
462.167	190.05
462.377	128.24
462.587	111.19
462.797	131.15
463.007	85.04
463.216	133.09
463.426	159.44
463.636	148.39
463.846	64.7
464.056	95.89
464.265	126.5
464.475	90.27
464.685	112.74
464.895	106.74
465.104	108.09
465.314	140.06
465.524	99.38
465.733	117.78
465.943	148.01
466.153	146.46
466.362	126.11
466.572	129.02
466.782	97.44
466.991	97.44
467.201	171.84
467.41	83.49
467.62	129.02
467.829	80.58
468.039	131.15
468.249	101.89
468.458	101.89
468.668	157.5
468.877	103.06
469.086	144.33
469.296	153.43
469.505	106.74
469.715	176.88
469.924	153.43
470.134	168.35
470.343	161.38
470.552	92.21
470.762	127.47
470.971	113.91
471.18	135.41
471.39	113.52
471.599	92.01
471.808	103.06
472.018	85.04
472.227	150.72
472.436	148.01
472.645	89.3
472.855	102.86
473.064	139.29
473.273	154.79
473.482	155.18
473.691	166.61
473.901	133.67
474.11	115.84
474.319	209.04
474.528	148.59
474.737	176.88
474.946	167.58
475.155	130.76
475.364	160.02
475.573	108.48
475.783	146.84
475.992	166.8
476.201	182.88
476.41	142.19
476.619	124.37
476.828	130.57
477.037	121.08
477.245	126.11
477.454	167.77
477.663	134.06
477.872	138.51
478.081	181.14
478.29	98.02
478.499	191.79
478.708	155.76
478.917	187.92
479.125	150.72
479.334	150.72
479.543	111.39
479.752	157.11
479.961	151.49
480.169	191.41
480.378	137.16
480.587	255.34
480.796	161.76
481.004	140.45
481.213	175.52
481.422	156.34
481.63	158.08
481.839	138.71
482.048	207.87
482.256	169.71
482.465	165.25
482.674	193.34
482.882	189.27
483.091	240.62
483.299	195.28
483.508	191.99
483.716	151.3
483.925	183.85
484.134	182.11
484.342	138.32
484.551	188.89
484.759	200.71
484.967	172.03
485.176	181.91
485.384	201.87
485.593	213.11
485.801	193.54
486.01	190.05
486.218	176.29
486.426	158.28
486.635	180.75
486.843	162.93
487.051	187.14
487.26	163.89
487.468	194.89
487.676	186.37
487.885	163.7
488.093	172.61
488.301	169.32
488.509	166.61
488.717	213.49
488.926	196.06
489.134	182.69
489.342	201.29
489.55	162.93
489.758	174.55
489.967	156.34
490.175	271.04
490.383	153.24
490.591	223.18
490.799	148.2
491.007	207.87
491.215	191.6
491.423	193.73
491.631	198.38
491.839	198.77
492.047	199.93
492.255	167.19
492.463	151.11
492.671	191.41
492.879	216.79
493.087	185.21
493.295	190.24
493.503	222.6
493.711	210.39
493.919	225.12
494.127	251.47
494.334	231.51
494.542	161.76
494.75	186.17
494.958	207.87
495.166	230.93
495.374	200.51
495.581	212.14
495.789	193.73
495.997	271.23
496.205	217.76
496.412	211.94
496.62	186.17
496.828	231.32
497.035	192.76
497.243	224.54
497.451	228.02
497.658	245.46
497.866	191.21
498.074	248.95
498.281	169.51
498.489	302.04
498.696	246.43
498.904	180.94
499.112	211.94
499.319	275.1
499.527	221.82
499.734	268.52
499.942	185.01
500.149	191.6
500.357	212.91
500.564	181.33
500.771	227.44
500.979	207.87
501.186	225.12
501.394	221.05
501.601	218.53
501.808	232.29
502.016	220.86
502.223	213.3
502.43	254.76
502.638	244.3
502.845	217.56
503.052	286.54
503.26	194.51
503.467	287.5
503.674	242.17
503.881	228.02
504.089	300.68
504.296	264.45
504.503	198.38
504.71	212.52
504.917	222.79
505.125	237.13
505.332	234.03
505.539	253.99
505.746	271.04
505.953	246.43
506.16	241.78
506.367	272
506.574	307.27
506.781	285.95
506.988	201.67
507.195	266.97
507.402	227.25
507.609	262.9
507.816	225.51
508.023	229.77
508.23	244.88
508.437	211.56
508.644	260.96
508.851	277.43
509.058	282.08
509.265	224.73
509.472	244.11
509.679	308.62
509.885	215.82
510.092	251.08
510.299	253.41
510.506	263.67
510.713	227.06
510.92	259.99
511.126	286.92
511.333	298.16
511.54	275.49
511.746	312.89
511.953	316.95
512.16	309.01
512.367	226.86
512.573	267.36
512.78	253.02
512.987	268.71
513.193	276.65
513.4	210.97
513.606	246.62
513.813	291.38
514.02	245.85
514.226	321.22
514.433	311.34
514.639	261.74
514.846	270.07
515.052	252.63
515.259	264.45
515.465	266.77
515.672	271.04
515.878	339.04
516.085	244.3
516.291	305.52
516.497	242.17
516.704	279.75
516.91	258.64
517.117	236.55
517.323	224.73
517.529	264.45
517.736	263.67
517.942	281.3
518.148	231.51
518.354	247.79
518.561	280.34
518.767	270.07
518.973	318.89
519.179	296.61
519.386	265.22
519.592	238.68
519.798	239.26
520.004	297.58
520.21	283.63
520.417	285.18
520.623	334.2
520.829	291.57
521.035	325.29
521.241	296.03
521.447	317.15
521.653	360.74
521.859	272.2
522.065	302.81
522.271	384.57
522.477	336.14
522.683	357.45
522.889	321.8
523.095	314.63
523.301	321.99
523.507	279.37
523.713	324.12
523.919	301.84
524.125	321.02
524.331	293.51
524.537	362.29
524.742	329.55
524.948	334.39
525.154	325.87
525.36	409.95
525.566	359.58
525.772	376.63
525.977	270.26
526.183	353.77
526.389	369.65
526.595	340.01
526.8	325.09
527.006	303.97
527.212	336.14
527.417	295.06
527.623	319.67
527.829	342.92
528.034	335.17
528.24	342.14
528.446	298.94
528.651	368.88
528.857	351.25
529.062	403.95
529.268	324.9
529.473	337.49
529.679	320.64
529.884	418.09
530.09	369.85
530.295	414.02
530.501	397.55
530.706	372.56
530.912	327.61
531.117	337.69
531.323	385.35
531.528	379.73
531.733	352.02
531.939	340.59
532.144	387.09
532.35	361.9
532.555	397.55
532.76	420.61
532.966	428.55
533.171	416.73
533.376	349.89
533.581	338.07
533.787	385.15
533.992	374.3
534.197	443.47
534.402	382.83
534.607	391.35
534.813	491.52
535.018	353.57
535.223	356.29
535.428	403.95
535.633	426.23
535.838	377.21
536.043	386.32
536.249	449.67
536.454	392.9
536.659	408.6
536.864	353.77
537.069	357.83
537.274	390.19
537.479	421.77
537.684	419.64
537.889	397.17
538.094	463.43
538.299	390.19
538.504	431.85
538.708	416.73
538.913	400.46
539.118	394.65
539.323	407.82
539.528	379.34
539.733	428.17
539.938	430.3
540.142	459.94
540.347	408.21
540.552	409.95
540.757	437.47
540.962	394.84
541.166	389.42
541.371	385.93
541.576	418.48
541.781	320.44
541.985	398.72
542.19	423.52
542.395	434.95
542.599	465.75
542.804	430.68
543.008	451.41
543.213	389.8
543.418	387.09
543.622	426.81
543.827	363.26
544.031	454.51
544.236	459.55
544.44	412.47
544.645	482.61
544.849	403.37
545.054	438.24
545.258	498.5
545.463	447.93
545.667	386.51
545.872	423.32
546.076	419.83
546.281	439.21
546.485	406.66
546.689	425.65
546.894	477.76
547.098	436.5
547.302	391.35
547.507	439.4
547.711	428.36
547.915	482.41
548.119	386.7
548.324	406.47
548.528	485.71
548.732	467.69
548.936	448.51
549.141	459.55
549.345	425.26
549.549	434.75
549.753	433.78
549.957	476.02
550.161	479.7
550.366	441.15
550.57	382.83
550.774	433.01
550.978	428.36
551.182	447.73
551.386	432.43
551.59	414.02
551.794	404.92
551.998	450.45
552.202	421.77
552.406	391.55
552.61	433.01
552.814	437.08
553.018	479.7
553.222	446.57
553.426	435.53
553.63	480.09
553.833	431.27
554.037	396.39
554.241	488.23
554.445	416.35
554.649	423.32
554.853	431.46
555.056	473.89
555.26	476.6
555.464	437.27
555.668	445.6
555.871	477.76
556.075	484.93
556.279	429.72
556.483	402.98
556.686	428.36
556.89	452.96
557.094	433.4
557.297	417.32
557.501	480.86
557.704	381.08
557.908	446.57
558.112	389.22
558.315	489
558.519	451.22
558.722	460.13
558.926	416.15
559.129	402.59
559.333	381.28
559.536	388.25
559.74	410.73
559.943	372.17
560.147	374.11
560.35	429.52
560.553	383.41
560.757	342.34
560.96	477.57
561.164	393.87
561.367	468.27
561.57	404.14
561.774	397.94
561.977	389.61
562.18	397.36
562.384	494.04
562.587	420.8
562.79	402.59
562.993	386.9
563.197	445.02
563.4	453.93
563.603	481.64
563.806	514.19
564.009	389.61
564.212	411.7
564.416	378.18
564.619	437.85
564.822	356.48
565.025	441.53
565.228	400.07
565.431	394.65
565.634	345.05
565.837	405.5
566.04	346.79
566.243	389.42
566.446	325.67
566.649	400.65
566.852	374.5
567.055	392.9
567.258	394.84
567.461	451.03
567.664	426.23
567.867	344.47
568.07	421.19
568.273	402.59
568.475	443.08
568.678	385.15
568.881	363.65
569.084	390.58
569.287	334.78
569.489	345.24
569.692	402.59
569.895	447.15
570.098	320.25
570.3	322.96
570.503	296.42
570.706	295.25
570.909	328.39
571.111	329.16
571.314	328.58
571.516	349.5
571.719	356.29
571.922	347.57
572.124	313.66
572.327	341.56
572.529	276.46
572.732	324.51
572.935	373.14
573.137	378.76
573.34	320.44
573.542	373.14
573.745	370.23
573.947	353.38
574.15	338.46
574.352	303.2
574.554	379.73
574.757	313.08
574.959	310.95
575.162	303
575.364	300.1
575.566	387.87
575.769	321.8
575.971	318.12
576.173	240.81
576.376	307.46
576.578	361.9
576.78	391.55
576.982	249.92
577.185	301.26
577.387	295.25
577.589	267.16
577.791	333.62
577.993	334.97
578.196	296.22
578.398	323.35
578.6	353.38
578.802	273.36
579.004	282.27
579.206	295.25
579.408	295.45
579.61	282.66
579.812	316.18
580.014	327.03
580.216	299.9
580.418	285.57
580.62	271.23
580.822	252.82
581.024	300.87
581.226	305.52
581.428	306.88
581.63	367.33
581.832	289.05
582.034	347.57
582.236	282.47
582.438	315.02
582.64	328.77
582.841	355.32
583.043	365.39
583.245	330.71
583.447	322.57
583.649	316.76
583.85	315.21
584.052	331.1
584.254	309.79
584.456	346.4
584.657	275.1
584.859	311.34
585.061	309.01
585.262	294.87
585.464	261.93
585.666	316.95
585.867	310.37
586.069	350.28
586.27	339.04
586.472	312.11
586.674	269.1
586.875	297.77
587.077	294.09
587.278	332.26
587.48	311.34
587.681	391.55
587.883	297.19
588.084	255.34
588.285	265.22
588.487	307.07
588.688	322.57
588.89	256.89
589.091	261.16
589.292	320.64
589.494	277.82
589.695	308.62
589.896	243.33
590.098	238.29
590.299	285.76
590.5	229.57
590.702	246.24
590.903	288.28
591.104	293.32
591.305	265.03
591.507	303.78
591.708	315.99
591.909	295.45
592.11	346.4
592.311	301.45
592.512	287.12
592.714	226.86
592.915	236.74
593.116	256.12
593.317	255.34
593.518	250.31
593.719	240.04
593.92	276.07
594.121	332.84
594.322	265.03
594.523	284.99
594.724	238.49
594.925	256.12
595.126	275.49
595.327	287.5
595.528	295.64
595.729	315.4
595.929	257.47
596.13	280.14
596.331	290.22
596.532	302.81
596.733	323.54
596.934	303
597.135	303.39
597.335	290.8
597.536	240.42
597.737	294.48
597.938	260.19
598.138	291.38
598.339	246.43
598.54	267.94
598.74	287.5
598.941	279.17
599.142	317.34
599.342	281.89
599.543	238.68
599.744	274.33
599.944	231.9
600.145	270.65
600.345	295.64
600.546	341.95
600.746	291.96
600.947	313.27
601.147	286.15
601.348	303.2
601.548	238.29
601.749	282.85
601.949	247.59
602.15	253.6
602.35	241.97
602.551	301.45
602.751	246.62
602.951	253.6
603.152	218.72
603.352	286.73
603.552	258.44
603.753	297.19
603.953	273.17
604.153	291.19
604.354	254.76
604.554	248.76
604.754	257.09
604.954	241.97
605.155	258.25
605.355	259.99
605.555	308.62
605.755	338.07
605.955	275.1
606.155	306.1
606.356	263.87
606.556	302.23
606.756	312.3
606.956	244.69
607.156	331.49
607.356	266
607.556	269.29
607.756	270.45
607.956	329.35
608.156	297.58
608.356	266.39
608.556	294.09
608.756	295.64
608.956	237.32
609.156	279.95
609.356	238.49
609.556	252.24
609.755	277.82
609.955	251.27
610.155	266.39
610.355	286.92
610.555	287.5
610.755	279.37
610.954	221.05
611.154	279.95
611.354	290.22
611.554	229.77
611.753	253.79
611.953	215.82
612.153	288.67
612.352	277.04
612.552	228.41
612.752	203.42
612.951	232.67
613.151	264.06
613.351	226.47
613.55	228.22
613.75	266.58
613.949	263.09
614.149	277.82
614.348	228.02
614.548	255.73
614.747	195.67
614.947	239.46
615.146	180.17
615.346	281.89
615.545	239.46
615.745	245.85
615.944	279.37
616.144	279.75
616.343	275.69
616.542	233.45
616.742	263.29
616.941	253.79
617.14	202.45
617.34	212.33
617.539	255.92
617.738	205.36
617.938	305.72
618.137	240.62
618.336	205.74
618.535	250.11
618.734	210.01
618.934	248.95
619.133	260.96
619.332	253.79
619.531	244.3
619.73	243.72
619.929	276.07
620.128	258.06
620.328	291.77
620.527	210.59
620.726	227.64
620.925	253.79
621.124	223.18
621.323	235.58
621.522	203.61
621.721	217.37
621.92	200.32
622.119	227.83
622.318	216.4
622.517	215.43
622.715	224.54
622.914	189.08
623.113	212.52
623.312	166.22
623.511	222.99
623.71	217.56
623.909	226.09
624.107	265.81
624.306	211.17
624.505	239.46
624.704	188.89
624.902	213.3
625.101	265.42
625.3	222.99
625.499	203.81
625.697	203.03
625.896	200.71
626.095	234.61
626.293	195.09
626.492	205.74
626.69	227.44
626.889	189.66
627.088	235.58
627.286	186.37
627.485	217.37
627.683	194.51
627.882	252.63
628.08	188.5
