Data from oakcork_FLMT105791__247__17-33-18-054.txt Node

Date: Mon Mar 20 17:33:18 GMT 2023
User: antho
Spectrometer: FLMT10579
Trigger mode: 0
Integration Time (sec): 1.000000E-1
Scans to average: 10
Electric dark correction enabled: true
Nonlinearity correction enabled: false
Boxcar width: 0
XAxis mode: Wavelengths
Number of Pixels in Spectrum: 3648
>>>>>Begin Spectral Data<<<<<
345.248	-145.38
345.464	-145.38
345.681	-145.38
345.898	-150.99
346.114	-154.87
346.331	-27.38
346.548	-6.85
346.764	-11.5
346.981	-8.01
347.197	-7.04
347.414	32.29
347.631	-33
347.847	58.25
348.064	-11.88
348.28	26.09
348.497	-39.2
348.713	28.22
348.93	17.37
349.146	8.07
349.363	10.98
349.579	21.83
349.796	-14.01
350.012	2.65
350.229	39.65
350.445	32.48
350.661	0.13
350.878	18.73
351.094	24.35
351.311	37.72
351.527	31.13
351.743	7.1
351.96	29
352.176	36.94
352.392	39.46
352.609	41.4
352.825	22.99
353.041	14.66
353.257	16.21
353.474	33.26
353.69	12.34
353.906	29.58
354.122	3.04
354.339	63.48
354.555	22.6
354.771	2.65
354.987	71.43
355.203	26.87
355.42	0.71
355.636	-10.33
355.852	10.59
356.068	20.67
356.284	-12.66
356.5	54.96
356.716	26.29
356.932	14.47
357.148	25.9
357.364	17.18
357.58	53.22
357.796	45.08
358.012	78.02
358.228	31.32
358.444	-37.85
358.66	72.4
358.876	23.77
359.092	4.39
359.308	28.8
359.524	33.07
359.74	-2.78
359.956	9.82
360.172	16.4
360.388	51.28
360.604	3.23
360.819	87.9
361.035	41.2
361.251	49.53
361.467	-33.39
361.683	45.85
361.898	31.13
362.114	50.31
362.33	11.37
362.546	50.31
362.762	35.78
362.977	54.57
363.193	13.3
363.409	54.96
363.624	-7.81
363.84	9.43
364.056	-18.28
364.271	35.78
364.487	16.99
364.703	-17.31
364.918	5.94
365.134	11.95
365.35	28.03
365.565	115.02
365.781	26.09
365.996	45.27
366.212	51.67
366.427	38.88
366.643	19.7
366.858	43.14
367.074	1.29
367.289	80.92
367.505	110.37
367.72	-4.33
367.936	27.45
368.151	74.33
368.367	33.45
368.582	41.59
368.798	8.27
369.013	82.47
369.228	35.58
369.444	43.33
369.659	79.95
369.874	48.57
370.09	89.25
370.305	-3.55
370.52	28.22
370.736	78.98
370.951	33.65
371.166	85.77
371.381	79.18
371.597	63.29
371.812	46.24
372.027	9.04
372.242	32.87
372.458	94.87
372.673	30.74
372.888	24.93
373.103	59.61
373.318	109.6
373.533	66.58
373.749	46.43
373.964	1.1
374.179	67.36
374.394	3.04
374.609	54.96
374.824	14.66
375.039	80.53
375.254	28.61
375.469	77.82
375.684	47.4
375.899	96.81
376.114	45.66
376.329	66.97
376.544	81.89
376.759	64.84
376.974	27.06
377.189	58.06
377.404	33.07
377.619	79.76
377.834	10.2
378.049	1.87
378.264	16.99
378.478	53.22
378.693	6.72
378.908	48.57
379.123	36.55
379.338	95.45
379.553	65.62
379.767	64.45
379.982	65.23
380.197	52.05
380.412	68.91
380.626	78.79
380.841	112.5
381.056	63.1
381.271	101.85
381.485	59.22
381.7	28.42
381.915	66.58
382.129	38.49
382.344	83.05
382.559	41.78
382.773	103.01
382.988	36.55
383.202	74.92
383.417	19.31
383.632	132.46
383.846	44.69
384.061	44.69
384.275	18.73
384.49	41.98
384.704	74.92
384.919	76.85
385.133	44.11
385.348	97.78
385.562	35
385.777	96.62
385.991	59.61
386.206	52.63
386.42	29.77
386.634	59.03
386.849	107.66
387.063	72.98
387.277	49.34
387.492	40.23
387.706	44.69
387.92	30.55
388.135	91.97
388.349	72.4
388.563	91.58
388.778	74.72
388.992	77.43
389.206	103.59
389.42	119.09
389.635	65.62
389.849	108.43
390.063	113.67
390.277	84.22
390.491	139.05
390.706	71.23
390.92	114.63
391.134	115.8
391.348	107.27
391.562	26.48
391.776	106.5
391.99	60.97
392.205	131.49
392.419	45.08
392.633	82.08
392.847	99.13
393.061	60
393.275	108.05
393.489	56.51
393.703	69.49
393.917	87.7
394.131	61.16
394.345	88.67
394.559	69.68
394.773	69.49
394.986	100.49
395.2	80.73
395.414	110.37
395.628	71.62
395.842	78.4
396.056	83.05
396.27	47.98
396.484	98.55
396.697	120.06
396.911	126.45
397.125	73.56
397.339	84.8
397.553	96.81
397.766	140.6
397.98	122.96
398.194	155.51
398.408	123.93
398.621	115.41
398.835	124.13
399.049	128.2
399.262	153.38
399.476	173.53
399.69	143.7
399.903	169.66
400.117	126.65
400.331	155.71
400.544	138.08
400.758	218.48
400.971	144.28
401.185	159.78
401.398	115.02
401.612	180.12
401.826	175.08
402.039	165.98
402.253	152.22
402.466	179.93
402.68	167.72
402.893	169.27
403.106	177.99
403.32	156.87
403.533	188.06
403.747	162.88
403.96	201.63
404.174	202.6
404.387	138.85
404.6	146.21
404.814	179.93
405.027	153.19
405.24	177.8
405.454	152.41
405.667	192.91
405.88	91.97
406.094	167.53
406.307	203.76
406.52	188.65
406.733	147.18
406.947	140.79
407.16	221.19
407.373	211.12
407.586	174.5
407.799	113.28
408.012	221
408.226	185.55
408.439	209.76
408.652	155.71
408.865	207.63
409.078	230.69
409.291	224.88
409.504	166.17
409.717	213.64
409.93	194.07
410.143	201.24
410.357	130.13
410.57	137.88
410.783	172.56
410.996	202.4
411.209	187.1
411.421	259.94
411.634	185.55
411.847	203.56
412.06	176.83
412.273	196.2
412.486	205.69
412.699	294.04
412.912	217.71
413.125	244.25
413.338	217.71
413.55	229.14
413.763	218.29
413.976	232.82
414.189	179.93
414.402	208.99
414.615	249.87
414.827	196.78
415.04	227.78
415.253	216.74
415.466	255.1
415.678	266.14
415.891	224.1
416.104	241.34
416.316	233.59
416.529	220.81
416.742	248.71
416.954	294.04
417.167	216.93
417.38	209.18
417.592	266.53
417.805	207.63
418.017	181.48
418.23	244.44
418.442	222.94
418.655	222.94
418.868	247.35
419.08	249.68
419.293	285.33
419.505	274.67
419.718	266.53
419.93	267.31
420.142	233.21
420.355	284.16
420.567	281.84
420.78	231.66
420.992	241.15
421.205	314.19
421.417	239.21
421.629	260.91
421.842	229.53
422.054	225.26
422.266	252.78
422.479	266.34
422.691	240.96
422.903	289.2
423.115	237.08
423.328	242.7
423.54	270.79
423.752	255.1
423.964	209.38
424.177	271.18
424.389	237.86
424.601	340.54
424.813	274.86
425.025	302.18
425.238	276.61
425.45	283.78
425.662	260.53
425.874	538.55
426.086	236.69
426.298	292.3
426.51	276.22
426.722	270.99
426.934	245.41
427.146	300.82
427.358	255.29
427.57	291.14
427.782	267.69
427.994	281.64
428.206	249.48
428.418	261.49
428.63	303.15
428.842	334.54
429.054	285.13
429.266	306.44
429.478	237.86
429.69	269.44
429.902	230.69
430.114	270.21
430.325	237.08
430.537	243.48
430.749	206.08
430.961	192.71
431.173	228.75
431.384	264.21
431.596	182.64
431.808	263.04
432.02	289.01
432.231	326.4
432.443	351.01
432.655	304.31
432.867	263.43
433.078	330.66
433.29	383.55
433.502	378.9
433.713	373.67
433.925	325.04
434.136	374.26
434.348	292.88
434.56	262.27
434.771	390.92
434.983	273.12
435.194	321.36
435.406	328.92
435.617	373.09
435.829	401.96
436.04	372.9
436.252	357.79
436.463	387.82
436.675	409.32
436.886	389.56
437.098	382.59
437.309	446.33
437.521	379.29
437.732	382.78
437.943	385.1
438.155	380.65
438.366	329.89
438.578	404.67
438.789	367.86
439	356.04
439.211	348.87
439.423	354.69
439.634	410.1
439.845	388.98
440.057	415.14
440.268	429.09
440.479	370.19
440.69	415.33
440.902	388.59
441.113	402.54
441.324	395.76
441.535	423.27
441.746	464.54
441.957	385.88
442.168	414.17
442.38	436.25
442.591	459.31
442.802	409.9
443.013	417.27
443.224	425.79
443.435	417.46
443.646	414.94
443.857	438
444.068	420.56
444.279	440.52
444.49	518.4
444.701	429.86
444.912	554.63
445.123	519.57
445.334	427.73
445.545	448.27
445.756	455.63
445.967	423.85
446.178	441.29
446.388	457.37
446.599	478.88
446.81	468.03
447.021	460.47
447.232	524.99
447.443	502.32
447.653	451.95
447.864	527.32
448.075	480.82
448.286	515.11
448.496	482.75
448.707	489.53
448.918	459.31
449.129	568.78
449.339	474.03
449.55	510.27
449.761	495.73
449.971	520.73
450.182	502.9
450.393	529.83
450.603	474.81
450.814	559.28
451.024	520.73
451.235	560.45
451.446	574.01
451.656	604.23
451.867	511.62
452.077	551.34
452.288	577.5
452.498	563.93
452.709	519.57
452.919	533.71
453.13	487.21
453.34	559.48
453.55	420.95
453.761	544.17
453.971	536.42
454.182	533.52
454.392	520.73
454.602	597.45
454.813	571.68
455.023	572.07
455.233	520.34
455.444	531.97
455.654	471.9
455.864	560.83
456.075	562.77
456.285	537.78
456.495	525.96
456.705	560.25
456.916	596.48
457.126	575.17
457.336	572.46
457.546	525.18
457.756	544.17
457.967	631.75
458.177	521.31
458.387	574.78
458.597	519.18
458.807	557.54
459.017	553.28
459.227	535.84
459.437	562.96
459.647	588.15
459.857	586.8
460.068	553.28
460.278	621.09
460.488	566.06
460.698	611.79
460.908	582.15
461.117	520.15
461.327	565.68
461.537	608.3
461.747	592.22
461.957	607.53
462.167	713.51
462.377	628.26
462.587	598.81
462.797	649.96
463.007	631.36
463.216	630
463.426	691.23
463.636	669.91
463.846	577.5
464.056	613.92
464.265	668.56
464.475	598.61
464.685	654.61
464.895	624.38
465.104	616.05
465.314	635.23
465.524	623.8
465.733	601.71
465.943	714.67
466.153	702.46
466.362	703.04
466.572	665.46
466.782	650.93
466.991	671.27
467.201	696.26
467.41	612.37
467.62	673.59
467.829	651.7
468.039	688.13
468.249	665.26
468.458	685.41
468.668	693.16
468.877	720.29
469.086	743.92
469.296	723.97
469.505	707.69
469.715	751.09
469.924	699.94
470.134	755.94
470.343	765.82
470.552	688.32
470.762	716.99
470.971	653.25
471.18	728.62
471.39	715.06
471.599	693.36
471.808	748.96
472.018	729.59
472.227	788.29
472.436	801.47
472.645	764.46
472.855	755.16
473.064	837.12
473.273	789.07
473.482	811.93
473.691	797.21
473.901	813.67
474.11	784.61
474.319	883.04
474.528	806.51
474.737	881.1
474.946	849.9
475.155	820.84
475.364	869.86
475.573	861.34
475.783	868.89
475.992	866.57
476.201	880.71
476.41	856.3
476.619	824.52
476.828	851.45
477.037	845.45
477.245	868.5
477.454	895.82
477.663	877.03
477.872	890.01
478.081	990.37
478.29	898.73
478.499	989.21
478.708	922.17
478.917	937.67
479.125	940
479.334	955.69
479.543	970.61
479.752	964.6
479.961	978.55
480.169	1023.7
480.378	989.02
480.587	1080.66
480.796	1035.9
481.004	997.73
481.213	1039.2
481.422	1027.57
481.63	1028.54
481.839	1085.69
482.048	1117.86
482.256	1057.02
482.465	1100.81
482.674	1094.03
482.882	1095.19
483.091	1148.66
483.299	1071.16
483.508	1141.49
483.716	1136.26
483.925	1110.88
484.134	1073.1
484.342	1087.63
484.551	1165.71
484.759	1153.7
484.967	1149.05
485.176	1182.57
485.384	1169.01
485.593	1167.46
485.801	1123.09
486.01	1099.26
486.218	1049.27
486.426	963.05
486.635	995.21
486.843	994.63
487.051	1013.81
487.26	1068.26
487.468	1087.24
487.676	1132.58
487.885	1117.28
488.093	1144.98
488.301	1231.97
488.509	1206.59
488.717	1229.46
488.926	1191.09
489.134	1206.98
489.342	1222.67
489.55	1185.67
489.758	1241.08
489.967	1260.07
490.175	1345.7
490.383	1266.65
490.591	1371.47
490.799	1269.95
491.007	1311.41
491.215	1325.17
491.423	1295.14
491.631	1308.31
491.839	1288.35
492.047	1340.47
492.255	1249.22
492.463	1193.81
492.671	1256.77
492.879	1298.82
493.087	1293.39
493.295	1292.81
493.503	1355
493.711	1394.33
493.919	1401.5
494.127	1389.68
494.334	1397.43
494.542	1333.69
494.75	1405.18
494.958	1372.25
495.166	1453.43
495.374	1422.43
495.581	1389.88
495.789	1386.78
495.997	1476.1
496.205	1359.85
496.412	1379.22
496.62	1403.63
496.828	1441.03
497.035	1402.86
497.243	1467.18
497.451	1478.03
497.658	1467.57
497.866	1429.98
498.074	1491.98
498.281	1435.21
498.489	1512.33
498.696	1422.82
498.904	1413.71
499.112	1417.2
499.319	1464.86
499.527	1417.2
499.734	1486.17
499.942	1442.19
500.149	1436.76
500.357	1467.18
500.564	1409.64
500.771	1449.16
500.979	1444.9
501.186	1409.06
501.394	1422.82
501.601	1419.13
501.808	1473
502.016	1401.5
502.223	1440.45
502.43	1417.2
502.638	1409.45
502.845	1400.34
503.052	1486.75
503.26	1453.43
503.467	1541
503.674	1491.01
503.881	1509.23
504.089	1527.24
504.296	1490.43
504.503	1411.97
504.71	1443.74
504.917	1425.33
505.125	1469.51
505.332	1502.45
505.539	1501.86
505.746	1585.56
505.953	1562.12
506.16	1570.84
506.367	1601.64
506.574	1621.79
506.781	1610.94
506.988	1552.43
507.195	1580.91
507.402	1592.15
507.609	1599.13
507.816	1533.64
508.023	1535.77
508.23	1524.53
508.437	1504
508.644	1556.11
508.851	1600.29
509.058	1619.08
509.265	1530.93
509.472	1636.91
509.679	1705.69
509.885	1601.84
510.092	1603
510.299	1626.25
510.506	1593.12
510.713	1623.34
510.92	1611.52
511.126	1655.89
511.333	1666.16
511.54	1644.66
511.746	1720.41
511.953	1734.36
512.16	1710.34
512.367	1656.67
512.573	1611.52
512.78	1636.71
512.987	1644.07
513.193	1635.16
513.4	1587.11
513.606	1648.14
513.813	1673.33
514.02	1633.61
514.226	1687.86
514.433	1672.56
514.639	1603.39
514.846	1631.09
515.052	1636.71
515.259	1640.59
515.465	1669.84
515.672	1655.51
515.878	1773.89
516.085	1658.02
516.291	1749.09
516.497	1688.44
516.704	1630.51
516.91	1586.73
517.117	1536.93
517.323	1482.68
517.529	1515.81
517.736	1519.11
517.942	1527.24
518.148	1566.19
518.354	1573.55
518.561	1591.96
518.767	1603.77
518.973	1615.59
519.179	1673.33
519.386	1620.82
519.592	1605.71
519.798	1612.49
520.004	1765.94
520.21	1722.35
520.417	1744.63
520.623	1777.37
520.829	1787.06
521.035	1789.77
521.241	1760.52
521.447	1826.78
521.653	1915.13
521.859	1794.03
522.065	1831.04
522.271	1900.4
522.477	1866.3
522.683	1875.99
522.889	1873.47
523.095	1835.69
523.301	1847.7
523.507	1817.28
523.713	1836.47
523.919	1806.63
524.125	1916.1
524.331	1898.46
524.537	2001.34
524.742	1945.74
524.948	1971.31
525.154	1960.66
525.36	2050.75
525.566	1976.54
525.772	1998.24
525.977	1945.93
526.183	1950.97
526.389	1980.81
526.595	1893.81
526.8	1908.93
527.006	1846.73
527.212	1795
527.417	1770.01
527.623	1782.99
527.829	1869.4
528.034	1896.53
528.24	1904.28
528.446	1932.18
528.651	2050.75
528.857	2001.54
529.062	2047.84
529.268	2040.87
529.473	2054.62
529.679	2043.77
529.884	2136.39
530.09	2094.73
530.295	2113.14
530.501	2080.78
530.706	2092.99
530.912	2075.16
531.117	2112.94
531.323	2122.63
531.528	2145.3
531.733	2109.65
531.939	2109.84
532.144	2183.85
532.35	2113.91
532.555	2148.2
532.76	2132.12
532.966	2116.62
533.171	2070.12
533.376	2014.71
533.581	2016.84
533.787	2077.29
533.992	2105
534.197	2168.74
534.402	2117.98
534.607	2137.74
534.813	2237.52
535.018	2143.17
535.223	2113.72
535.428	2178.62
535.633	2213.11
535.838	2244.69
536.043	2285.96
536.249	2290.42
536.454	2218.53
536.659	2256.7
536.864	2239.85
537.069	2190.64
537.274	2227.64
537.479	2223.18
537.684	2232.29
537.889	2162.35
538.094	2316.76
538.299	2237.33
538.504	2303.01
538.708	2260.77
538.913	2334.4
539.118	2269.1
539.323	2285.77
539.528	2246.43
539.733	2242.17
539.938	2237.13
540.142	2233.07
540.347	2223.18
540.552	2194.51
540.757	2190.44
540.962	2233.84
541.166	2152.47
541.371	2112.94
541.576	2190.64
541.781	2099.96
541.985	2236.36
542.19	2234.62
542.395	2362.1
542.599	2315.21
542.804	2261.93
543.008	2315.8
543.213	2274.92
543.418	2244.3
543.622	2286.54
543.827	2222.22
544.031	2346.41
544.236	2340.79
544.44	2345.44
544.645	2386.51
544.849	2301.85
545.054	2364.62
545.258	2430.11
545.463	2369.46
545.667	2307.46
545.872	2380.51
546.076	2357.45
546.281	2359.39
546.485	2323.74
546.689	2388.84
546.894	2391.94
547.098	2353.19
547.302	2296.62
547.507	2320.64
547.711	2409.18
547.915	2416.74
548.119	2305.14
548.324	2361.91
548.528	2403.56
548.732	2391.36
548.936	2377.8
549.141	2388.06
549.345	2389.61
549.549	2376.44
549.753	2386.51
549.957	2477.57
550.161	2419.45
550.366	2405.69
550.57	2385.16
550.774	2387.87
550.978	2391.16
551.182	2411.12
551.386	2373.15
551.59	2384.38
551.794	2387.48
551.998	2409.18
552.202	2409.76
552.406	2358.42
552.61	2390.97
552.814	2411.12
553.018	2452.58
553.222	2369.08
553.426	2382.06
553.63	2448.32
553.833	2416.74
554.037	2321.41
554.241	2416.16
554.445	2421.19
554.649	2402.21
554.853	2398.91
555.056	2470.6
555.26	2460.91
555.464	2443.09
555.668	2396.01
555.871	2432.04
556.075	2453.16
556.279	2433.98
556.483	2370.05
556.686	2384.19
556.89	2354.55
557.094	2412.28
557.297	2305.91
557.501	2394.07
557.704	2308.63
557.908	2409.18
558.112	2330.13
558.315	2425.07
558.519	2357.84
558.722	2340.98
558.926	2330.71
559.129	2240.04
559.333	2243.14
559.536	2258.25
559.74	2255.15
559.943	2242.17
560.147	2264.45
560.35	2234.23
560.553	2264.26
560.757	2208.07
560.96	2291.38
561.164	2292.93
561.367	2315.8
561.57	2284.8
561.774	2310.76
561.977	2273.95
562.18	2270.65
562.384	2359.78
562.587	2238.3
562.79	2253.99
562.993	2284.6
563.197	2314.25
563.4	2346.21
563.603	2357.26
563.806	2384.19
564.009	2271.62
564.212	2298.36
564.416	2238.88
564.619	2252.25
564.822	2179.79
565.025	2293.71
565.228	2238.49
565.431	2246.63
565.634	2146.46
565.837	2152.27
566.04	2161.19
566.243	2171.26
566.446	2055.79
566.649	2159.83
566.852	2135.8
567.055	2148.79
567.258	2192.96
567.461	2208.46
567.664	2236.75
567.867	2110.42
568.07	2155.57
568.273	2160.99
568.475	2230.35
568.678	2137.16
568.881	2105
569.084	2096.86
569.287	2055.4
569.489	2081.94
569.692	2124.18
569.895	2115.27
570.098	2051.14
570.3	2052.49
570.503	1985.84
570.706	2001.15
570.909	1973.25
571.111	1921.91
571.314	1908.73
571.516	1949.61
571.719	1989.72
571.922	1932.76
572.124	2001.93
572.327	2009.68
572.529	1986.62
572.732	1953.29
572.935	2011.03
573.137	2062.96
573.34	1987.01
573.542	2046.68
573.745	2020.53
573.947	2056.37
574.15	1969.57
574.352	1954.46
574.554	2056.37
574.757	1944.19
574.959	1955.81
575.162	1969.76
575.364	1954.46
575.566	2044.16
575.769	1870.37
575.971	1952.33
576.173	1851.97
576.376	1914.74
576.578	1954.65
576.78	1980.42
576.982	1854.68
577.185	1874.63
577.387	1881.61
577.589	1873.66
577.791	1946.51
577.993	1921.71
578.196	1873.86
578.398	1893.43
578.6	1917.84
578.802	1832.4
579.004	1827.17
579.206	1836.27
579.408	1899.82
579.61	1869.21
579.812	1944.38
580.014	1829.1
580.216	1859.91
580.418	1890.13
580.62	1879.48
580.822	1804.88
581.024	1887.23
581.226	1950.58
581.428	1888.39
581.63	1980.03
581.832	1886.06
582.034	1974.8
582.236	1895.17
582.438	1944.38
582.64	1963.37
582.841	2010.06
583.043	2019.36
583.245	1955.43
583.447	1976.35
583.649	1948.26
583.85	1961.63
584.052	1957.94
584.254	1914.74
584.456	1981.58
584.657	1897.69
584.859	1940.7
585.061	1908.15
585.262	1900.4
585.464	1851.38
585.666	1956.39
585.867	1914.93
586.069	1930.82
586.27	1930.05
586.472	1932.56
586.674	1891.1
586.875	1892.07
587.077	1882.38
587.278	1896.33
587.48	1858.36
587.681	1997.08
587.883	1879.48
588.084	1842.47
588.285	1835.69
588.487	1858.36
588.688	1843.63
588.89	1752.96
589.091	1688.25
589.292	1714.4
589.494	1648.72
589.695	1634.97
589.896	1578.98
590.098	1584.01
590.299	1615.4
590.5	1623.34
590.702	1682.24
590.903	1671.97
591.104	1744.82
591.305	1738.04
591.507	1782.02
591.708	1735.52
591.909	1749.28
592.11	1809.34
592.311	1786.28
592.512	1755.09
592.714	1697.16
592.915	1697.16
593.116	1750.83
593.317	1763.04
593.518	1727.19
593.719	1735.14
593.92	1785.32
594.121	1826.97
594.322	1737.85
594.523	1744.24
594.724	1694.84
594.925	1725.84
595.126	1694.45
595.327	1774.08
595.528	1703.75
595.729	1714.79
595.929	1739.59
596.13	1711.69
596.331	1752.77
596.532	1774.66
596.733	1833.37
596.934	1785.32
597.135	1788.22
597.335	1765.17
597.536	1749.28
597.737	1757.03
597.938	1682.82
598.138	1773.11
598.339	1744.05
598.54	1790.55
598.74	1730.29
598.941	1776.02
599.142	1836.08
599.342	1738.43
599.543	1751.8
599.744	1727.39
599.944	1743.08
600.145	1741.72
600.345	1780.67
600.546	1820.77
600.746	1823.29
600.947	1838.98
601.147	1740.37
601.348	1849.25
601.548	1740.37
601.749	1779.5
601.949	1738.04
602.15	1751.41
602.35	1733.59
602.551	1782.02
602.751	1730.1
602.951	1771.37
603.152	1708.79
603.352	1766.52
603.552	1742.11
603.753	1798.1
603.953	1797.91
604.153	1766.91
604.354	1786.09
604.554	1800.43
604.754	1766.52
604.954	1712.66
605.155	1777.37
605.355	1757.61
605.555	1770.79
605.755	1826
605.955	1783.96
606.155	1765.17
606.356	1756.25
606.556	1768.07
606.756	1798.68
606.956	1729.32
607.156	1815.54
607.356	1701.42
607.556	1760.52
607.756	1777.95
607.956	1799.46
608.156	1759.94
608.356	1738.43
608.556	1774.47
608.756	1729.9
608.956	1734.75
609.156	1755.09
609.356	1723.12
609.556	1706.85
609.755	1721.77
609.955	1712.08
610.155	1737.46
610.355	1749.28
610.555	1706.85
610.755	1700.84
610.954	1658.22
611.154	1708.01
611.354	1737.46
611.554	1675.85
611.753	1677.21
611.953	1651.82
612.153	1712.08
612.352	1718.28
612.552	1651.05
612.752	1637.29
612.951	1653.37
613.151	1665.39
613.351	1640.97
613.55	1662.87
613.75	1622.37
613.949	1630.32
614.149	1678.76
614.348	1654.92
614.548	1586.92
614.747	1585.76
614.947	1620.05
615.146	1559.21
615.346	1660.93
615.545	1648.14
