Data from oakcork_FLMT105791__166__17-31-39-058.txt Node

Date: Mon Mar 20 17:31:39 GMT 2023
User: antho
Spectrometer: FLMT10579
Trigger mode: 0
Integration Time (sec): 1.000000E-1
Scans to average: 10
Electric dark correction enabled: true
Nonlinearity correction enabled: false
Boxcar width: 0
XAxis mode: Wavelengths
Number of Pixels in Spectrum: 3648
>>>>>Begin Spectral Data<<<<<
345.248	-149.77
345.464	-149.77
345.681	-149.77
345.898	-192.97
346.114	-126.13
346.331	-22.47
346.548	-0
346.764	-8.33
346.981	27.32
347.197	-11.04
347.414	-0.77
347.631	-16.08
347.847	52.12
348.064	3.49
348.28	22.67
348.497	-50.96
348.713	4.07
348.93	24.99
349.146	45.53
349.363	-0.39
349.579	17.24
349.796	-11.04
350.012	-7.94
350.229	8.91
350.445	3.29
350.661	6.2
350.878	-1.94
351.094	17.44
351.311	28.87
351.527	20.73
351.743	-30.22
351.96	36.81
352.176	34.1
352.392	24.22
352.609	45.14
352.825	0.58
353.041	-2.52
353.257	2.52
353.474	16.66
353.69	32.74
353.906	17.63
354.122	2.71
354.339	28.09
354.555	1.74
354.771	-7.75
354.987	51.92
355.203	48.63
355.42	5.81
355.636	4.84
355.852	-7.75
356.068	9.3
356.284	-32.94
356.5	49.41
356.716	30.61
356.932	2.32
357.148	54.64
357.364	24.41
357.58	60.84
357.796	69.17
358.012	54.83
358.228	37.2
358.444	-43.59
358.66	50.57
358.876	24.99
359.092	-18.02
359.308	24.22
359.524	20.73
359.74	-18.6
359.956	-5.23
360.172	-30.42
360.388	61.61
360.604	15.5
360.819	76.53
361.035	41.46
361.251	32.94
361.467	0.58
361.683	30.81
361.898	18.99
362.114	45.14
362.33	18.02
362.546	62.39
362.762	1.55
362.977	20.73
363.193	-30.42
363.409	48.63
363.624	-23.64
363.84	18.41
364.056	14.53
364.271	25.77
364.487	36.04
364.703	20.73
364.918	-23.44
365.134	-16.08
365.35	-1.94
365.565	90.87
365.781	37.01
365.996	41.27
366.212	50.57
366.427	32.55
366.643	-1.36
366.858	9.88
367.074	-22.67
367.289	66.84
367.505	108.11
367.72	-21.51
367.936	-1.55
368.151	62.39
368.367	39.14
368.582	10.27
368.798	5.62
369.013	44.56
369.228	27.9
369.444	30.42
369.659	95.52
369.874	29.84
370.09	70.91
370.305	-32.36
370.52	27.71
370.736	61.61
370.951	21.89
371.166	91.06
371.381	73.04
371.597	46.31
371.812	-4.65
372.027	-23.06
372.242	14.72
372.458	95.52
372.673	16.66
372.888	12.59
373.103	32.55
373.318	102.69
373.533	51.92
373.749	40.11
373.964	-15.5
374.179	61.03
374.394	24.41
374.609	64.52
374.824	-2.71
375.039	66.07
375.254	0.77
375.469	73.04
375.684	24.22
375.899	41.85
376.114	18.99
376.329	32.74
376.544	42.04
376.759	58.71
376.974	11.62
377.189	7.75
377.404	22.86
377.619	56.96
377.834	-43.01
378.049	-30.03
378.264	24.41
378.478	12.4
378.693	-12.21
378.908	34.1
379.123	12.01
379.338	55.8
379.553	43.79
379.767	44.56
379.982	34.87
380.197	56.19
380.412	17.63
380.626	40.88
380.841	84.09
381.056	43.98
381.271	99.97
381.485	-2.71
381.7	-13.95
381.915	40.3
382.129	19.76
382.344	37.39
382.559	34.29
382.773	58.51
382.988	-18.02
383.202	32.36
383.417	-2.13
383.632	113.73
383.846	19.18
384.061	54.64
384.275	-2.13
384.49	43.21
384.704	44.76
384.919	41.66
385.133	20.15
385.348	31
385.562	-13.37
385.777	55.61
385.991	36.42
386.206	32.36
386.42	20.92
386.634	90.87
386.849	59.48
387.063	27.9
387.277	11.24
387.492	-12.59
387.706	9.11
387.92	9.11
388.135	65.87
388.349	20.73
388.563	23.44
388.778	52.31
388.992	62.58
389.206	49.41
389.42	111.21
389.635	9.49
389.849	54.25
390.063	49.99
390.277	48.63
390.491	72.46
390.706	40.88
390.92	50.18
391.134	43.01
391.348	64.71
391.562	10.66
391.776	43.59
391.99	3.1
392.205	62.58
392.419	12.01
392.633	24.02
392.847	70.91
393.061	16.86
393.275	101.72
393.489	33.52
393.703	33.91
393.917	54.06
394.131	13.76
394.345	39.33
394.559	102.3
394.773	11.04
394.986	53.67
395.2	19.96
395.414	49.99
395.628	2.13
395.842	40.11
396.056	7.36
396.27	-16.47
396.484	71.69
396.697	34.29
396.911	82.73
397.125	33.71
397.339	58.71
397.553	81.76
397.766	109.66
397.98	47.66
398.194	48.05
398.408	24.61
398.621	68.78
398.835	60.26
399.049	43.98
399.262	95.32
399.476	62.19
399.69	66.07
399.903	98.42
400.117	11.24
400.331	48.63
400.544	49.79
400.758	146.28
400.971	49.02
401.185	93
401.398	17.82
401.612	93.58
401.826	72.66
402.039	86.61
402.253	43.4
402.466	83.89
402.68	55.8
402.893	56.77
403.106	47.27
403.32	6.97
403.533	51.92
403.747	37.78
403.96	73.62
404.174	71.49
404.387	16.47
404.6	33.91
404.814	84.09
405.027	53.28
405.24	61.22
405.454	40.69
405.667	83.12
405.88	-1.55
406.094	34.87
406.307	95.52
406.52	43.79
406.733	20.92
406.947	-4.26
407.16	139.69
407.373	74.79
407.586	38.75
407.799	18.99
408.012	91.25
408.226	62.39
408.439	94.16
408.652	19.57
408.865	36.04
409.078	105.98
409.291	44.56
409.504	7.36
409.717	61.81
409.93	52.7
410.143	57.16
410.357	14.53
410.57	16.86
410.783	37.78
410.996	45.92
411.209	28.87
411.421	77.69
411.634	55.02
411.847	27.9
412.06	15.31
412.273	37.78
412.486	34.87
412.699	126.32
412.912	54.06
413.125	78.47
413.338	48.24
413.55	86.22
413.763	63.16
413.976	59.67
414.189	17.63
414.402	45.53
414.615	102.49
414.827	12.01
415.04	67.23
415.253	75.56
415.466	90.87
415.678	97.84
415.891	67.23
416.104	66.46
416.316	52.7
416.529	20.15
416.742	65.29
416.954	94.16
417.167	38.17
417.38	35.26
417.592	100.17
417.805	18.99
418.017	6.2
418.23	59.48
418.442	43.4
418.655	39.52
418.868	63.74
419.08	79.44
419.293	84.86
419.505	40.3
419.718	81.18
419.93	70.52
420.142	52.7
420.355	86.61
420.567	103.07
420.78	93.19
420.992	43.79
421.205	87.57
421.417	7.17
421.629	19.96
421.842	20.54
422.054	7.75
422.266	86.8
422.479	75.56
422.691	26.16
422.903	96.29
423.115	40.49
423.328	53.67
423.54	53.28
423.752	69.17
423.964	9.11
424.177	71.69
424.389	55.02
424.601	152.48
424.813	60.64
425.025	104.04
425.238	76.14
425.45	54.25
425.662	46.11
425.874	309.41
426.086	59.87
426.298	48.44
426.51	73.04
426.722	53.86
426.934	46.89
427.146	92.03
427.358	4.26
427.57	83.31
427.782	49.6
427.994	75.76
428.206	60.26
428.418	20.34
428.63	100.55
428.842	50.37
429.054	68.97
429.266	79.24
429.478	5.04
429.69	56.96
429.902	21.51
430.114	71.3
430.325	63.16
430.537	45.14
430.749	54.25
430.961	9.88
431.173	51.73
431.384	118.96
431.596	2.52
431.808	37.78
432.02	50.18
432.231	57.54
432.443	70.52
432.655	46.5
432.867	21.31
433.078	51.92
433.29	119.93
433.502	87.57
433.713	108.11
433.925	79.24
434.136	95.9
434.348	25.77
434.56	35.07
434.771	147.44
434.983	28.87
435.194	28.87
435.406	47.47
435.617	92.61
435.829	110.24
436.04	70.33
436.252	73.43
436.463	102.49
436.675	92.61
436.886	51.73
437.098	82.15
437.309	111.6
437.521	62
437.732	72.27
437.943	81.37
438.155	55.99
438.366	33.52
438.578	113.73
438.789	73.24
439	68.97
439.211	55.22
439.423	70.33
439.634	78.47
439.845	78.08
440.057	56.77
440.268	100.75
440.479	31.97
440.69	55.61
440.902	35.65
441.113	58.71
441.324	43.79
441.535	46.31
441.746	131.36
441.957	69.17
442.168	53.09
442.38	89.51
442.591	77.69
442.802	28.29
443.013	46.31
443.224	63.16
443.435	29.45
443.646	65.1
443.857	60.26
444.068	49.6
444.279	41.46
444.49	88.54
444.701	57.93
444.912	138.34
445.123	70.72
445.334	98.62
445.545	45.92
445.756	56.38
445.967	59.29
446.178	66.65
446.388	98.42
446.599	87.96
446.81	69.75
447.021	40.49
447.232	103.65
447.443	120.32
447.653	51.92
447.864	86.02
448.075	58.32
448.286	85.25
448.496	75.95
448.707	130
448.918	53.28
449.129	138.14
449.339	32.16
449.55	73.43
449.761	59.09
449.971	131.17
450.182	77.5
450.393	88.15
450.603	51.15
450.814	101.52
451.024	78.66
451.235	116.44
451.446	135.04
451.656	90.67
451.867	62.77
452.077	78.27
452.288	126.71
452.498	138.72
452.709	93.19
452.919	116.83
453.13	74.21
453.34	125.35
453.55	60.06
453.761	110.44
453.971	85.64
454.182	107.92
454.392	100.55
454.602	149.19
454.813	102.3
455.023	132.72
455.233	49.21
455.444	104.04
455.654	37.2
455.864	59.29
456.075	68.97
456.285	87.38
456.495	65.87
456.705	78.66
456.916	121.48
457.126	130.39
457.336	76.72
457.546	22.09
457.756	87.96
457.967	107.53
458.177	46.5
458.387	86.41
458.597	47.27
458.807	99.59
459.017	90.67
459.227	70.72
459.437	98.42
459.647	88.93
459.857	119.54
460.068	73.62
460.278	107.72
460.488	100.94
460.698	141.05
460.908	96.49
461.117	43.98
461.327	24.99
461.537	105.59
461.747	83.7
461.957	102.49
462.167	166.62
462.377	125.94
462.587	88.35
462.797	111.79
463.007	98.62
463.216	101.14
463.426	112.57
463.636	126.52
463.846	61.61
464.056	109.47
464.265	149.96
464.475	74.21
464.685	61.81
464.895	112.37
465.104	86.99
465.314	117.99
465.524	72.66
465.733	71.88
465.943	156.16
466.153	141.44
466.362	125.94
466.572	99
466.782	74.01
466.991	95.9
467.201	139.5
467.41	58.9
467.62	115.86
467.829	89.7
468.039	104.43
468.249	87.38
468.458	90.87
468.668	124.97
468.877	104.24
469.086	138.34
469.296	106.37
469.505	74.59
469.715	152.87
469.924	100.17
470.134	127.49
470.343	143.18
470.552	101.52
470.762	115.86
470.971	65.1
471.18	103.46
471.39	74.21
471.599	80.21
471.808	122.84
472.018	74.21
472.227	140.27
472.436	121.67
472.645	82.54
472.855	59.67
473.064	120.7
473.273	87.77
473.482	132.91
473.691	124.77
473.901	124.19
474.11	123.22
474.319	175.53
474.528	97.84
474.737	138.72
474.946	129.23
475.155	101.52
475.364	145.12
475.573	124
475.783	109.47
475.992	120.9
476.201	142.4
476.41	98.23
476.619	79.63
476.828	114.89
477.037	95.52
477.245	84.47
477.454	144.34
477.663	102.3
477.872	83.31
478.081	152.09
478.29	75.95
478.499	183.48
478.708	105.98
478.917	179.22
479.125	120.32
479.334	106.75
479.543	125.55
479.752	115.09
479.961	118.96
480.169	137.56
480.378	106.95
480.587	219.32
480.796	139.89
481.004	94.35
481.213	140.66
481.422	157.9
481.63	111.4
481.839	106.56
482.048	159.84
482.256	123.22
482.465	128.84
482.674	143.18
482.882	140.85
483.091	209.25
483.299	152.48
483.508	164.69
483.716	111.02
483.925	129.23
484.134	115.09
484.342	106.17
484.551	142.21
484.759	155.58
484.967	128.84
485.176	148.22
485.384	161.39
485.593	177.08
485.801	145.89
486.01	162.36
486.218	171.08
486.426	114.89
486.635	138.14
486.843	148.02
487.051	180.18
487.26	127.29
487.468	163.91
487.676	179.8
487.885	112.18
488.093	139.11
488.301	154.61
488.509	138.92
488.717	171.08
488.926	151.12
489.134	116.64
489.342	158.87
489.55	110.05
489.758	160.04
489.967	105.59
490.175	206.53
490.383	109.47
490.591	201.5
490.799	84.09
491.007	178.05
491.215	156.16
491.423	140.27
491.631	167.4
491.839	148.6
492.047	171.47
492.255	124.19
492.463	110.24
492.671	164.88
492.879	205.18
493.087	154.8
493.295	164.3
493.503	188.52
493.711	174.76
493.919	180.57
494.127	202.47
494.334	213.32
494.542	127.87
494.75	164.1
494.958	139.5
495.166	173.99
495.374	179.6
495.581	176.12
495.789	184.64
495.997	211.77
496.205	192.58
496.412	146.86
496.62	141.82
496.828	204.6
497.035	147.44
497.243	183.09
497.451	162.55
497.658	193.17
497.866	143.37
498.074	215.64
498.281	151.12
498.489	231.53
498.696	195.49
498.904	171.66
499.112	169.14
499.319	224.55
499.527	168.17
499.734	211.77
499.942	147.83
500.149	163.52
500.357	178.25
500.564	144.34
500.771	208.08
500.979	164.3
501.186	180.96
501.394	185.42
501.601	185.61
501.808	200.33
502.016	197.23
502.223	171.08
502.43	200.72
502.638	190.84
502.845	157.71
503.052	251.48
503.26	192.78
503.467	252.45
503.674	200.53
503.881	195.49
504.089	279.19
504.296	245.09
504.503	166.82
504.71	204.4
504.917	169.72
505.125	197.43
505.332	179.6
505.539	241.22
505.746	256.52
505.953	206.15
506.16	199.37
506.367	222.23
506.574	246.45
506.781	222.81
506.988	150.54
507.195	198.01
507.402	199.17
507.609	226.49
507.816	169.53
508.023	203.05
508.23	197.23
508.437	181.15
508.644	242.38
508.851	247.8
509.058	235.79
509.265	210.22
509.472	225.91
509.679	307.48
509.885	209.83
510.092	237.53
510.299	223.2
510.506	235.21
510.713	229.98
510.92	215.45
511.126	245.87
511.333	247.22
511.54	235.02
511.746	268.73
511.953	261.75
512.16	269.89
512.367	227.46
512.573	233.85
512.78	230.17
512.987	188.52
513.193	244.12
513.4	172.44
513.606	214.87
513.813	259.82
514.02	248
514.226	314.06
514.433	278.41
514.639	223.39
514.846	251.1
515.052	206.53
515.259	229.78
515.465	232.3
515.672	257.3
515.878	290.23
516.085	226.3
516.291	260.59
516.497	248.38
516.704	214.48
516.91	208.86
517.117	252.45
517.323	195.3
517.529	243.35
517.736	227.85
517.942	221.84
518.148	237.34
518.354	240.63
518.561	278.8
518.767	261.37
518.973	283.06
519.179	284.81
519.386	234.82
519.592	199.95
519.798	217
520.004	310.77
520.21	237.73
520.417	272.6
520.623	273.57
520.829	286.75
521.035	319.49
521.241	291.4
521.447	310
521.653	315.03
521.859	244.12
522.065	296.24
522.271	370.83
522.477	316.97
522.683	338.67
522.889	314.45
523.095	312.9
523.301	271.83
523.507	299.53
523.713	325.11
523.919	287.91
524.125	347.97
524.331	278.03
524.537	357.46
524.742	337.9
524.948	335.57
525.154	328.01
525.36	428.18
525.566	332.66
525.772	382.26
525.977	302.05
526.183	378.19
526.389	350.49
526.595	325.11
526.8	334.6
527.006	293.53
527.212	317.36
527.417	318.13
527.623	293.72
527.829	312.32
528.034	331.7
528.24	344.87
528.446	295.66
528.651	374.9
528.857	355.33
529.062	404.93
529.268	359.01
529.473	354.17
529.679	352.81
529.884	402.8
530.09	390.21
530.295	440.39
530.501	398.34
530.706	368.89
530.912	333.05
531.117	392.92
531.323	377.03
531.528	383.04
531.733	380.33
531.939	363.47
532.144	409.58
532.35	387.3
532.555	404.74
532.76	425.28
532.966	426.05
533.171	415.78
533.376	374.13
533.581	373.35
533.787	399.7
533.992	420.24
534.197	460.73
534.402	382.65
534.607	377.61
534.813	480.69
535.018	387.88
535.223	372.96
535.428	411.33
535.633	435.35
535.838	429.93
536.043	417.53
536.249	496.77
536.454	392.73
536.659	421.21
536.864	390.4
537.069	383.62
537.274	447.56
537.479	388.08
537.684	470.81
537.889	394.28
538.094	483.01
538.299	428.96
538.504	429.93
538.708	415.39
538.913	466.74
539.118	424.11
539.323	451.04
539.528	409.97
539.733	421.4
539.938	433.8
540.142	449.88
540.347	425.66
540.552	449.69
540.757	444.84
540.962	402.03
541.166	420.43
541.371	397.96
541.576	427.41
541.781	359.01
541.985	439.61
542.19	449.69
542.395	480.11
542.599	508.97
542.804	482.62
543.008	474.1
543.213	418.88
543.418	418.49
543.622	459.76
543.827	417.14
544.031	482.04
544.236	511.69
544.44	434.38
544.645	531.45
544.849	458.21
545.054	467.9
545.258	508.2
545.463	500.06
545.667	427.02
545.872	469.06
546.076	449.49
546.281	474.29
546.485	428.96
546.689	473.13
546.894	509.17
547.098	457.82
547.302	421.79
547.507	458.02
547.711	490.18
547.915	502.58
548.119	445.04
548.324	499.87
548.528	541.52
548.732	484.56
548.936	513.04
549.141	525.44
549.345	460.54
549.549	483.21
549.753	450.07
549.957	531.06
550.161	540.17
550.366	458.6
550.57	453.37
550.774	479.14
550.978	468.48
551.182	507.81
551.386	494.64
551.59	459.96
551.794	468.87
551.998	482.62
552.202	479.72
552.406	449.11
552.61	490.18
552.814	486.5
553.018	521.96
553.222	486.5
553.426	481.85
553.63	561.09
553.833	460.15
554.037	442.71
554.241	527.38
554.445	495.02
554.649	454.72
554.853	467.9
555.056	519.63
555.26	509.17
555.464	479.33
555.668	479.33
555.871	512.85
556.075	537.26
556.279	461.89
556.483	445.42
556.686	502
556.89	486.89
557.094	497.54
557.297	455.31
557.501	534.16
557.704	417.72
557.908	519.05
558.112	456.66
558.315	520.21
558.519	448.91
558.722	474.1
558.926	481.85
559.129	444.26
559.333	401.44
559.536	401.83
559.74	448.72
559.943	440.97
560.147	417.91
560.35	462.67
560.553	419.66
560.757	407.45
560.96	508.59
561.164	424.89
561.367	518.47
561.57	419.66
561.774	473.91
561.977	456.66
562.18	422.56
562.384	537.07
562.587	463.25
562.79	440.19
562.993	454.34
563.197	538.42
563.4	487.66
563.603	502.77
563.806	537.84
564.009	413.07
564.212	466.16
564.416	393.11
564.619	495.22
564.822	418.69
565.025	500.06
565.228	422.56
565.431	459.57
565.634	363.08
565.837	421.21
566.04	385.94
566.243	432.44
566.446	347.97
566.649	435.54
566.852	405.51
567.055	428.76
567.258	462.67
567.461	502.19
567.664	476.42
567.867	384.01
568.07	475.65
568.273	418.49
568.475	483.59
568.678	423.53
568.881	437.87
569.084	479.14
569.287	325.88
569.489	369.09
569.692	424.31
569.895	413.07
570.098	366.57
570.3	373.54
570.503	328.79
570.706	382.26
570.909	372.96
571.111	346.23
571.314	332.08
571.516	389.82
571.719	356.3
571.922	373.54
572.124	379.16
572.327	381.49
572.529	349.91
572.732	328.21
572.935	372.58
573.137	432.44
573.34	376.84
573.542	373.16
573.745	382.26
573.947	368.89
574.15	349.52
574.352	341.19
574.554	430.12
574.757	344.29
574.959	361.53
575.162	322.01
575.364	325.88
575.566	425.28
575.769	312.71
575.971	341.77
576.173	265.63
576.376	347.39
576.578	394.47
576.78	405.51
576.982	302.83
577.185	331.7
577.387	303.99
577.589	319.49
577.791	370.44
577.993	370.44
578.196	315.42
578.398	383.23
578.6	369.48
578.802	311.74
579.004	308.25
579.206	299.53
579.408	335.57
579.61	327.63
579.812	341.38
580.014	317.75
580.216	323.36
580.418	333.05
580.62	295.46
580.822	260.4
581.024	330.34
581.226	365.6
581.428	316.39
581.63	403.58
581.832	300.5
582.034	394.28
582.236	329.95
582.438	360.37
582.64	359.98
582.841	398.54
583.043	404.54
583.245	333.63
583.447	346.81
583.649	317.75
583.85	332.86
584.052	389.24
584.254	298.56
584.456	386.14
584.657	291.2
584.859	322.78
585.061	335.57
585.262	270.86
585.464	262.53
585.666	380.71
585.867	297.21
586.069	374.9
586.27	347.78
586.472	365.6
586.674	324.53
586.875	301.47
587.077	297.21
587.278	338.09
587.48	313.29
587.681	421.01
587.883	347.2
588.084	301.66
588.285	296.24
588.487	330.92
588.688	309.22
588.89	301.86
589.091	283.84
589.292	306.51
589.494	316.97
589.695	312.71
589.896	265.43
590.098	259.62
590.299	314.84
590.5	268.73
590.702	283.84
590.903	292.17
591.104	316
591.305	294.5
591.507	344.1
591.708	313.29
591.909	278.61
592.11	366.57
592.311	313.48
592.512	316
592.714	249.35
592.915	266.01
593.116	288.68
593.317	281.32
593.518	315.81
593.719	274.54
593.92	291.98
594.121	331.7
594.322	303.99
594.523	305.15
594.724	266.98
594.925	294.11
595.126	327.05
595.327	319.68
595.528	307.09
595.729	315.81
595.929	294.3
596.13	295.08
596.331	303.99
596.532	302.05
596.733	341.38
596.934	319.68
597.135	318.91
597.335	292.17
597.536	254.97
597.737	303.02
597.938	268.15
598.138	309.22
598.339	303.41
598.54	298.95
598.74	295.85
598.941	299.34
599.142	313.68
599.342	292.17
599.543	272.41
599.744	290.81
599.944	273.18
600.145	270.66
600.345	299.53
600.546	338.48
600.746	363.47
600.947	336.54
601.147	315.81
601.348	334.02
601.548	285.2
601.749	319.88
601.949	237.73
602.15	271.44
602.35	307.86
602.551	360.18
602.751	245.87
602.951	285.58
603.152	216.61
603.352	314.65
603.552	300.5
603.753	302.63
603.953	304.96
604.153	279.96
604.354	288.1
604.554	262.33
604.754	281.71
604.954	259.62
605.155	299.15
605.355	278.61
605.555	306.9
605.755	326.46
605.955	292.95
606.155	321.62
606.356	273.18
606.556	304.57
606.756	343.13
606.956	241.22
607.156	354.75
607.356	267.37
607.556	317.75
607.756	296.82
607.956	346.03
608.156	317.55
608.356	279.96
608.556	318.33
608.756	296.43
608.956	265.24
609.156	305.73
609.356	266.98
609.556	254
609.755	297.79
609.955	276.86
610.155	279
610.355	292.75
610.555	261.75
610.755	297.98
610.954	207.89
611.154	270.47
611.354	327.43
611.554	268.53
611.753	271.25
611.953	232.88
612.153	297.21
612.352	281.13
612.552	241.8
612.752	223.97
612.951	293.33
613.151	265.43
613.351	233.08
613.55	270.08
613.75	285
613.949	286.16
614.149	272.41
614.348	291.01
614.548	220.87
614.747	200.53
614.947	224.17
615.146	241.99
615.346	304.76
615.545	237.92
615.745	238.5
615.944	288.3
616.144	288.1
616.343	276.09
616.542	249.35
616.742	246.83
616.941	283.84
617.14	224.94
617.34	263.88
617.539	261.37
617.738	212.73
617.938	298.56
618.137	249.16
618.336	217.97
618.535	241.22
618.734	260.01
618.934	263.11
619.133	288.3
619.332	270.47
619.531	235.6
619.73	262.53
619.929	269.31
620.128	285
620.328	288.68
620.527	245.28
620.726	238.89
620.925	248.38
621.124	218.93
621.323	250.9
621.522	241.6
621.721	223.39
621.92	205.95
622.119	263.88
622.318	242.18
622.517	244.51
622.715	237.53
622.914	197.43
623.113	221.45
623.312	213.12
623.511	264.66
623.71	242.38
623.909	226.1
624.107	290.62
624.306	202.85
624.505	217.38
624.704	199.95
624.902	244.7
625.101	281.9
625.3	245.87
625.499	212.93
625.697	214.09
625.896	223.58
626.095	264.27
626.293	202.85
626.492	218.93
626.69	258.85
626.889	213.51
627.088	261.75
627.286	201.5
627.485	212.35
627.683	190.84
627.882	234.05
628.08	178.05
628.279	203.43
628.477	267.18
628.676	204.4
