Data from oakcork_FLMT105791__265__17-34-11-053.txt Node

Date: Mon Mar 20 17:34:11 GMT 2023
User: antho
Spectrometer: FLMT10579
Trigger mode: 0
Integration Time (sec): 1.000000E-1
Scans to average: 10
Electric dark correction enabled: true
Nonlinearity correction enabled: false
Boxcar width: 0
XAxis mode: Wavelengths
Number of Pixels in Spectrum: 3648
>>>>>Begin Spectral Data<<<<<
345.248	-156.14
345.464	-156.14
345.681	-156.14
345.898	-158.86
346.114	-148.78
346.331	-32.34
346.548	38.77
346.764	3.5
346.981	-14.51
347.197	-26.14
347.414	-3.28
347.631	-6.38
347.847	50
348.064	1.76
348.28	30.24
348.497	-31.18
348.713	-10.45
348.93	26.37
349.146	36.05
349.363	17.45
349.579	15.9
349.796	19.78
350.012	-3.08
350.229	37.22
350.445	-17.61
350.661	-14.9
350.878	-18.97
351.094	6.8
351.311	3.12
351.527	20.17
351.743	26.75
351.96	45.93
352.176	34.7
352.392	24.43
352.609	19.2
352.825	-17.42
353.041	-8.7
353.257	-14.13
353.474	20.36
353.69	23.27
353.906	16.87
354.122	-27.5
354.339	34.12
354.555	1.57
354.771	-21.68
354.987	63.18
355.203	30.82
355.42	7.96
355.636	-16.26
355.852	-14.32
356.068	-11.03
356.284	-18.58
356.5	58.72
356.716	-21.88
356.932	4.86
357.148	44.97
357.364	8.93
357.58	47.87
357.796	68.41
358.012	57.75
358.228	51.75
358.444	-30.4
358.66	53.1
358.876	20.75
359.092	-13.55
359.308	33.92
359.524	11.64
359.74	-20.91
359.956	-7.15
360.172	2.92
360.388	61.63
360.604	-7.15
360.819	65.89
361.035	8.15
361.251	25.78
361.467	-17.42
361.683	48.65
361.898	11.83
362.114	63.76
362.33	16.68
362.546	25.01
362.762	17.07
362.977	25.98
363.193	-12
363.409	32.18
363.624	-4.63
363.84	-23.81
364.056	-7.93
364.271	39.73
364.487	25.2
364.703	-4.25
364.918	-25.36
365.134	12.03
365.35	10.87
365.565	89.72
365.781	10.87
365.996	29.47
366.212	59.3
366.427	37.41
366.643	-1.92
366.858	12.61
367.074	9.9
367.289	67.83
367.505	102.51
367.72	-37.57
367.936	3.7
368.151	48.45
368.367	22.49
368.582	19.97
368.798	3.7
369.013	44.38
369.228	29.66
369.444	32.37
369.659	77.13
369.874	42.64
370.09	74.03
370.305	-19.75
370.52	-2.31
370.736	71.32
370.951	39.73
371.166	65.31
371.381	91.85
371.597	58.72
371.812	-18.2
372.027	12.8
372.242	15.52
372.458	59.88
372.673	21.13
372.888	6.41
373.103	45.74
373.318	91.46
373.533	42.06
373.749	21.13
373.964	-16.26
374.179	50
374.394	-18
374.609	79.26
374.824	-19.55
375.039	55.04
375.254	14.74
375.469	82.55
375.684	17.65
375.899	68.8
376.114	6.99
376.329	25.2
376.544	52.91
376.759	34.12
376.974	-2.12
377.189	25.4
377.404	22.3
377.619	77.32
377.834	-38.93
378.049	-14.13
378.264	-23.62
378.478	40.51
378.693	20.94
378.908	47.1
379.123	15.13
379.338	55.23
379.553	31.6
379.767	68.8
379.982	45.55
380.197	30.05
380.412	43.22
380.626	27.72
380.841	89.53
381.056	23.07
381.271	77.13
381.485	2.34
381.7	-3.67
381.915	2.34
382.129	-4.44
382.344	12.8
382.559	16.29
382.773	61.63
382.988	-27.69
383.202	21.72
383.417	0.6
383.632	117.23
383.846	4.47
384.061	44.77
384.275	23.65
384.49	16.1
384.704	51.55
384.919	19
385.133	32.18
385.348	38.77
385.562	-30.4
385.777	54.27
385.991	25.78
386.206	34.12
386.42	10.48
386.634	46.9
386.849	49.42
387.063	28.88
387.277	-6.57
387.492	7.96
387.706	-17.61
387.92	17.45
388.135	58.33
388.349	42.64
388.563	27.33
388.778	2.34
388.992	59.5
389.206	54.65
389.42	111.03
389.635	14.74
389.849	59.11
390.063	64.34
390.277	28.88
390.491	76.35
390.706	38.57
390.92	42.06
391.134	36.44
391.348	49.42
391.562	-19.55
391.776	11.06
391.99	0.79
392.205	54.27
392.419	5.44
392.633	11.64
392.847	83.33
393.061	7.57
393.275	90.5
393.489	7.96
393.703	26.17
393.917	88.95
394.131	-12.19
394.345	55.62
394.559	50.97
394.773	14.55
394.986	41.67
395.2	45.16
395.414	61.43
395.628	8.93
395.842	41.09
396.056	44.58
396.27	-7.73
396.484	30.43
396.697	52.52
396.911	69.57
397.125	62.6
397.339	67.83
397.553	45.35
397.766	110.65
397.98	78.1
398.194	71.51
398.408	37.99
398.621	46.13
398.835	38.38
399.049	42.64
399.262	99.21
399.476	70.93
399.69	79.07
399.903	94.18
400.117	43.8
400.331	93.6
400.544	43.61
400.758	135.45
400.971	51.17
401.185	63.37
401.398	42.06
401.612	90.88
401.826	91.08
402.039	74.22
402.253	38.57
402.466	93.01
402.68	46.71
402.893	59.11
403.106	49.42
403.32	56.4
403.533	71.51
403.747	59.69
403.96	79.84
404.174	84.49
404.387	27.92
404.6	83.33
404.814	95.34
405.027	52.52
405.24	59.5
405.454	56.78
405.667	119.17
405.88	16.68
406.094	68.6
406.307	122.66
406.52	72.28
406.733	63.57
406.947	30.24
407.16	148.43
407.373	111.61
407.586	36.83
407.799	41.28
408.012	110.84
408.226	88.75
408.439	105.22
408.652	47.48
408.865	73.45
409.078	121.69
409.291	75.97
409.504	56.59
409.717	97.86
409.93	85.07
410.143	93.98
410.357	52.33
410.57	37.02
410.783	54.07
410.996	113.16
411.209	69.57
411.421	114.33
411.634	100.96
411.847	45.16
412.06	93.79
412.273	88.36
412.486	52.13
412.699	135.64
412.912	81.78
413.125	98.83
413.338	86.23
413.55	130.02
413.763	76.93
413.976	88.95
414.189	42.06
414.402	62.6
414.615	122.27
414.827	36.63
415.04	109.87
415.253	74.03
415.466	104.64
415.678	128.28
415.891	82.94
416.104	71.9
416.316	80.81
416.529	53.1
416.742	95.34
416.954	140.87
417.167	68.6
417.38	49.62
417.592	107.35
417.805	57.17
418.017	57.56
418.23	120.33
418.442	61.82
418.655	74.03
418.868	75.97
419.08	107.35
419.293	122.85
419.505	104.64
419.718	96.5
419.93	154.82
420.142	84.3
420.355	149.01
420.567	115.49
420.78	127.31
420.992	100.57
421.205	132.93
421.417	37.8
421.629	96.11
421.842	45.35
422.054	60.47
422.266	136.22
422.479	150.17
422.691	67.63
422.903	123.05
423.115	78.29
423.328	98.63
423.54	91.66
423.752	77.71
423.964	55.43
424.177	102.31
424.389	88.36
424.601	200.54
424.813	74.22
425.025	129.25
425.238	114.13
425.45	102.7
425.662	75.97
425.874	380.15
426.086	93.01
426.298	110.65
426.51	106.96
426.722	109.1
426.934	88.95
427.146	116.07
427.358	85.07
427.57	133.31
427.782	83.52
427.994	93.01
428.206	75.58
428.418	71.51
428.63	116.07
428.842	161.8
429.054	102.51
429.266	142.03
429.478	118.78
429.69	95.53
429.902	39.54
430.114	111.03
430.325	94.76
430.537	90.11
430.749	68.22
430.961	46.32
431.173	49.62
431.384	90.5
431.596	40.7
431.808	81.2
432.02	126.73
432.231	143.97
432.443	141.45
432.655	110.26
432.867	93.01
433.078	124.79
433.29	154.43
433.502	150.56
433.713	163.15
433.925	106.96
434.136	155.79
434.348	110.45
434.56	70.35
434.771	203.84
434.983	85.26
435.194	125.76
435.406	106.38
435.617	153.46
435.829	202.09
436.04	147.46
436.252	138.93
436.463	190.86
436.675	174.97
436.886	133.9
437.098	131.18
437.309	191.63
437.521	124.98
437.732	135.25
437.943	125.56
438.155	133.9
438.366	87.98
438.578	175.74
438.789	160.63
439	160.44
439.211	138.93
439.423	151.14
439.634	143.78
439.845	153.46
440.057	183.49
440.268	154.63
440.479	109.68
440.69	157.73
440.902	131.57
441.113	131.38
441.324	146.49
441.535	169.74
441.746	172.84
441.957	143
442.168	136.8
442.38	181.94
442.591	167.61
442.802	132.93
443.013	147.26
443.224	190.08
443.435	144.16
443.646	153.85
443.857	155.4
444.068	161.41
444.279	132.93
444.49	236.58
444.701	161.02
444.912	266.61
445.123	220.11
445.334	203.64
445.545	157.92
445.756	167.03
445.967	147.65
446.178	190.86
446.388	208.49
446.599	199.96
446.81	220.11
447.021	192.02
447.232	214.11
447.443	238.71
447.653	155.21
447.864	221.66
448.075	169.35
448.286	225.15
448.496	197.83
448.707	248.59
448.918	180.59
449.129	252.08
449.339	162.76
449.55	203.06
449.761	165.28
449.971	258.47
450.182	195.51
450.393	230.19
450.603	190.86
450.814	236.39
451.024	212.75
451.235	234.06
451.446	255.96
451.656	252.86
451.867	193.96
452.077	232.9
452.288	248.01
452.498	272.62
452.709	183.69
452.919	264.48
453.13	195.89
453.34	243.17
453.55	152.3
453.761	244.91
453.971	239.68
454.182	232.13
454.392	260.02
454.602	253.05
454.813	229.61
455.023	247.82
455.233	185.43
455.444	238.91
455.654	180.59
455.864	238.52
456.075	216.04
456.285	219.92
456.495	248.59
456.705	243.56
456.916	271.07
457.126	272.81
457.336	224.76
457.546	181.94
457.756	203.06
457.967	274.94
458.177	231.93
458.387	265.26
458.597	210.81
458.807	233.68
459.017	206.16
459.227	250.92
459.437	222.63
459.647	276.11
459.857	256.73
460.068	223.99
460.278	272.23
460.488	237.55
460.698	303.04
460.908	248.98
461.117	203.45
461.327	217.01
461.537	242.98
461.747	245.49
461.957	229.61
462.167	330.94
462.377	278.24
462.587	273.78
462.797	289.47
463.007	238.91
463.216	264.48
463.426	297.42
463.636	299.74
463.846	227.67
464.056	252.08
464.265	310.98
464.475	240.65
464.685	264.48
464.895	266.22
465.104	276.11
465.314	285.6
465.524	282.89
465.733	222.44
465.943	341.4
466.153	307.49
466.362	316.02
466.572	278.82
466.782	279.79
466.991	284.63
467.201	306.52
467.41	245.69
467.62	290.06
467.829	267.77
468.039	313.69
468.249	283.27
468.458	286.37
468.668	309.62
468.877	329
469.086	357.87
469.296	340.62
469.505	283.47
469.715	355.15
469.924	328.03
470.134	348.37
470.343	364.07
470.552	298.77
470.762	273.39
470.971	280.37
471.18	300.13
471.39	329.97
471.599	263.9
471.808	348.57
472.018	276.3
472.227	387.9
472.436	347.6
472.645	316.02
472.855	297.42
473.064	369.3
473.273	333.07
473.482	355.74
473.691	374.14
473.901	416.19
474.11	327.26
474.319	442.92
474.528	363.29
474.737	420.64
474.946	362.71
475.155	413.28
475.364	410.95
475.573	400.3
475.783	403.98
475.992	407.27
476.201	436.53
476.41	387.12
476.619	359.8
476.828	389.84
477.037	369.88
477.245	386.93
477.454	422.58
477.663	406.11
477.872	377.05
478.081	485.74
478.29	357.87
478.499	499.69
478.708	432.65
478.917	487.29
479.125	443.12
479.334	439.05
479.543	424.32
479.752	461.52
479.961	445.25
480.169	471.98
480.378	415.41
480.587	562.46
480.796	472.57
481.004	490.78
481.213	495.43
481.422	491.17
481.63	461.33
481.839	500.27
482.048	521.78
482.256	490
482.465	506.28
482.674	513.06
482.882	507.83
483.091	567.5
483.299	517.71
483.508	515.38
483.716	503.37
483.925	540.76
484.134	493.1
484.342	507.05
484.551	534.76
484.759	535.15
484.967	543.67
485.176	585.71
485.384	567.11
485.593	553.16
485.801	519.65
486.01	515
486.218	484.38
486.426	456.29
486.635	468.5
486.843	494.07
487.051	490
487.26	476.05
487.468	508.41
487.676	575.06
487.885	509.18
488.093	573.7
488.301	577.58
488.509	572.15
488.717	602.38
488.926	577.58
489.134	565.95
489.342	612.45
489.55	533.79
489.758	569.83
489.967	576.8
490.175	666.7
490.383	602.38
490.591	685.69
490.799	553.16
491.007	668.25
491.215	630.08
491.423	631.24
491.631	630.47
491.839	646.94
492.047	644.42
492.255	608.58
492.463	576.8
492.671	616.33
492.879	657.79
493.087	613.61
493.295	640.16
493.503	673.09
493.711	688.98
493.919	702.54
494.127	658.76
494.334	674.64
494.542	613.03
494.75	676.58
494.958	653.33
495.166	716.11
495.374	691.69
495.581	700.22
495.789	674.06
495.997	724.05
496.205	683.75
496.412	682.98
496.62	704.87
496.828	709.32
497.035	679.29
497.243	709.32
497.451	724.63
497.658	697.12
497.866	702.35
498.074	769
498.281	663.21
498.489	775.39
498.696	720.76
498.904	701.77
499.112	710.68
499.319	773.07
499.527	704.87
499.734	788.18
499.942	694.41
500.149	701.38
500.357	740.32
500.564	694.6
500.771	751.56
500.979	665.73
501.186	629.5
501.394	746.72
501.601	700.8
501.808	732.57
502.016	690.73
502.223	713.01
502.43	704.48
502.638	729.47
502.845	689.95
503.052	769.39
503.26	701.57
503.467	796.9
503.674	723.08
503.881	752.92
504.089	798.25
504.296	752.14
504.503	681.62
504.71	744.01
504.917	693.44
505.125	723.66
505.332	724.05
505.539	772.49
505.746	818.02
505.953	776.75
506.16	768.61
506.367	831.97
506.574	827.12
506.781	835.26
506.988	757.37
507.195	793.22
507.402	779.85
507.609	827.12
507.816	763.77
508.023	764.54
508.23	758.54
508.437	737.22
508.644	777.14
508.851	829.64
509.058	802.13
509.265	783.53
509.472	815.5
509.679	891.06
509.885	817.05
510.092	828.09
510.299	811.62
510.506	818.4
510.713	806.39
510.92	810.65
511.126	855.6
511.333	840.1
511.54	812.4
511.746	887.96
511.953	892.42
512.16	928.07
512.367	826.93
512.573	862.39
512.78	854.83
512.987	856.57
513.193	872.85
513.4	818.21
513.606	835.26
513.813	879.05
514.02	856.19
514.226	912.76
514.433	891.45
514.639	849.21
514.846	847.08
515.052	858.51
515.259	879.24
515.465	881.76
515.672	870.33
515.878	945.89
516.085	889.51
516.291	904.62
516.497	831.97
516.704	874.01
516.91	793.02
517.117	808.52
517.323	731.22
517.529	813.56
517.736	782.75
517.942	806.2
518.148	796.32
518.354	835.45
518.561	825.38
518.767	819.57
518.973	888.15
519.179	873.43
519.386	855.8
519.592	840.88
519.798	865.1
520.004	956.16
520.21	880.98
520.417	904.04
520.623	961.78
520.829	980.18
521.035	967.98
521.241	933.1
521.447	955.58
521.653	1050.32
521.859	968.56
522.065	986.96
522.271	1070.47
522.477	992.97
522.683	1049.93
522.889	981.54
523.095	987.93
523.301	979.99
523.507	958.68
523.713	993.55
523.919	954.61
524.125	1039.66
524.331	994.13
524.537	1075.31
524.742	1089.07
524.948	1077.44
525.154	1031.72
525.36	1114.06
525.566	1066.79
525.772	1115.61
525.977	1011.57
526.183	1076.28
526.389	1051.48
526.595	1002.85
526.8	1009.44
527.006	951.32
527.212	951.12
527.417	915.47
527.623	945.5
527.829	1014.67
528.034	1023
528.24	1015.83
528.446	999.56
528.651	1101.66
528.857	1106.51
529.062	1146.03
529.268	1069.69
529.473	1106.31
529.679	1103.79
529.884	1154.94
530.09	1153.78
530.295	1130.14
530.501	1127.82
530.706	1116.19
530.912	1113.48
531.117	1151.84
531.323	1126.66
531.528	1178.97
531.733	1145.26
531.939	1124.33
532.144	1159.79
532.35	1160.17
532.555	1166.96
532.76	1192.53
532.966	1140.8
533.171	1140.41
533.376	1098.18
533.581	1051.68
533.787	1129.37
533.992	1144.09
534.197	1197.37
534.402	1127.63
534.607	1148.36
534.813	1248.91
535.018	1165.99
535.223	1168.31
535.428	1174.12
535.633	1200.86
535.838	1193.11
536.043	1195.82
536.249	1263.25
536.454	1227.99
536.659	1199.12
536.864	1173.54
537.069	1198.92
537.274	1233.99
537.479	1215.97
537.684	1221.2
537.889	1141.77
538.094	1281.85
538.299	1225.85
538.504	1240.19
538.708	1244.26
538.913	1269.25
539.118	1215.97
539.323	1236.9
539.528	1202.02
539.733	1183.23
539.938	1217.91
540.142	1243.1
540.347	1202.41
540.552	1169.09
540.757	1197.37
540.962	1190.01
541.166	1158.82
541.371	1175.87
541.576	1197.37
541.781	1105.93
541.985	1180.13
542.19	1224.3
542.395	1244.65
542.599	1332.61
542.804	1305.48
543.008	1314.4
543.213	1223.34
543.418	1178
543.622	1273.13
543.827	1247.36
544.031	1269.64
544.236	1291.73
544.44	1264.41
544.645	1344.62
544.849	1237.48
545.054	1310.91
545.258	1329.12
545.463	1364.77
545.667	1245.23
545.872	1318.08
546.076	1285.72
546.281	1254.92
546.485	1265.57
546.689	1289.02
546.894	1281.46
547.098	1301.8
547.302	1223.14
547.507	1276.42
547.711	1262.86
547.915	1354.7
548.119	1238.25
548.324	1232.25
548.528	1327.38
548.732	1271
548.936	1283.79
549.141	1333.58
549.345	1265.96
549.549	1321.37
549.753	1283.79
549.957	1345.2
550.161	1340.94
550.366	1317.3
550.57	1265.57
550.774	1282.24
550.978	1284.37
551.182	1322.34
551.386	1280.1
551.59	1270.03
551.794	1307.42
551.998	1295.41
552.202	1279.33
552.406	1273.52
552.61	1317.3
552.814	1322.15
553.018	1328.15
553.222	1309.55
553.426	1271.77
553.63	1393.06
553.833	1258.6
554.037	1265.96
554.241	1344.43
554.445	1301.42
554.649	1299.09
554.853	1297.93
555.056	1333.97
555.26	1335.52
555.464	1331.06
555.668	1313.43
555.871	1364.58
556.075	1346.17
556.279	1292.89
556.483	1251.43
556.686	1294.64
556.89	1311.88
557.094	1327.77
557.297	1247.17
557.501	1340.75
557.704	1229.54
557.908	1320.21
558.112	1275.07
558.315	1320.02
558.519	1274.49
558.722	1258.79
558.926	1223.14
559.129	1192.92
559.333	1219.07
559.536	1213.65
559.74	1179.16
559.943	1194.08
560.147	1198.92
560.35	1203.96
560.553	1212.1
560.757	1197.76
560.96	1266.35
561.164	1213.26
561.367	1302.39
561.57	1177.61
561.774	1277.78
561.977	1233.6
562.18	1206.09
562.384	1314.2
562.587	1220.82
562.79	1194.08
562.993	1237.67
563.197	1221.79
563.4	1296.96
563.603	1243.68
563.806	1314.98
564.009	1224.69
564.212	1216.17
564.416	1172.38
564.619	1243.87
564.822	1144.29
565.025	1257.63
565.228	1165.6
565.431	1198.54
565.634	1114.45
565.837	1167.54
566.04	1146.22
566.243	1179.74
566.446	1070.47
566.649	1189.43
566.852	1105.54
567.055	1133.82
567.258	1222.17
567.461	1209.19
567.664	1182.84
567.867	1112.71
568.07	1154.56
568.273	1145.64
568.475	1166.96
568.678	1144.67
568.881	1122.98
569.084	1127.82
569.287	1047.22
569.489	1112.9
569.692	1118.33
569.895	1114.06
570.098	1079.77
570.3	1075.31
570.503	1007.89
570.706	1046.83
570.909	1051.87
571.111	1013.51
571.314	1011.18
571.516	1053.81
571.719	1079.38
571.922	1067.37
572.124	1066.21
572.327	1070.47
572.529	996.65
572.732	1032.3
572.935	1055.94
573.137	1110.38
573.34	1039.08
573.542	1083.06
573.745	1078.22
573.947	1070.28
574.15	1015.45
574.352	1003.82
574.554	1086.74
574.757	1006.34
574.959	1012.93
575.162	1020.29
575.364	992.58
575.566	1083.26
575.769	976.11
575.971	1026.88
576.173	900.94
576.376	1002.08
576.578	1040.44
576.78	1091.98
576.982	936.78
577.185	997.62
577.387	948.8
577.589	977.47
577.791	1001.88
577.993	1033.08
578.196	967.98
578.398	1017.77
578.6	1009.63
578.802	943.18
579.004	957.32
579.206	966.62
579.408	984.06
579.61	957.32
579.812	1009.25
580.014	965.46
580.216	949.77
580.418	976.7
580.62	958.48
580.822	931.17
581.024	962.55
581.226	1026.1
581.428	982.51
581.63	1067.37
581.832	965.46
582.034	1058.65
582.236	1012.54
582.438	1036.76
582.64	1005.76
582.841	1047.8
583.043	1059.23
583.245	1045.48
583.447	1037.34
583.649	1005.95
583.85	983.67
584.052	1057.88
584.254	967.2
584.456	1039.28
584.657	978.25
584.859	985.03
585.061	978.83
585.262	964.1
585.464	977.08
585.666	1003.05
585.867	955
586.069	1017.38
586.27	1014.67
586.472	984.83
586.674	954.61
586.875	959.84
587.077	968.56
587.278	1002.85
587.48	949.77
587.681	1080.16
587.883	969.53
588.084	942.21
588.285	954.61
588.487	943.57
588.688	959.45
588.89	901.91
589.091	869.75
589.292	905.2
589.494	886.6
589.695	848.05
589.896	758.15
590.098	804.65
590.299	880.21
590.5	838.94
590.702	846.3
590.903	878.47
591.104	923.42
591.305	879.43
591.507	930.78
591.708	882.15
591.909	871.88
592.11	955.19
592.311	945.89
592.512	881.37
592.714	867.62
592.915	860.64
593.116	875.17
593.317	882.34
593.518	884.86
593.719	904.82
593.92	947.25
594.121	946.28
594.322	870.13
594.523	875.17
594.724	857.54
594.925	873.62
595.126	873.62
595.327	886.41
595.528	861.03
595.729	898.03
595.929	873.82
596.13	882.53
596.331	905.01
596.532	919.15
596.733	942.21
596.934	956.16
597.135	936.59
597.335	899
597.536	859.48
597.737	890.87
597.938	860.84
598.138	913.15
598.339	894.16
598.54	901.13
598.74	855.02
598.941	899.39
599.142	933.1
599.342	902.1
599.543	867.23
599.744	915.86
599.944	885.63
600.145	892.8
600.345	928.26
600.546	953.06
600.746	936.59
600.947	984.64
601.147	917.99
601.348	958.29
601.548	872.27
601.749	911.6
601.949	864.32
602.15	866.45
602.35	907.72
602.551	939.88
602.751	855.02
602.951	874.2
603.152	821.89
603.352	880.21
603.552	870.13
603.753	924.38
603.953	930.39
604.153	901.13
604.354	886.8
604.554	897.45
604.754	897.07
604.954	884.28
605.155	912.95
605.355	908.11
605.555	905.01
605.755	936.98
605.955	907.53
606.155	928.65
606.356	894.93
606.556	900.55
606.756	909.08
606.956	849.79
607.156	921.67
607.356	898.81
607.556	906.17
607.756	904.43
607.956	900.36
608.156	893
608.356	844.17
608.556	976.5
608.756	888.93
608.956	874.98
609.156	877.88
609.356	895.32
609.556	850.18
609.755	906.95
609.955	847.27
610.155	881.57
610.355	865.1
610.555	855.99
610.755	862
610.954	803.68
611.154	856.96
611.354	918.57
611.554	832.94
611.753	847.27
611.953	799.22
612.153	899.2
612.352	854.44
612.552	847.85
612.752	810.85
612.951	848.05
613.151	851.15
613.351	801.16
613.55	798.45
613.75	853.47
613.949	818.02
614.149	857.15
614.348	830.8
614.548	795.15
614.747	756.02
614.947	781.4
615.146	762.02
615.346	874.01
615.545	797.29
615.745	824.99
615.944	828.67
616.144	809.88
616.343	830.03
616.542	780.82
616.742	813.56
616.941	827.9
617.14	757.57
617.34	815.5
617.539	792.64
617.738	784.3
617.938	841.27
618.137	789.34
618.336	751.95
618.535	807.75
618.734	810.07
618.934	790.89
619.133	780.43
619.332	843.01
619.531	756.99
619.73	821.31
619.929	827.7
620.128	820.92
620.328	820.34
620.527	793.02
620.726	767.26
620.925	808.14
621.124	786.05
621.323	836.04
621.522	744.78
621.721	777.33
621.92	738.19
622.119	831.19
622.318	766.29
622.517	787.21
622.715	774.04
