Data from oakcork_FLMT105791__239__17-33-10-055.txt Node

Date: Mon Mar 20 17:33:10 GMT 2023
User: antho
Spectrometer: FLMT10579
Trigger mode: 0
Integration Time (sec): 1.000000E-1
Scans to average: 10
Electric dark correction enabled: true
Nonlinearity correction enabled: false
Boxcar width: 0
XAxis mode: Wavelengths
Number of Pixels in Spectrum: 3648
>>>>>Begin Spectral Data<<<<<
345.248	-146.84
345.464	-146.84
345.681	-146.84
345.898	-164.67
346.114	-145.68
346.331	-6.96
346.548	15.32
346.764	-10.25
346.981	14.16
347.197	-17.42
347.414	8.35
347.631	-14.71
347.847	48.26
348.064	-3.47
348.28	20.94
348.497	-36.99
348.713	-17.23
348.93	36.25
349.146	22.1
349.363	-0.18
349.579	8.54
349.796	-9.09
350.012	9.7
350.229	14.93
350.445	-6.18
350.661	-0.37
350.878	-3.28
351.094	29.47
351.311	12.61
351.527	22.68
351.743	-11.8
351.96	48.65
352.176	25.59
352.392	34.7
352.609	26.56
352.825	-14.13
353.041	14.74
353.257	5.05
353.474	24.62
353.69	6.8
353.906	-7.93
354.122	-1.15
354.339	48.65
354.555	33.92
354.771	-0.18
354.987	82.36
355.203	50.97
355.42	12.03
355.636	-7.35
355.852	-11.61
356.068	23.85
356.284	-12.38
356.5	71.9
356.716	27.14
356.932	19.58
357.148	27.14
357.364	-14.71
357.58	33.92
357.796	66.08
358.012	29.66
358.228	26.37
358.444	-30.01
358.66	49.03
358.876	35.47
359.092	-4.25
359.308	20.94
359.524	0.21
359.74	19.39
359.956	5.83
360.172	6.02
360.388	40.12
360.604	-14.51
360.819	103.67
361.035	3.5
361.251	44.77
361.467	3.31
361.683	46.71
361.898	26.95
362.114	45.35
362.33	3.5
362.546	73.06
362.762	25.4
362.977	0.98
363.193	18.62
363.409	55.43
363.624	-8.31
363.84	-4.05
364.056	7.18
364.271	40.32
364.487	29.47
364.703	5.44
364.918	-10.83
365.134	12.22
365.35	19.58
365.565	125.56
365.781	46.32
365.996	56.98
366.212	72.09
366.427	34.31
366.643	16.68
366.858	18.42
367.074	-5.22
367.289	61.24
367.505	129.25
367.72	-18.78
367.936	23.85
368.151	61.05
368.367	51.17
368.582	28.5
368.798	19.97
369.013	70.73
369.228	27.72
369.444	44.38
369.659	81.39
369.874	50.2
370.09	61.43
370.305	-14.32
370.52	6.22
370.736	76.93
370.951	29.85
371.166	87.98
371.381	84.1
371.597	69.96
371.812	-17.03
372.027	-0.37
372.242	37.99
372.458	78.29
372.673	16.1
372.888	31.02
373.103	42.45
373.318	100.38
373.533	43.8
373.749	53.3
373.964	-17.42
374.179	85.65
374.394	-6.77
374.609	64.73
374.824	5.44
375.039	87.59
375.254	0.21
375.469	84.1
375.684	42.25
375.899	65.12
376.114	43.61
376.329	28.11
376.544	70.15
376.759	60.85
376.974	22.3
377.189	20.55
377.404	30.82
377.619	70.54
377.834	-4.83
378.049	19.2
378.264	3.89
378.478	55.82
378.693	41.09
378.908	46.9
379.123	41.87
379.338	90.3
379.553	72.09
379.767	48.65
379.982	64.92
380.197	57.37
380.412	23.27
380.626	57.95
380.841	125.76
381.056	33.15
381.271	94.56
381.485	59.88
381.7	24.04
381.915	74.42
382.129	26.95
382.344	69.18
382.559	42.06
382.773	64.34
382.988	13.19
383.202	57.56
383.417	33.53
383.632	128.66
383.846	30.24
384.061	63.18
384.275	59.3
384.49	44
384.704	47.87
384.919	44.97
385.133	44.77
385.348	56.2
385.562	46.71
385.777	107.55
385.991	70.35
386.206	37.6
386.42	34.31
386.634	107.35
386.849	82.16
387.063	51.36
387.277	21.13
387.492	59.11
387.706	13.38
387.92	55.04
388.135	93.21
388.349	47.29
388.563	51.75
388.778	69.57
388.992	86.43
389.206	104.83
389.42	115.68
389.635	77.9
389.849	94.56
390.063	104.45
390.277	65.7
390.491	119.75
390.706	98.25
390.92	133.9
391.134	59.3
391.348	106.77
391.562	11.25
391.776	67.44
391.99	54.46
392.205	109.87
392.419	76.35
392.633	58.33
392.847	111.61
393.061	49.03
393.275	119.56
393.489	52.72
393.703	73.25
393.917	87.2
394.131	41.09
394.345	70.15
394.559	101.73
394.773	74.03
394.986	98.63
395.2	91.85
395.414	114.33
395.628	62.02
395.842	121.3
396.056	70.54
396.27	63.76
396.484	68.22
396.697	84.49
396.911	123.82
397.125	104.64
397.339	92.63
397.553	78.1
397.766	132.73
397.98	120.14
398.194	153.85
398.408	111.81
398.621	138.16
398.835	152.3
399.049	145.71
399.262	168.38
399.476	146.88
399.69	159.08
399.903	202.87
400.117	145.33
400.331	155.21
400.544	112.39
400.758	242.2
400.971	144.36
401.185	162.38
401.398	94.18
401.612	177.88
401.826	165.48
402.039	181.36
402.253	158.11
402.466	179.23
402.68	162.38
402.893	155.6
403.106	146.88
403.32	132.73
403.533	149.98
403.747	140.48
403.96	168.58
404.174	197.25
404.387	118.4
404.6	181.75
404.814	194.54
405.027	175.94
405.24	154.05
405.454	148.81
405.667	186.79
405.88	117.04
406.094	150.75
406.307	196.67
406.52	160.05
406.733	144.94
406.947	123.24
407.16	223.02
407.373	177.88
407.586	167.99
407.799	130.41
408.012	201.32
408.226	162.18
408.439	250.92
408.652	120.33
408.865	193.38
409.078	231.74
409.291	204.61
409.504	164.7
409.717	201.71
409.93	193.96
410.143	187.56
410.357	133.7
410.57	154.82
410.783	158.11
410.996	175.74
411.209	179.04
411.421	214.3
411.634	230.38
411.847	188.14
412.06	211.59
412.273	213.72
412.486	232.13
412.699	296.26
412.912	201.9
413.125	228.25
413.338	217.01
413.55	244.72
413.763	231.16
413.976	242.78
414.189	194.15
414.402	171.48
414.615	256.34
414.827	167.03
415.04	233.87
415.253	268.16
415.466	229.03
415.678	289.28
415.891	209.46
416.104	217.01
416.316	208.88
416.529	202.09
416.742	251.89
416.954	296.45
417.167	217.98
417.38	208.68
417.592	252.47
417.805	208.49
418.017	188.53
418.23	253.63
418.442	213.72
418.655	218.37
418.868	234.64
419.08	269.32
419.293	286.76
419.505	244.53
419.718	270.87
419.93	261.77
420.142	229.03
420.355	295.29
420.567	272.62
420.78	260.02
420.992	245.88
421.205	305.36
421.417	199.96
421.629	227.09
421.842	232.51
422.054	210.62
422.266	267.97
422.479	277.27
422.691	195.7
422.903	279.79
423.115	208.68
423.328	229.03
423.54	264.29
423.752	242.01
423.964	251.69
424.177	271.46
424.389	258.86
424.601	367.55
424.813	270.1
425.025	296.84
425.238	291.41
425.45	268.16
425.662	239.29
425.874	537.66
426.086	285.99
426.298	261.38
426.51	267.77
426.722	257.12
426.934	240.46
427.146	302.07
427.358	241.23
427.57	298.58
427.782	262.35
427.994	260.8
428.206	250.34
428.418	237.94
428.63	300.91
428.842	325.71
429.054	281.14
429.266	297.22
429.478	224.96
429.69	264.29
429.902	236.58
430.114	287.15
430.325	271.46
430.537	221.86
430.749	228.25
430.961	173.61
431.173	261.38
431.384	277.27
431.596	174.39
431.808	274.56
432.02	285.21
432.231	294.9
432.443	366.78
432.655	312.92
432.867	273.78
433.078	315.82
433.29	379.95
433.502	355.54
433.713	369.49
433.925	321.83
434.136	361.55
434.348	280.76
434.56	266.03
434.771	416.38
434.983	289.67
435.194	310.79
435.406	351.47
435.617	403.2
435.829	378.21
436.04	388.09
436.252	352.64
436.463	410.37
436.675	413.67
436.886	375.89
437.098	417.74
437.309	434.2
437.521	362.13
437.732	386.54
437.943	353.41
438.155	377.82
438.366	338.49
438.578	415.41
438.789	378.79
439	373.95
439.211	347.99
439.423	387.32
439.634	411.54
439.845	398.94
440.057	386.93
440.268	430.13
440.479	384.41
440.69	383.05
440.902	359.03
441.113	394.1
441.324	394.1
441.535	415.02
441.746	470.43
441.957	410.76
442.168	407.85
442.38	470.63
442.591	465.98
442.802	422.58
443.013	399.52
443.224	461.52
443.435	420.64
443.646	422.58
443.857	437.88
444.068	416.57
444.279	428.59
444.49	503.57
444.701	461.13
444.912	558.78
445.123	499.69
445.334	487.1
445.545	519.84
445.756	439.43
445.967	422.19
446.178	476.05
446.388	481.28
446.599	472.76
446.81	468.3
447.021	438.47
447.232	505.12
447.443	532.43
447.653	450.09
447.864	544.64
448.075	492.52
448.286	529.53
448.496	497.95
448.707	518.29
448.918	468.3
449.129	562.08
449.339	463.85
449.55	523.91
449.761	517.71
449.971	552.58
450.182	529.53
450.393	544.64
450.603	498.14
450.814	574.67
451.024	561.88
451.235	597.73
451.446	574.28
451.656	576.8
451.867	538.83
452.077	545.03
452.288	582.42
452.498	595.21
452.709	537.47
452.919	547.93
453.13	529.91
453.34	553.16
453.55	456.1
453.761	568.28
453.971	524.1
454.182	569.05
454.392	537.28
454.602	616.13
454.813	577.58
455.023	593.85
455.233	528.36
455.444	546.19
455.654	506.67
455.864	557.62
456.075	549.87
456.285	531.46
456.495	575.06
456.705	580.29
456.916	628.34
457.126	591.14
457.336	560.91
457.546	528.56
457.756	551.23
457.967	620.98
458.177	553.75
458.387	580.87
458.597	531.66
458.807	572.54
459.017	586.3
459.227	545.8
459.437	578.16
459.647	604.12
459.857	596.56
460.068	550.65
460.278	621.56
460.488	611.29
460.698	661.28
460.908	609.93
461.117	565.37
461.327	571.38
461.537	633.57
461.747	637.64
461.957	639.38
462.167	711.26
462.377	628.53
462.587	618.84
462.797	639.38
463.007	627.56
463.216	645.39
463.426	690.34
463.636	688.59
463.846	582.23
464.056	618.65
464.265	656.82
464.475	597.92
464.685	639.38
464.895	671.16
465.104	630.47
465.314	677.16
465.524	640.93
465.733	611.29
465.943	711.07
466.153	690.14
466.362	679.1
466.572	686.46
466.782	679.1
466.991	675.61
467.201	717.27
467.41	595.4
467.62	655.08
467.829	667.48
468.039	692.66
468.249	654.69
468.458	699.06
468.668	709.52
468.877	692.47
469.086	747.3
469.296	751.56
469.505	703.71
469.715	776.94
469.924	712.42
470.134	750.59
470.343	754.27
470.552	706.61
470.762	697.51
470.971	683.94
471.18	711.65
471.39	702.35
471.599	679.68
471.808	762.41
472.018	711.84
472.227	793.22
472.436	827.51
472.645	775.01
472.855	752.92
473.064	819.76
473.273	802.71
473.482	824.8
473.691	856.96
473.901	817.05
474.11	785.08
474.319	914.31
474.528	799.8
474.737	900.17
474.946	857.35
475.155	857.54
475.364	904.43
475.573	841.85
475.783	870.72
475.992	899.2
476.201	901.72
476.41	868
476.619	851.54
476.828	876.14
477.037	870.72
477.245	878.47
477.454	923.8
477.663	928.84
477.872	911.6
478.081	981.73
478.29	889.32
478.499	980.38
478.708	941.82
478.917	1014.09
479.125	935.62
479.334	976.89
479.543	989.68
479.752	998.59
479.961	1016.8
480.169	1075.31
480.378	1023
480.587	1126.27
480.796	1056.13
481.004	1047.03
481.213	1052.84
481.422	1033.85
481.63	1050.13
481.839	1102.63
482.048	1175.29
482.256	1093.91
482.465	1121.23
482.674	1084.81
482.882	1085.78
483.091	1175.87
483.299	1109.41
483.508	1157.85
483.716	1161.92
483.925	1154.56
484.134	1070.66
484.342	1091.78
484.551	1136.54
484.759	1115.23
484.967	1215.2
485.176	1182.46
485.384	1184.39
485.593	1182.65
485.801	1139.83
486.01	1087.13
486.218	1085
486.426	998.4
486.635	1009.05
486.843	1005.95
487.051	1078.8
487.26	1041.79
487.468	1097.01
487.676	1137.7
487.885	1103.79
488.093	1208.22
488.301	1207.84
488.509	1185.56
488.717	1221.01
488.926	1236.51
489.134	1180.52
489.342	1224.11
489.55	1196.41
489.758	1278.17
489.967	1234.77
490.175	1329.9
490.383	1251.24
490.591	1355.47
490.799	1281.07
491.007	1326.02
491.215	1355.67
491.423	1319.05
491.631	1309.94
491.839	1298.32
492.047	1301.61
492.255	1281.07
492.463	1248.52
492.671	1260.92
492.879	1337.65
493.087	1314.78
493.295	1372.52
493.503	1359.73
493.711	1403.13
493.919	1426
494.127	1427.35
494.334	1423.28
494.542	1349.47
494.75	1407.59
494.958	1392.48
495.166	1440.14
495.374	1415.15
495.581	1430.26
495.789	1419.21
495.997	1512.02
496.205	1422.31
496.412	1439.17
496.62	1440.72
496.828	1453.7
497.035	1449.05
497.243	1485.28
497.451	1467.85
497.658	1496.52
497.866	1453.51
498.074	1533.33
498.281	1485.28
498.489	1494.97
498.696	1421.15
498.904	1446.15
499.112	1421.54
499.319	1483.34
499.527	1463
499.734	1545.34
499.942	1442.46
500.149	1459.13
500.357	1474.05
500.564	1426
500.771	1447.89
500.979	1450.6
501.186	1393.06
501.394	1461.65
501.601	1440.14
501.808	1463.97
502.016	1443.24
502.223	1419.99
502.43	1438.4
502.638	1463.97
502.845	1425.22
503.052	1523.64
503.26	1452.15
503.467	1522.48
503.674	1483.15
503.881	1531.2
504.089	1547.48
504.296	1492.84
504.503	1444.01
504.71	1484.89
504.917	1466.3
505.125	1490.51
505.332	1506.59
505.539	1551.74
505.746	1586.03
505.953	1558.71
506.16	1569.37
506.367	1616.26
506.574	1639.7
506.781	1624.39
506.988	1546.12
507.195	1586.61
507.402	1572.66
507.609	1614.32
507.816	1580.41
508.023	1543.02
508.23	1552.51
508.437	1519.77
508.644	1585.06
508.851	1596.49
509.058	1635.63
509.265	1640.09
509.472	1671.09
509.679	1695.69
509.885	1651.13
510.092	1667.99
510.299	1631.56
510.506	1613.74
510.713	1664.5
510.92	1620.91
511.126	1651.13
511.333	1700.73
511.54	1694.92
511.746	1708.87
511.953	1721.07
512.16	1732.5
512.367	1681.35
512.573	1695.5
512.78	1696.27
512.987	1731.54
513.193	1701.31
513.4	1610.25
513.606	1681.35
513.813	1684.84
514.02	1693.56
514.226	1750.33
514.433	1721.46
514.639	1659.27
514.846	1712.94
515.052	1661.4
515.259	1678.64
515.465	1670.7
515.672	1695.89
515.878	1741.61
516.085	1718.55
516.291	1748.39
516.497	1700.92
516.704	1689.49
516.91	1623.62
517.117	1571.31
517.323	1522.29
517.529	1564.14
517.736	1585.26
517.942	1579.44
518.148	1608.31
518.354	1621.87
518.561	1636.41
518.767	1592.23
518.973	1664.11
519.179	1741.22
519.386	1706.74
519.592	1691.43
519.798	1663.14
520.004	1787.53
520.21	1734.83
520.417	1797.8
520.623	1829.96
520.829	1854.76
521.035	1858.05
521.241	1824.73
521.447	1857.28
521.653	1938.46
521.859	1836.55
522.065	1890.02
522.271	1950.28
522.477	1902.42
522.683	1946.01
522.889	1888.08
523.095	1870.45
523.301	1866
523.507	1851.46
523.713	1871.42
523.919	1873.75
524.125	1945.43
524.331	1938.07
524.537	2008.98
524.742	1975.08
524.948	1999.68
525.154	2036.11
525.36	2111.67
525.566	1976.82
525.772	2045.02
525.977	1946.59
526.183	2019.83
526.389	2019.83
526.595	1961.71
526.8	1950.08
527.006	1880.91
527.212	1803.22
527.417	1831.9
527.623	1832.67
527.829	1927.99
528.034	1924.89
528.24	1963.64
528.446	1946.4
528.651	2089.58
528.857	2040.56
529.062	2107.99
529.268	2072.53
529.473	2106.82
529.679	2114.57
529.884	2172.89
530.09	2131.24
530.295	2163.4
530.501	2152.94
530.706	2166.89
530.912	2111.09
531.117	2141.31
531.323	2157.97
531.528	2207.38
531.733	2200.21
531.939	2161.07
532.144	2179.48
532.35	2159.91
532.555	2185.1
532.76	2137.82
532.966	2151.58
533.171	2139.76
533.376	2091.52
533.581	2053.74
533.787	2128.52
533.992	2174.25
534.197	2143.64
534.402	2142.86
534.607	2173.09
534.813	2282.75
535.018	2173.67
535.223	2232.76
535.428	2224.62
535.633	2279.26
535.838	2257.56
536.043	2255.43
536.249	2351.72
536.454	2277.71
536.659	2283.13
536.864	2266.47
537.069	2245.16
537.274	2266.28
537.479	2262.79
537.684	2251.36
537.889	2211.64
538.094	2347.65
538.299	2285.46
538.504	2322.08
538.708	2283.91
538.913	2333.12
539.118	2322.66
539.323	2301.73
539.528	2320.14
539.733	2270.35
539.938	2293.21
540.142	2318.98
540.347	2269.96
540.552	2224.04
540.757	2242.06
540.962	2277.71
541.166	2222.49
541.371	2196.33
541.576	2276.55
541.781	2185.68
541.985	2303.48
542.19	2306.38
542.395	2334.67
542.599	2366.44
542.804	2336.61
543.008	2385.43
543.213	2322.46
543.418	2230.82
543.622	2326.73
543.827	2268.02
544.031	2381.75
544.236	2389.69
544.44	2401.71
544.645	2452.47
544.849	2360.63
545.054	2390.28
545.258	2470.49
545.463	2473.78
545.667	2390.08
545.872	2473.01
546.076	2409.84
546.281	2408.29
546.485	2396.86
546.689	2398.61
546.894	2442.97
547.098	2384.46
547.302	2407.52
547.507	2375.74
547.711	2441.42
547.915	2456.34
548.119	2388.34
548.324	2400.35
548.528	2462.74
548.732	2423.6
548.936	2424.18
549.141	2481.34
549.345	2407.91
549.549	2503.42
549.753	2445.69
549.957	2547.02
550.161	2527.84
550.366	2480.17
550.57	2448.98
550.774	2492.38
550.978	2434.45
551.182	2451.31
551.386	2491.02
551.59	2441.23
551.794	2481.14
551.998	2499.55
552.202	2473.01
552.406	2433.87
552.61	2503.04
552.814	2467.19
553.018	2535.59
553.222	2436.19
553.426	2457.7
553.63	2524.93
553.833	2463.9
554.037	2454.99
554.241	2491.22
554.445	2501.68
554.649	2497.03
554.853	2476.49
555.056	2510.59
555.26	2584.8
555.464	2475.33
555.668	2541.98
555.871	2518.54
556.075	2496.06
556.279	2492.38
556.483	2453.63
556.686	2475.33
556.89	2464.87
557.094	2463.32
557.297	2398.61
557.501	2534.04
557.704	2397.64
557.908	2491.02
558.112	2389.5
558.315	2479.01
558.519	2448.21
558.722	2435.42
558.926	2399.58
559.129	2299.99
559.333	2342.81
559.536	2312.2
559.74	2302.7
559.943	2324.21
560.147	2338.16
560.35	2336.61
560.553	2344.55
560.757	2290.88
560.96	2396.48
561.164	2331.38
561.367	2407.13
561.57	2356.76
561.774	2345.52
561.977	2327.89
562.18	2291.08
562.384	2391.44
562.587	2335.06
562.79	2302.12
562.993	2335.25
563.197	2339.9
563.4	2389.69
563.603	2404.61
563.806	2394.73
564.009	2323.63
564.212	2319.56
564.416	2264.92
564.619	2302.9
564.822	2232.95
565.025	2312
565.228	2302.9
565.431	2325.95
565.634	2192.46
565.837	2230.82
566.04	2233.73
566.243	2196.14
566.446	2129.88
566.649	2237.6
566.852	2149.25
567.055	2205.44
567.258	2232.18
567.461	2269.18
567.664	2284.49
567.867	2191.3
568.07	2188.58
568.273	2229.47
568.475	2273.25
568.678	2200.79
568.881	2169.21
569.084	2168.63
569.287	2072.53
569.489	2075.63
569.692	2172.7
569.895	2194.78
570.098	2054.71
570.3	2050.25
570.503	2032.04
570.706	2026.81
570.909	2024.87
571.111	2025.06
571.314	1978.95
571.516	2011.5
571.719	2057.61
571.922	2015.96
572.124	2044.05
572.327	2064.01
572.529	1980.89
572.732	2046.37
572.935	2021.38
573.137	2088.81
573.34	2005.88
573.542	2067.69
573.745	2040.17
573.947	2025.64
574.15	2034.94
574.352	1988.44
574.554	2088.61
574.757	1992.51
574.959	1940.59
575.162	1993.29
575.364	1956.67
575.566	2054.12
575.769	1977.21
575.971	1998.13
576.173	1882.46
576.376	1974.88
576.578	1976.63
576.78	2055.48
576.982	1908.62
577.185	1937.88
577.387	1904.55
577.589	1898.93
577.791	1936.52
577.993	1988.06
578.196	1917.14
578.398	1981.66
578.6	1975.27
578.802	1866.38
579.004	1852.05
579.206	1836.93
579.408	1919.86
579.61	1901.84
579.812	1953.96
580.014	1851.46
580.216	1890.02
580.418	1918.89
580.62	1934.39
580.822	1899.9
581.024	1926.44
581.226	2017.89
581.428	1946.79
581.63	2016.15
581.832	1930.71
582.034	2015.76
582.236	1951.63
582.438	2000.84
582.64	2026.22
582.841	2048.89
583.043	2052.57
583.245	1956.48
583.447	2005.88
583.649	1982.83
583.85	1975.46
584.052	2040.37
584.254	1978.18
584.456	2039.21
584.657	1918.31
584.859	1998.52
585.061	1933.61
585.262	1958.99
585.464	1950.08
585.666	1957.83
585.867	1935.94
586.069	1990.38
586.27	1947.18
586.472	1943.3
586.674	1932.64
586.875	1934
587.077	1915.01
587.278	1937.88
587.48	1936.13
587.681	2013.82
587.883	1964.23
588.084	1908.81
588.285	1899.9
588.487	1868.13
588.688	1856.11
588.89	1759.43
589.091	1746.07
589.292	1743.16
589.494	1691.62
589.695	1686
589.896	1602.69
590.098	1612.96
590.299	1689.3
590.5	1664.3
590.702	1747.81
590.903	1722.82
591.104	1798.38
591.305	1761.18
591.507	1828.99
591.708	1805.93
591.909	1797.8
592.11	1841.78
592.311	1805.35
592.512	1773
592.714	1737.93
592.915	1754.98
593.116	1748.39
593.317	1806.32
593.518	1802.25
593.719	1795.08
593.92	1862.31
594.121	1806.52
594.322	1776.48
594.523	1788.3
594.724	1716.81
594.925	1747.62
595.126	1752.27
595.327	1769.12
595.528	1768.93
595.729	1789.66
595.929	1766.6
596.13	1755.17
596.331	1802.06
596.532	1791.4
596.733	1866.38
596.934	1818.92
597.135	1844.88
597.335	1854.18
597.536	1783.46
597.737	1816.78
597.938	1786.37
598.138	1806.71
598.339	1820.27
598.54	1805.74
598.74	1786.37
598.941	1835.58
599.142	1856.7
599.342	1827.25
599.543	1759.63
599.744	1800.7
599.944	1810.39
600.145	1776.87
600.345	1814.46
600.546	1917.53
600.746	1835.19
600.947	1913.46
601.147	1817.37
601.348	1855.92
601.548	1758.85
601.749	1814.85
601.949	1731.54
602.15	1812.91
602.35	1780.94
602.551	1812.72
602.751	1775.52
602.951	1763.12
603.152	1705.57
603.352	1825.7
603.552	1795.08
603.753	1851.66
603.953	1826.28
604.153	1812.91
604.354	1855.15
604.554	1781.13
604.754	1803.22
604.954	1786.17
605.155	1849.72
605.355	1806.71
605.555	1840.42
605.755	1835.38
605.955	1802.25
606.155	1790.43
606.356	1804.97
606.556	1821.05
606.756	1819.11
606.956	1729.6
607.156	1814.85
607.356	1791.4
607.556	1767.18
607.756	1778.03
607.956	1833.45
608.156	1786.75
608.356	1695.89
608.556	1819.69
608.756	1796.44
608.956	1742.38
609.156	1765.44
609.356	1748.39
609.556	1731.73
609.755	1787.53
609.955	1732.12
610.155	1746.84
610.355	1747.03
610.555	1722.04
610.755	1755.95
610.954	1709.84
611.154	1716.23
611.354	1783.07
611.554	1745.68
611.753	1726.11
611.953	1727.47
612.153	1744.9
612.352	1714.1
612.552	1669.15
612.752	1673.6
612.951	1686.2
613.151	1696.08
613.351	1695.3
613.55	1682.13
613.75	1699.18
613.949	1636.99
614.149	1676.32
614.348	1682.52
614.548	1624.01
614.747	1628.07
614.947	1635.63
615.146	1583.9
615.346	1717.39
