Data from oakcork_FLMT105791__200__17-32-13-056.txt Node

Date: Mon Mar 20 17:32:13 GMT 2023
User: antho
Spectrometer: FLMT10579
Trigger mode: 0
Integration Time (sec): 1.000000E-1
Scans to average: 10
Electric dark correction enabled: true
Nonlinearity correction enabled: false
Boxcar width: 0
XAxis mode: Wavelengths
Number of Pixels in Spectrum: 3648
>>>>>Begin Spectral Data<<<<<
345.248	-163.31
345.464	-163.31
345.681	-163.31
345.898	-147.23
346.114	-165.06
346.331	2.92
346.548	8.54
346.764	-16.26
346.981	-6.96
347.197	-38.54
347.414	6.22
347.631	-21.49
347.847	56.4
348.064	-29.43
348.28	54.46
348.497	-28.66
348.713	12.8
348.93	42.25
349.146	5.44
349.363	16.48
349.579	17.07
349.796	-11.41
350.012	-11.61
350.229	10.28
350.445	0.79
350.661	-19.75
350.878	-2.5
351.094	25.59
351.311	16.29
351.527	19
351.743	-14.13
351.96	42.83
352.176	14.35
352.392	36.63
352.609	23.65
352.825	-3.08
353.041	-6.57
353.257	-7.15
353.474	1.95
353.69	7.57
353.906	23.65
354.122	-4.44
354.339	56.98
354.555	14.16
354.771	-11.03
354.987	46.71
355.203	52.52
355.42	-17.81
355.636	-17.42
355.852	-5.41
356.068	5.83
356.284	-40.86
356.5	61.82
356.716	19.2
356.932	-21.3
357.148	12.42
357.364	-16.45
357.58	28.3
357.796	77.71
358.012	30.82
358.228	15.9
358.444	-57.91
358.66	53.68
358.876	27.72
359.092	-13.35
359.308	11.06
359.524	22.49
359.74	4.08
359.956	-14.71
360.172	24.62
360.388	31.21
360.604	5.25
360.819	64.73
361.035	-15.68
361.251	23.85
361.467	-9.48
361.683	32.37
361.898	28.5
362.114	47.29
362.33	11.25
362.546	27.72
362.762	9.32
362.977	33.73
363.193	-3.86
363.409	51.94
363.624	4.08
363.84	-10.06
364.056	14.35
364.271	19.58
364.487	31.4
364.703	-21.88
364.918	-21.49
365.134	-5.8
365.35	22.68
365.565	94.76
365.781	17.84
365.996	5.83
366.212	62.21
366.427	25.59
366.643	6.99
366.858	11.06
367.074	-19.94
367.289	48.84
367.505	74.03
367.72	-51.91
367.936	-12.58
368.151	17.84
368.367	44.38
368.582	20.94
368.798	-4.63
369.013	58.53
369.228	20.94
369.444	13
369.659	64.34
369.874	9.7
370.09	45.74
370.305	-41.06
370.52	0.79
370.736	42.06
370.951	2.73
371.166	72.48
371.381	92.63
371.597	53.88
371.812	-8.7
372.027	22.88
372.242	35.08
372.458	96.31
372.673	3.31
372.888	6.6
373.103	52.13
373.318	101.73
373.533	8.54
373.749	20.36
373.964	-49.58
374.179	47.1
374.394	15.52
374.609	62.02
374.824	-22.26
375.039	25.2
375.254	-17.81
375.469	87.01
375.684	25.2
375.899	64.34
376.114	11.83
376.329	17.07
376.544	56.4
376.759	72.48
376.974	-18.78
377.189	18.62
377.404	7.57
377.619	58.33
377.834	-26.33
378.049	-11.61
378.264	-7.73
378.478	13.58
378.693	14.55
378.908	28.11
379.123	-0.18
379.338	31.4
379.553	41.48
379.767	24.04
379.982	39.93
380.197	48.07
380.412	3.5
380.626	44.58
380.841	101.15
381.056	36.83
381.271	83.91
381.485	13.38
381.7	-22.65
381.915	31.6
382.129	0.21
382.344	23.65
382.559	33.34
382.773	40.51
382.988	-34.66
383.202	19.39
383.417	-12.96
383.632	95.53
383.846	24.23
384.061	33.15
384.275	19.58
384.49	37.8
384.704	43.8
384.919	15.52
385.133	25.98
385.348	38.77
385.562	-8.51
385.777	77.13
385.991	30.05
386.206	-5.99
386.42	4.47
386.634	74.8
386.849	30.63
387.063	13.77
387.277	-15.29
387.492	1.18
387.706	-17.61
387.92	-6.57
388.135	51.94
388.349	54.27
388.563	37.41
388.778	11.64
388.992	34.12
389.206	31.02
389.42	96.31
389.635	20.36
389.849	58.33
390.063	48.07
390.277	14.74
390.491	80.23
390.706	43.22
390.92	57.17
391.134	14.55
391.348	68.02
391.562	-18.78
391.776	3.5
391.99	6.41
392.205	43.03
392.419	23.27
392.633	1.37
392.847	51.55
393.061	19.2
393.275	75
393.489	33.34
393.703	36.05
393.917	70.35
394.131	-7.93
394.345	66.86
394.559	72.28
394.773	11.83
394.986	34.7
395.2	24.62
395.414	81.97
395.628	-17.23
395.842	44.77
396.056	10.87
396.27	-42.22
396.484	63.76
396.697	13.19
396.911	71.51
397.125	36.44
397.339	64.34
397.553	19.78
397.766	57.56
397.98	53.88
398.194	84.88
398.408	21.52
398.621	85.65
398.835	68.02
399.049	30.05
399.262	65.5
399.476	59.3
399.69	52.72
399.903	111.61
400.117	37.22
400.331	35.67
400.544	21.72
400.758	136.61
400.971	34.31
401.185	78.68
401.398	15.13
401.612	66.86
401.826	43.22
402.039	71.7
402.253	7.18
402.466	56.01
402.68	18.62
402.893	63.18
403.106	32.18
403.32	42.64
403.533	72.67
403.747	25.59
403.96	55.04
404.174	54.46
404.387	5.25
404.6	20.55
404.814	88.36
405.027	39.15
405.24	53.88
405.454	68.8
405.667	72.28
405.88	-9.67
406.094	50.97
406.307	65.89
406.52	45.16
406.733	24.82
406.947	0.02
407.16	112.78
407.373	97.66
407.586	4.08
407.799	2.92
408.012	62.02
408.226	55.62
408.439	105.8
408.652	36.44
408.865	65.5
409.078	78.1
409.291	53.88
409.504	1.76
409.717	55.62
409.93	88.36
410.143	52.13
410.357	16.87
410.57	15.13
410.783	41.48
410.996	59.11
411.209	57.56
411.421	71.9
411.634	29.47
411.847	32.37
412.06	52.33
412.273	22.68
412.486	60.27
412.699	112.78
412.912	42.25
413.125	84.3
413.338	71.32
413.55	77.32
413.763	40.9
413.976	67.05
414.189	16.48
414.402	46.52
414.615	100.76
414.827	22.49
415.04	81
415.253	70.15
415.466	61.82
415.678	110.06
415.891	49.81
416.104	37.02
416.316	28.11
416.529	44.97
416.742	50.2
416.954	75.38
417.167	42.25
417.38	27.92
417.592	112.58
417.805	12.42
418.017	19.78
418.23	81.97
418.442	44.97
418.655	50.39
418.868	62.79
419.08	89.72
419.293	110.45
419.505	74.22
419.718	70.93
419.93	97.28
420.142	39.73
420.355	93.4
420.567	122.66
420.78	91.46
420.992	47.87
421.205	116.46
421.417	31.79
421.629	20.94
421.842	24.43
422.054	36.25
422.266	67.44
422.479	75.58
422.691	53.1
422.903	80.23
423.115	42.25
423.328	46.9
423.54	71.51
423.752	61.05
423.964	13.19
424.177	71.51
424.389	57.95
424.601	133.31
424.813	94.56
425.025	72.87
425.238	81.97
425.45	36.25
425.662	64.92
425.874	329.39
426.086	62.79
426.298	69.96
426.51	76.16
426.722	66.47
426.934	51.94
427.146	82.94
427.358	19.97
427.57	101.15
427.782	78.68
427.994	60.47
428.206	41.28
428.418	4.08
428.63	94.18
428.842	88.36
429.054	84.88
429.266	111.61
429.478	42.06
429.69	62.98
429.902	23.46
430.114	95.15
430.325	71.51
430.537	32.76
430.749	64.53
430.961	31.79
431.173	78.1
431.384	79.65
431.596	1.76
431.808	56.01
432.02	65.12
432.231	81
432.443	104.64
432.655	88.95
432.867	34.31
433.078	59.88
433.29	131.38
433.502	102.9
433.713	95.53
433.925	64.73
434.136	101.35
434.348	35.08
434.56	-3.67
434.771	176.71
434.983	22.88
435.194	33.34
435.406	62.4
435.617	107.55
435.829	118.59
436.04	108.9
436.252	109.1
436.463	106.96
436.675	104.45
436.886	81.2
437.098	75.38
437.309	121.5
437.521	90.88
437.732	78.87
437.943	80.42
438.155	83.71
438.366	-1.92
438.578	139.51
438.789	111.61
439	117.81
439.211	93.98
439.423	96.7
439.634	102.9
439.845	118.78
440.057	87.59
440.268	100.18
440.479	76.74
440.69	89.53
440.902	68.99
441.113	68.6
441.324	61.43
441.535	99.99
441.746	140.1
441.957	50.39
442.168	69.77
442.38	87.59
442.591	99.21
442.802	78.48
443.013	74.61
443.224	104.06
443.435	88.36
443.646	73.64
443.857	70.35
444.068	59.88
444.279	52.13
444.49	142.61
444.701	85.85
444.912	188.73
445.123	121.11
445.334	103.09
445.545	90.88
445.756	73.64
445.967	73.83
446.178	126.34
446.388	117.23
446.599	130.8
446.81	123.24
447.021	80.03
447.232	128.66
447.443	161.8
447.653	51.36
447.864	130.41
448.075	119.95
448.286	118.4
448.496	105.41
448.707	136.22
448.918	90.11
449.129	186.59
449.339	87.98
449.55	118.78
449.761	92.43
449.971	146.3
450.182	105.22
450.393	117.62
450.603	94.76
450.814	124.21
451.024	111.81
451.235	143
451.446	146.88
451.656	151.14
451.867	79.65
452.077	127.7
452.288	144.55
452.498	181.94
452.709	103.48
452.919	106.96
453.13	90.88
453.34	148.43
453.55	76.74
453.761	143.97
453.971	146.68
454.182	127.89
454.392	117.81
454.602	155.21
454.813	136.41
455.023	147.65
455.233	80.23
455.444	122.46
455.654	64.73
455.864	99.41
456.075	86.23
456.285	96.7
456.495	116.07
456.705	120.33
456.916	181.36
457.126	134.09
457.336	143.58
457.546	63.95
457.756	80.61
457.967	146.88
458.177	134.09
458.387	120.53
458.597	99.02
458.807	110.06
459.017	97.47
459.227	118.98
459.437	116.26
459.647	133.31
459.857	131.18
460.068	68.22
460.278	164.7
460.488	140.1
460.698	159.86
460.908	101.73
461.117	77.52
461.327	98.44
461.537	125.37
461.747	142.81
461.957	130.99
462.167	220.5
462.377	170.51
462.587	122.66
462.797	165.09
463.007	129.83
463.216	145.13
463.426	175.16
463.636	163.35
463.846	90.88
464.056	110.84
464.265	145.52
464.475	101.35
464.685	135.64
464.895	125.18
465.104	118.98
465.314	150.17
465.524	126.92
465.733	129.25
465.943	178.46
466.153	179.04
466.362	155.98
466.572	127.89
466.782	121.5
466.991	147.07
467.201	200.54
467.41	102.31
467.62	138.74
467.829	120.14
468.039	158.5
468.249	132.73
468.458	119.75
468.668	154.63
468.877	163.15
469.086	179.04
469.296	175.94
469.505	118.01
469.715	221.47
469.924	164.9
470.134	178.46
470.343	169.54
470.552	137.19
470.762	168.77
470.971	123.24
471.18	160.63
471.39	133.12
471.599	136.03
471.808	181.17
472.018	128.08
472.227	169.54
472.436	197.44
472.645	136.41
472.855	133.51
473.064	179.81
473.273	167.03
473.482	197.06
473.691	198.03
473.901	185.24
474.11	174.58
474.319	236.58
474.528	174.19
474.737	207.71
474.946	168.58
475.155	168.38
475.364	198.41
475.573	178.07
475.783	170.71
475.992	193.76
476.201	197.25
476.41	159.66
476.619	142.61
476.828	164.9
477.037	177.49
477.245	178.46
477.454	217.01
477.663	165.67
477.872	166.25
478.081	228.25
478.29	160.83
478.499	242.59
478.708	192.99
478.917	230.77
479.125	188.53
479.334	201.32
479.543	164.9
479.752	182.91
479.961	203.06
480.169	212.56
480.378	183.3
480.587	308.07
480.796	208.29
481.004	193.18
481.213	226.7
481.422	216.04
481.63	198.03
481.839	237.36
482.048	259.83
482.256	223.02
482.465	195.89
482.674	226.31
482.882	256.73
483.091	306.14
483.299	241.43
483.508	253.63
483.716	206.74
483.925	220.31
484.134	187.95
484.342	187.76
484.551	261.38
484.759	213.53
484.967	253.83
485.176	245.69
485.384	255.76
485.593	255.57
485.801	229.8
486.01	225.54
486.218	233.87
486.426	180.78
486.635	213.53
486.843	223.02
487.051	224.38
487.26	221.08
487.468	254.21
487.676	256.73
487.885	217.01
488.093	212.36
488.301	243.56
488.509	245.88
488.717	271.46
488.926	225.54
489.134	226.7
489.342	223.6
489.55	211.78
489.758	230.38
489.967	231.74
490.175	337.33
490.383	206.55
490.591	322.41
490.799	211.59
491.007	281.14
491.215	252.66
491.423	234.45
491.631	261.38
491.839	238.91
492.047	269.52
492.255	241.23
492.463	215.27
492.671	245.69
492.879	294.51
493.087	260.22
493.295	259.44
493.503	240.84
493.711	282.69
493.919	279.21
494.127	268.74
494.334	266.03
494.542	230.96
494.75	258.86
494.958	264.87
495.166	292.96
495.374	252.47
495.581	248.98
495.789	290.64
495.997	332.49
496.205	249.18
496.412	254.41
496.62	259.44
496.828	288.7
497.035	267.39
497.243	301.68
497.451	271.84
497.658	311.56
497.866	263.32
498.074	356.32
498.281	234.45
498.489	331.71
498.696	296.45
498.904	251.89
499.112	300.52
499.319	356.7
499.527	303.04
499.734	342.17
499.942	257.51
500.149	269.71
500.357	312.34
500.564	266.42
500.771	295.48
500.979	273.01
501.186	272.62
501.394	318.54
501.601	281.92
501.808	331.71
502.016	275.72
502.223	289.47
502.43	303.04
502.638	285.6
502.845	275.14
503.052	323.77
503.26	265.26
503.467	353.02
503.674	293.93
503.881	309.04
504.089	382.09
504.296	326.87
504.503	254.99
504.71	300.32
504.917	302.26
505.125	313.11
505.332	305.56
505.539	298.19
505.746	372.79
505.953	348.95
506.16	336.36
506.367	357.09
506.574	396.62
506.781	375.3
506.988	273.59
507.195	355.54
507.402	293.35
507.609	363.68
507.816	325.71
508.023	292.19
508.23	335.59
508.437	295.29
508.644	331.71
508.851	392.16
509.058	378.79
509.265	362.32
509.472	362.9
509.679	454.16
509.885	308.27
510.092	359.42
510.299	329.39
510.506	359.22
510.713	350.89
510.92	371.04
511.126	378.6
511.333	395.84
511.54	385.77
511.746	395.26
511.953	409.4
512.16	396.23
512.367	365.04
512.573	365.42
512.78	370.65
512.987	356.7
513.193	400.69
513.4	313.89
513.606	342.37
513.813	369.3
514.02	377.63
514.226	455.9
514.433	398.17
514.639	348.76
514.846	389.06
515.052	365.62
515.259	350.7
515.465	374.92
515.672	396.81
515.878	454.16
516.085	365.81
516.291	412.31
516.497	372.79
516.704	382.09
516.91	332.87
517.117	325.32
517.323	314.66
517.529	386.93
517.736	349.92
517.942	397.39
518.148	372.01
518.354	403.79
518.561	399.33
518.767	404.56
518.973	425.68
519.179	403.98
519.386	392.74
519.592	348.76
519.798	378.6
520.004	446.22
520.21	393.9
520.417	444.86
520.623	464.43
520.829	456.87
521.035	465.01
521.241	439.82
521.447	460.75
521.653	581.06
521.859	439.43
522.065	445.05
522.271	547.74
522.477	459.78
522.683	519.06
522.889	481.67
523.095	502.21
523.301	464.62
523.507	446.99
523.713	510.35
523.919	448.54
524.125	506.28
524.331	476.05
524.537	540.96
524.742	494.27
524.948	557.23
525.154	495.62
525.36	598.5
525.566	518.48
525.772	565.56
525.977	492.13
526.183	536.5
526.389	571.18
526.595	529.53
526.8	501.05
527.006	493.1
527.212	479.73
527.417	468.69
527.623	473.34
527.829	536.11
528.034	539.21
528.24	554.52
528.446	501.63
528.651	552.2
528.857	552
529.062	595.4
529.268	541.35
529.473	561.69
529.679	535.15
529.884	619.23
530.09	569.25
530.295	624.85
530.501	618.65
530.706	602.38
530.912	550.45
531.117	580.68
531.323	610.51
531.528	604.7
531.733	595.01
531.939	575.25
532.144	629.69
532.35	595.01
532.555	627.37
532.76	617.1
532.966	652.17
533.171	616.33
533.376	570.6
533.581	549.87
533.787	571.96
533.992	625.82
534.197	683.75
534.402	597.92
534.607	615.16
534.813	729.47
535.018	605.86
535.223	583
535.428	640.54
535.633	667.28
535.838	657.59
536.043	629.69
536.249	699.44
536.454	646.74
536.659	644.61
536.864	611.09
537.069	601.6
537.274	656.63
537.479	618.65
537.684	672.13
537.889	620.39
538.094	735.87
538.299	672.13
538.504	693.05
538.708	683.36
538.913	672.32
539.118	662.05
539.323	701.77
539.528	642.68
539.733	650.23
539.938	664.76
540.142	677.55
540.347	679.1
540.552	646.74
540.757	654.88
540.962	664.18
541.166	619.81
541.371	612.26
541.576	658.95
541.781	573.12
541.985	653.91
542.19	658.37
542.395	707.39
542.599	746.14
542.804	714.56
543.008	744.59
543.213	619.81
543.418	657.01
543.622	676.58
543.827	653.53
544.031	712.81
544.236	735.67
544.44	698.09
544.645	725.41
544.849	679.88
545.054	707
545.258	787.21
545.463	737.22
545.667	727.92
545.872	723.47
546.076	712.04
546.281	713.97
546.485	676.39
546.689	741.49
546.894	754.66
547.098	701.38
547.302	687.82
547.507	711.46
547.711	726.18
547.915	737.61
548.119	683.36
548.324	709.13
548.528	754.47
548.732	718.62
548.936	739.36
549.141	765.51
549.345	669.61
549.549	729.28
549.753	678.71
549.957	758.73
550.161	782.75
550.366	715.52
550.57	686.27
550.774	718.82
550.978	720.17
551.182	733.16
551.386	711.46
551.59	726.76
551.794	695.76
551.998	757.37
552.202	712.62
552.406	691.89
552.61	715.14
552.814	733.93
553.018	749.24
553.222	698.67
553.426	721.92
553.63	777.14
553.833	726.37
554.037	693.24
554.241	730.44
554.445	726.57
554.649	733.93
554.853	702.93
555.056	728.51
555.26	773.84
555.464	749.82
555.668	710.68
555.871	766.09
556.075	776.56
556.279	691.5
556.483	674.84
556.686	696.92
556.89	719.59
557.094	707.19
557.297	677.36
557.501	780.82
557.704	666.7
557.908	757.18
558.112	681.23
558.315	768.61
558.519	714.56
558.722	714.75
558.926	691.11
559.129	679.29
559.333	641.71
559.536	664.96
559.74	650.62
559.943	652.94
560.147	643.26
560.35	663.79
560.553	642.87
560.757	612.06
560.96	731.02
561.164	664.38
561.367	724.05
561.57	685.3
561.774	676.39
561.977	661.86
562.18	667.48
562.384	749.04
562.587	672.71
562.79	673.87
562.993	654.88
563.197	696.54
563.4	733.16
563.603	698.67
563.806	715.14
564.009	639.96
564.212	656.43
564.416	622.72
564.619	680.84
564.822	625.43
565.025	722.69
565.228	645.78
565.431	633.38
565.634	584.55
565.837	629.31
566.04	587.46
566.243	639.38
566.446	568.66
566.649	653.33
566.852	578.74
567.055	606.44
567.258	624.08
567.461	680.07
567.664	643.45
567.867	569.25
568.07	625.43
568.273	614.97
568.475	671.74
568.678	617.29
568.881	581.06
569.084	624.08
569.287	530.5
569.489	561.88
569.692	615.55
569.895	608.19
570.098	576.41
570.3	563.63
570.503	474.89
570.706	546.19
570.909	543.48
571.111	532.43
571.314	503.57
571.516	532.63
571.719	564.79
571.922	542.7
572.124	530.69
572.327	519.84
572.529	468.11
572.732	505.89
572.935	497.37
573.137	594.05
573.34	520.23
573.542	543.28
573.745	557.62
573.947	533.79
574.15	519.26
574.352	516.74
574.554	550.45
574.757	473.53
574.959	485.93
575.162	487.48
575.364	500.27
575.566	584.55
575.769	490.58
575.971	514.22
576.173	418.7
576.376	481.67
576.578	510.73
576.78	575.83
576.982	426.07
577.185	493.3
577.387	450.67
577.589	447.57
577.791	502.98
577.993	508.22
578.196	478.18
578.398	511.51
578.6	544.83
578.802	442.34
579.004	456.48
579.206	448.35
579.408	475.67
579.61	444.67
579.812	491.36
580.014	464.43
580.216	451.06
580.418	459.58
580.62	463.46
580.822	436.33
581.024	457.26
581.226	497.37
581.428	458.62
581.63	544.06
581.832	451.06
582.034	498.14
582.236	446.41
582.438	461.72
582.64	517.32
582.841	516.93
583.043	529.53
583.245	443.89
583.447	477.02
583.649	484.77
583.85	485.55
584.052	499.3
584.254	442.92
584.456	512.67
584.657	424.52
584.859	497.17
585.061	449.32
585.262	449.9
585.464	419.29
585.666	472.95
585.867	455.52
586.069	500.66
586.27	459.78
586.472	471.21
586.674	413.86
586.875	431.88
587.077	431.1
587.278	463.85
587.48	418.51
587.681	565.18
587.883	443.31
588.084	415.99
588.285	453.97
588.487	446.6
588.688	432.85
588.89	418.12
589.091	372.79
589.292	423.16
589.494	397.78
589.695	398.55
589.896	378.21
590.098	353.8
590.299	448.93
590.5	365.04
590.702	368.91
590.903	402.43
591.104	432.46
591.305	406.5
591.507	464.82
591.708	426.26
591.909	422.19
592.11	467.72
592.311	447.18
592.512	403.2
592.714	366.2
592.915	362.13
593.116	384.99
593.317	400.88
593.518	383.44
593.719	402.62
593.92	398.55
594.121	446.6
594.322	403.01
594.523	411.34
594.724	350.31
594.925	391.77
595.126	428.59
595.327	425.1
595.528	422.77
595.729	411.15
595.929	411.92
596.13	404.95
596.331	413.67
596.532	414.44
596.733	454.93
596.934	420.06
597.135	411.54
597.335	429.94
597.536	377.44
597.737	398.55
597.938	367.36
598.138	413.28
598.339	376.66
598.54	379.37
598.74	406.5
598.941	403.01
599.142	445.44
599.342	416.57
599.543	373.75
599.744	422.77
599.944	387.12
600.145	392.16
600.345	388.67
600.546	480.51
600.746	469.85
600.947	433.04
601.147	434.78
601.348	438.08
601.548	373.37
601.749	421.03
601.949	388.29
602.15	385.38
602.35	398.94
602.551	444.28
602.751	368.33
602.951	389.06
603.152	326.87
603.352	423.94
603.552	362.13
603.753	437.5
603.953	410.57
604.153	381.5
604.354	389.45
604.554	389.25
604.754	380.92
604.954	368.91
605.155	400.88
605.355	380.34
605.555	434.01
605.755	458.03
605.955	398.36
606.155	438.47
606.356	397
606.556	427.81
606.756	389.06
606.956	362.9
607.156	427.81
607.356	379.57
607.556	406.89
607.756	392.74
607.956	447.77
608.156	400.49
608.356	366
608.556	436.72
608.756	406.11
608.956	334.81
609.156	380.73
609.356	371.24
609.556	380.15
609.755	379.95
609.955	387.51
610.155	370.65
610.355	381.5
610.555	329.58
610.755	386.15
610.954	353.02
611.154	376.85
611.354	422.39
611.554	365.04
611.753	355.93
611.953	339.27
612.153	421.03
612.352	394.49
612.552	341.98
612.752	313.5
612.951	338.49
613.151	384.99
613.351	333.46
613.55	365.23
613.75	412.31
613.949	358.84
614.149	375.5
614.348	334.04
614.548	350.12
614.747	332.1
614.947	320.67
615.146	292.57
615.346	397
615.545	359.61
615.745	361.35
615.944	361.55
616.144	360.39
616.343	340.43
616.542	340.82
616.742	348.18
616.941	341.01
617.14	325.71
617.34	340.43
617.539	358.45
617.738	318.34
617.938	399.91
618.137	341.21
618.336	310.21
618.535	348.18
618.734	335.2
618.934	366
619.133	328.22
619.332	348.18
619.531	291.99
619.73	321.83
619.929	366.78
620.128	355.15
620.328	395.07
620.527	295.67
620.726	327.84
620.925	335.01
621.124	317.18
621.323	339.27
621.522	317.37
621.721	301.1
621.92	313.89
622.119	348.76
622.318	304.78
622.517	316.41
622.715	296.84
622.914	264.87
623.113	310.21
623.312	257.7
623.511	337.33
623.71	289.28
623.909	304.2
624.107	378.4
624.306	270.49
624.505	287.15
624.704	299.16
624.902	301.29
625.101	366
625.3	311.95
625.499	306.72
625.697	296.64
625.896	287.73
626.095	306.33
626.293	264.09
626.492	281.34
626.69	304.78
626.889	295.87
627.088	341.79
627.286	259.25
627.485	282.11
