Data from oakcork_FLMT105791__22__17-26-57-066.txt Node

Date: Mon Mar 20 17:26:57 GMT 2023
User: antho
Spectrometer: FLMT10579
Trigger mode: 0
Integration Time (sec): 1.000000E-1
Scans to average: 10
Electric dark correction enabled: true
Nonlinearity correction enabled: false
Boxcar width: 0
XAxis mode: Wavelengths
Number of Pixels in Spectrum: 3648
>>>>>Begin Spectral Data<<<<<
345.248	-165.93
345.464	-165.93
345.681	-165.93
345.898	-167.67
346.114	-151.4
346.331	-17.52
346.548	17.55
346.764	-20.04
346.981	4.57
347.197	-21.97
347.414	30.14
347.631	-23.33
347.847	70.83
348.064	3.6
348.28	17.36
348.497	-51.42
348.713	-9.77
348.93	37.89
349.146	19.88
349.363	-12.48
349.579	3.6
349.796	-3.37
350.012	-25.66
350.229	41.19
350.445	-0.08
350.661	-35.73
350.878	-1.63
351.094	40.8
351.311	-6.09
351.527	26.46
351.743	-12.67
351.96	3.6
352.176	28.98
352.392	15.23
352.609	32.08
352.825	-19.84
353.041	21.04
353.257	-22.17
353.474	24.33
353.69	42.35
353.906	3.99
354.122	-23.52
354.339	72.77
354.555	19.1
354.771	-14.22
354.987	59.79
355.203	57.66
355.42	3.21
355.636	2.24
355.852	-17.52
356.068	16.58
356.284	-22.94
356.5	52.04
356.716	13.68
356.932	6.12
357.148	43.51
357.364	-19.07
357.58	46.61
357.796	45.06
358.012	29.95
358.228	24.91
358.444	-52.59
358.66	59.59
358.876	39.83
359.092	-30.31
359.308	20.26
359.524	36.15
359.74	-14.81
359.956	15.03
360.172	26.85
360.388	46.81
360.604	-23.52
360.819	92.14
361.035	37.31
361.251	25.49
361.467	6.51
361.683	34.99
361.898	31.89
362.114	36.73
362.33	16.19
362.546	38.86
362.762	-7.83
362.977	-0.27
363.193	-24.3
363.409	59.21
363.624	-15.97
363.84	6.89
364.056	-25.27
364.271	42.93
364.487	21.04
364.703	-6.67
364.918	-23.91
365.134	-13.84
365.35	44.09
365.565	104.93
365.781	25.11
365.996	12.71
366.212	59.01
366.427	19.88
366.643	-6.28
366.858	-12.29
367.074	-13.26
367.289	61.34
367.505	88.46
367.72	-16.74
367.936	-5.31
368.151	50.49
368.367	37.89
368.582	19.29
368.798	-0.27
369.013	35.76
369.228	30.14
369.444	4.38
369.659	63.47
369.874	41.19
370.09	68.7
370.305	-32.63
370.52	2.24
370.736	68.7
370.951	-3.57
371.166	72.77
371.381	87.69
371.597	45.06
371.812	-35.73
372.027	0.31
372.242	36.92
372.458	102.8
372.673	20.65
372.888	2.44
373.103	24.91
373.318	115.01
373.533	38.09
373.749	40.99
373.964	-13.84
374.179	56.3
374.394	-1.63
374.609	75.48
374.824	-10.35
375.039	55.52
375.254	-8.22
375.469	82.65
375.684	28.4
375.899	83.04
376.114	17.16
376.329	6.89
376.544	57.46
376.759	70.06
376.974	-0.66
377.189	-4.34
377.404	17.36
377.619	76.06
377.834	-3.37
378.049	10.77
378.264	-8.8
378.478	29.76
378.693	-0.47
378.908	54.36
379.123	57.07
379.338	77.03
379.553	32.66
379.767	42.93
379.982	48.55
380.197	38.86
380.412	40.8
380.626	29.76
380.841	97.37
381.056	69.67
381.271	79.55
381.485	16.97
381.7	2.24
381.915	48.74
382.129	22.98
382.344	52.42
382.559	14.64
382.773	58.62
382.988	10.58
383.202	43.32
383.417	-10.35
383.632	106.29
383.846	40.61
384.061	45.06
384.275	0.11
384.49	39.06
384.704	49.91
384.919	38.86
385.133	45.64
385.348	64.24
385.562	3.99
385.777	83.23
385.991	35.57
386.206	25.11
386.42	18.71
386.634	60.76
386.849	80.52
387.063	51.84
387.277	-16.55
387.492	17.16
387.706	-9.19
387.92	21.81
388.135	72.96
388.349	55.52
388.563	22.59
388.778	26.85
388.992	53.2
389.206	70.25
389.42	81.68
389.635	56.3
389.849	71.41
390.063	81.1
390.277	56.69
390.491	96.99
390.706	53.2
390.92	90.98
391.134	24.72
391.348	82.26
391.562	16.39
391.776	42.54
391.99	42.54
392.205	66.57
392.419	19.68
392.633	42.35
392.847	107.84
393.061	19.1
393.275	111.32
393.489	44.67
393.703	42.74
393.917	64.05
394.131	25.88
394.345	59.01
394.559	71.02
394.773	42.16
394.986	63.66
395.2	37.7
395.414	81.87
395.628	8.06
395.842	70.83
396.056	54.75
396.27	9.22
396.484	53.2
396.697	82.84
396.911	90.59
397.125	62.11
397.339	96.79
397.553	57.66
397.766	131.67
397.98	85.36
398.194	94.27
398.408	67.15
398.621	86.14
398.835	118.11
399.049	80.32
399.262	126.44
399.476	119.46
399.69	97.76
399.903	160.92
400.117	86.72
400.331	110.74
400.544	73.93
400.758	205.1
400.971	97.37
401.185	115.39
401.398	54.94
401.612	139.22
401.826	88.85
402.039	145.04
402.253	89.24
402.466	123.14
402.68	99.12
402.893	103.38
403.106	101.83
403.32	85.75
403.533	114.23
403.747	75.67
403.96	131.86
404.174	136.7
404.387	71.02
404.6	120.24
404.814	135.93
405.027	94.08
405.24	123.14
405.454	86.72
405.667	157.24
405.88	34.99
406.094	130.89
406.307	140.77
406.52	129.73
406.733	85.56
406.947	69.86
407.16	163.83
407.373	142.13
407.586	71.99
407.799	82.65
408.012	144.07
408.226	144.26
408.439	166.54
408.652	69.47
408.865	148.14
409.078	133.41
409.291	116.75
409.504	69.09
409.717	142.9
409.93	101.06
410.143	136.51
410.357	75.67
410.57	74.32
410.783	91.56
410.996	148.72
411.209	118.49
411.421	149.3
411.634	128.37
411.847	93.11
412.06	105.12
412.273	127.4
412.486	134.38
412.699	210.91
412.912	121.98
413.125	137.87
413.338	136.7
413.55	141.16
413.763	123.53
413.976	164.8
414.189	103.57
414.402	112.29
414.615	183.59
414.827	83.42
415.04	160.34
415.253	141.16
415.466	167.12
415.678	192.12
415.891	139.22
416.104	119.46
416.316	142.13
416.529	113.84
416.742	170.22
416.954	173.13
417.167	159.57
417.38	117.14
417.592	174.87
417.805	132.25
418.017	102.61
418.23	158.4
418.442	121.4
418.655	135.15
418.868	140
419.08	179.14
419.293	168.09
419.505	135.74
419.718	155.89
419.93	187.85
420.142	162.09
420.355	194.25
420.567	202.39
420.78	163.64
420.992	143.87
421.205	205.68
421.417	118.3
421.629	122.95
421.842	121.01
422.054	101.25
422.266	159.95
422.479	187.85
422.691	140.19
422.903	195.22
423.115	127.21
423.328	119.07
423.54	152.98
423.752	156.27
423.964	116.75
424.177	178.36
424.389	152.01
424.601	262.83
424.813	159.76
425.025	191.54
425.238	203.35
425.45	152.79
425.662	143.49
425.874	457.94
426.086	150.46
426.298	183.4
426.51	185.14
426.722	188.82
426.934	171.19
427.146	192.89
427.358	111.13
427.57	215.95
427.782	167.32
427.994	145.23
428.206	115.97
428.418	130.31
428.63	174.87
428.842	228.93
429.054	152.4
429.266	206.26
429.478	164.8
429.69	183.79
429.902	121.21
430.114	174.1
430.325	177.97
430.537	108.61
430.749	147.75
430.961	102.8
431.173	127.99
431.384	194.64
431.596	86.72
431.808	165.96
432.02	183.2
432.231	192.12
432.443	219.82
432.655	189.99
432.867	162.09
433.078	170.42
433.29	252.95
433.502	220.4
433.713	243.07
433.925	208.59
434.136	239
434.348	132.64
434.56	118.49
434.771	256.63
434.983	158.21
435.194	191.34
435.406	209.36
435.617	238.42
435.829	271.36
436.04	234.55
436.252	220.4
436.463	272.52
436.675	249.85
436.886	266.71
437.098	228.35
437.309	278.53
437.521	239.39
437.732	240.94
437.943	209.55
438.155	244.82
438.366	194.05
438.578	309.91
438.789	227.57
439	243.85
439.211	192.89
439.423	226.6
439.634	260.12
439.845	272.91
440.057	228.73
440.268	252.76
440.479	228.54
440.69	246.95
440.902	200.25
441.113	251.21
441.324	218.08
441.535	253.34
441.746	284.53
441.957	220.6
442.168	223.89
442.38	228.15
442.591	267.48
442.802	233.77
443.013	210.91
443.224	241.52
443.435	252.57
443.646	259.15
443.857	270.97
444.068	241.33
444.279	250.82
444.49	330.84
444.701	266.9
444.912	359.32
445.123	316.89
445.334	295.38
445.545	262.25
445.756	236.68
445.967	228.15
446.178	246.95
446.388	301.58
446.599	309.14
446.81	314.37
447.021	255.67
447.232	299.26
447.443	333.16
447.653	283.57
447.864	318.25
448.075	285.5
448.286	299.84
448.496	310.5
448.707	314.37
448.918	282.4
449.129	375.01
449.339	254.31
449.55	320.57
449.761	276.78
449.971	356.03
450.182	284.73
450.393	332.58
450.603	280.47
450.814	331.61
451.024	301
451.235	365.13
451.446	357.38
451.656	359.9
451.867	279.3
452.077	306.04
452.288	375.98
452.498	350.8
452.709	291.51
452.919	334.52
453.13	282.98
453.34	344.01
453.55	245.4
453.761	334.33
453.971	332.2
454.182	342.85
454.392	325.41
454.602	402.53
454.813	353.7
455.023	341.88
455.233	285.7
455.444	313.6
455.654	256.83
455.864	308.36
456.075	346.73
456.285	306.23
456.495	345.56
456.705	357.96
456.916	352.15
457.126	388.19
457.336	352.93
457.546	283.76
457.756	298.1
457.967	373.46
458.177	306.23
458.387	324.25
458.597	319.21
458.807	332
459.017	320.96
459.227	315.73
459.437	320.96
459.647	348.66
459.857	355.64
460.068	318.44
460.278	400.59
460.488	339.75
460.698	400.2
460.908	338.98
461.117	325.61
461.327	334.52
461.537	372.3
461.747	357.77
461.957	363.2
462.167	456.78
462.377	381.21
462.587	363.58
462.797	379.08
463.007	354.48
463.216	387.22
463.426	392.06
463.636	366.88
463.846	332.97
464.056	367.26
464.265	373.46
464.475	357.38
464.685	373.08
464.895	387.22
465.104	345.76
465.314	371.33
465.524	374.05
465.733	313.4
465.943	437.01
466.153	432.94
466.362	408.92
466.572	383.73
466.782	384.51
466.991	390.13
467.201	455.81
467.41	345.95
467.62	419.77
467.829	367.46
468.039	431.2
468.249	401.94
468.458	402.33
468.668	427.91
468.877	426.74
469.086	437.21
469.296	428.29
469.505	373.08
469.715	472.47
469.924	428.1
470.134	429.46
470.343	445.54
470.552	393.61
470.762	413.57
470.971	383.15
471.18	414.15
471.39	420.54
471.599	407.18
471.808	443.41
472.018	405.63
472.227	479.25
472.436	452.32
472.645	430.62
472.855	418.61
473.064	494.56
473.273	485.84
473.482	475.57
473.691	508.89
473.901	488.36
474.11	461.81
474.319	503.86
474.528	476.54
474.737	519.94
474.946	491.65
475.155	490.29
475.364	512.38
475.573	495.72
475.783	491.07
475.992	490.29
476.201	532.14
476.41	495.91
476.619	474.21
476.828	481.77
477.037	455.03
477.245	459.88
477.454	554.81
477.663	497.27
477.872	492.04
478.081	566.24
478.29	489.91
478.499	599.37
478.708	499.01
478.917	609.25
479.125	531.56
479.334	555.39
479.543	520.71
479.752	574.96
479.961	562.56
480.169	596.66
480.378	544.54
480.587	665.44
480.796	595.3
481.004	580.39
481.213	583.49
481.422	608.09
481.63	569.92
481.839	614.68
482.048	626.89
482.256	598.4
482.465	604.22
482.674	629.99
482.882	658.85
483.091	700.32
483.299	650.91
483.508	649.55
483.716	637.15
483.925	653.23
484.134	613.71
484.342	607.7
484.551	665.63
484.759	659.24
484.967	674.93
485.176	669.51
485.384	677.65
485.593	676.48
485.801	655.17
486.01	629.02
486.218	599.57
486.426	555.97
486.635	576.9
486.843	585.81
487.051	622.04
487.26	582.52
487.468	660.4
487.676	653.82
487.885	621.27
488.093	659.24
488.301	682.1
488.509	682.49
488.717	705.55
488.926	668.93
489.134	658.47
489.342	702.83
489.55	643.94
489.758	682.1
489.967	696.63
490.175	797.58
490.383	682.88
490.591	780.33
490.799	676.48
491.007	765.03
491.215	733.06
491.423	746.23
491.631	744.3
491.839	724.92
492.047	778.4
492.255	667.77
492.463	675.13
492.671	713.88
492.879	735.19
493.087	748.36
493.295	752.82
493.503	750.69
493.711	784.4
493.919	811.14
494.127	771.03
494.334	826.64
494.542	711.94
494.75	776.85
494.958	758.83
495.166	796.03
495.374	791.18
495.581	797.58
495.789	786.73
495.997	813.85
496.205	757.47
496.412	782.08
496.62	787.5
496.828	809.78
497.035	781.88
497.243	810.56
497.451	774.71
497.658	790.21
497.866	822.18
498.074	840.98
498.281	790.21
498.489	875.66
498.696	802.42
498.904	779.75
499.112	799.51
499.319	877.01
499.527	798.35
499.734	832.84
499.942	764.64
500.149	787.11
500.357	812.69
500.564	748.95
500.771	816.76
500.979	754.18
501.186	779.75
501.394	808.81
501.601	795.06
501.808	838.46
502.016	791.96
502.223	816.37
502.43	818.11
502.638	799.51
502.845	777.43
503.052	857.64
503.26	826.06
503.467	902.59
503.674	795.06
503.881	846.21
504.089	896.39
504.296	893.29
504.503	773.16
504.71	822.38
504.917	782.46
505.125	843.11
505.332	831.87
505.539	868.88
505.746	907.82
505.953	871.01
506.16	895.42
506.367	913.63
506.574	940.76
506.781	928.55
506.988	881.47
507.195	890.38
507.402	879.92
507.609	913.44
507.816	862.87
508.023	875.08
508.23	883.79
508.437	837.88
508.644	910.72
508.851	929.13
509.058	916.34
509.265	911.89
509.472	922.35
509.679	982.61
509.885	878.37
510.092	904.14
510.299	946.76
510.506	907.24
510.713	905.88
510.92	918.09
511.126	923.9
511.333	978.34
511.54	962.26
511.746	998.3
511.953	953.16
512.16	1012.44
512.367	939.4
512.573	939.98
512.78	945.41
512.987	931.07
513.193	925.84
513.4	906.46
513.606	925.26
513.813	948.7
514.02	941.53
514.226	1024.26
514.433	989.97
514.639	926.22
514.846	935.72
515.052	927.58
515.259	951.22
515.465	975.05
515.672	949.47
515.878	1052.55
516.085	952.96
516.291	1015.35
516.497	961.87
516.704	917.51
516.91	930.1
517.117	846.79
517.323	839.81
517.529	883.79
517.736	902.01
517.942	910.53
518.148	899.1
518.354	922.74
518.561	935.72
518.767	933.78
518.973	982.99
519.179	989.19
519.386	915.18
519.592	941.34
519.798	956.26
520.004	1010.5
520.21	1002.37
520.417	1017.87
520.623	1057.2
520.829	1017.67
521.035	1019.22
521.241	1043.83
521.447	1044.41
521.653	1147.48
521.859	1044.6
522.065	1100.79
522.271	1163.57
522.477	1098.08
522.683	1146.52
522.889	1077.15
523.095	1093.23
523.301	1115.9
523.507	1046.93
523.713	1119.97
523.919	1056.81
524.125	1136.44
524.331	1100.6
524.537	1201.73
524.742	1166.67
524.948	1178.87
525.154	1167.83
525.36	1274
525.566	1194.18
525.772	1237.19
525.977	1133.53
526.183	1173.06
526.389	1185.85
526.595	1140.7
526.8	1125.59
527.006	1063.4
527.212	1047.12
527.417	1075.8
527.623	1053.9
527.829	1110.67
528.034	1131.98
528.24	1152.91
528.446	1118.23
528.651	1203.67
528.857	1197.08
529.062	1262.18
529.268	1223.05
529.473	1231.57
529.679	1218.98
529.884	1276.52
530.09	1264.31
530.295	1267.99
530.501	1277.88
530.706	1244.16
530.912	1222.46
531.117	1259.66
531.323	1271.68
531.528	1288.14
531.733	1283.69
531.939	1266.25
532.144	1298.03
532.35	1298.99
532.555	1303.64
532.76	1278.26
532.966	1297.25
533.171	1266.06
533.376	1243.2
533.581	1197.66
533.787	1244.75
533.992	1289.69
534.197	1339.1
534.402	1267.61
534.607	1257.73
534.813	1388.31
535.018	1282.53
535.223	1264.89
535.428	1294.15
535.633	1334.64
535.838	1347.43
536.043	1350.34
536.249	1416.02
536.454	1332.32
536.659	1341.04
536.864	1324.38
537.069	1321.28
537.274	1340.84
537.479	1341.04
537.684	1319.92
537.889	1294.15
538.094	1416.79
538.299	1316.43
538.504	1367.58
538.708	1362.54
538.913	1366.03
539.118	1319.73
539.323	1381.53
539.528	1315.85
539.733	1361.96
539.938	1390.06
540.142	1370.87
540.347	1333.48
540.552	1317.21
540.757	1304.81
540.962	1322.63
541.166	1283.11
541.371	1294.15
541.576	1326.31
541.781	1249.59
541.985	1340.84
542.19	1374.75
542.395	1390.25
542.599	1432.1
542.804	1392.38
543.008	1415.05
543.213	1341.23
543.418	1322.24
543.622	1376.69
543.827	1309.07
544.031	1410.79
544.236	1445.08
544.44	1405.56
544.645	1444.69
544.849	1400.32
545.054	1426.87
545.258	1449.92
545.463	1448.57
545.667	1354.02
545.872	1418.54
546.076	1422.41
546.281	1413.5
546.485	1363.12
546.689	1395.09
546.894	1445.85
547.098	1420.09
547.302	1373.59
547.507	1397.42
547.711	1424.74
547.915	1453.99
548.119	1378.43
548.324	1409.04
548.528	1473.95
548.732	1424.74
548.936	1450.5
549.141	1454.19
549.345	1390.25
549.549	1446.63
549.753	1435.2
549.957	1506.11
550.161	1495.07
550.366	1380.37
550.57	1373.2
550.774	1424.35
550.978	1416.79
551.182	1449.54
551.386	1396.45
551.59	1414.86
551.794	1428.61
551.998	1424.93
552.202	1407.11
552.406	1372.04
552.61	1457.09
552.814	1445.66
553.018	1464.65
553.222	1392.57
553.426	1430.36
553.63	1508.24
553.833	1436.94
554.037	1365.26
554.241	1464.84
554.445	1441.2
554.649	1443.92
554.853	1414.66
555.056	1463.68
555.26	1461.55
555.464	1436.94
555.668	1445.85
555.871	1455.15
556.075	1466.78
556.279	1425.32
556.483	1348.01
556.686	1383.86
556.89	1405.56
557.094	1423.38
557.297	1352.66
557.501	1462.13
557.704	1363.12
557.908	1432.49
558.112	1350.72
558.315	1441.4
558.519	1398.97
558.722	1358.28
558.926	1368.74
559.129	1316.43
559.333	1303.45
559.536	1321.08
559.74	1330.58
559.943	1327.09
560.147	1283.88
560.35	1303.45
560.553	1319.53
560.757	1272.64
560.96	1394.12
561.164	1330.77
561.367	1433.84
561.57	1339.1
561.774	1358.86
561.977	1317.59
562.18	1317.01
562.384	1383.47
562.587	1340.26
562.79	1325.34
562.993	1318.18
563.197	1353.44
563.4	1386.76
563.603	1393.93
563.806	1394.12
564.009	1328.06
564.212	1328.25
564.416	1245.13
564.619	1353.63
564.822	1268.77
565.025	1322.83
565.228	1314.88
565.431	1334.26
565.634	1205.22
565.837	1284.27
566.04	1238.55
566.243	1249.98
566.446	1186.62
566.649	1264.51
566.852	1195.73
567.055	1257.73
567.258	1279.43
567.461	1312.36
567.664	1338.13
567.867	1224.79
568.07	1268.96
568.273	1277.68
568.475	1270.13
568.678	1208.13
568.881	1252.69
569.084	1233.51
569.287	1149.23
569.489	1192.24
569.692	1247.85
569.895	1232.73
570.098	1176.35
570.3	1175
570.503	1125.78
570.706	1126.37
570.909	1158.33
571.111	1135.86
571.314	1107.96
571.516	1125.98
571.719	1175.96
571.922	1130.82
572.124	1125.59
572.327	1124.62
572.529	1090.52
572.732	1119.97
572.935	1160.27
573.137	1185.85
573.34	1122.1
573.542	1152.72
573.745	1180.81
573.947	1149.81
574.15	1119.2
574.352	1103.89
574.554	1169.57
574.757	1097.11
574.959	1114.93
575.162	1095.17
575.364	1075.8
575.566	1214.52
575.769	1050.03
575.971	1099.63
576.173	998.88
576.376	1073.86
576.578	1098.66
576.78	1158.14
576.982	1015.74
577.185	1055.45
577.387	1040.92
577.589	1074.25
577.791	1085.68
577.993	1097.3
578.196	1054.49
578.398	1088.39
578.6	1085.29
578.802	1033.75
579.004	1004.5
579.206	1035.11
579.408	1061.65
579.61	1005.27
579.812	1076.96
580.014	1018.45
580.216	1034.14
580.418	1019.8
580.62	1012.05
580.822	979.89
581.024	1033.75
581.226	1102.53
581.428	1039.76
581.63	1130.63
581.832	1026.78
582.034	1099.43
582.236	1061.07
582.438	1107.38
582.64	1118.03
582.841	1118.03
583.043	1161.05
583.245	1119
583.447	1098.85
583.649	1060.88
583.85	1094.4
584.052	1148.65
584.254	1052.16
584.456	1097.69
584.657	1042.67
584.859	1067.85
585.061	1049.64
585.262	1068.82
585.464	1004.89
585.666	1075.22
585.867	1026.39
586.069	1100.98
586.27	1070.57
586.472	1050.22
586.674	1036.08
586.875	1032.01
587.077	1014.19
587.278	1060.69
587.48	1046.54
587.681	1127.92
587.883	1043.83
588.084	951.99
588.285	1000.82
588.487	979.12
588.688	999.65
588.89	954.32
589.091	909.37
589.292	929.13
589.494	933.2
589.695	878.76
589.896	830.71
590.098	846.4
590.299	912.86
590.5	878.95
590.702	919.64
590.903	908.21
591.104	979.51
591.305	930.29
591.507	997.14
591.708	992.29
591.909	915.18
592.11	1019.8
592.311	981.83
592.512	954.12
592.714	889.41
592.915	927
593.116	887.86
593.317	924.67
593.518	941.34
593.719	939.01
593.92	972.14
594.121	1023.49
594.322	954.9
594.523	963.04
594.724	913.82
594.925	940.37
595.126	914.99
595.327	952.96
595.528	960.13
595.729	937.66
595.929	947.34
596.13	934.75
596.331	963.04
596.532	931.84
596.733	993.65
596.934	964.78
597.135	969.43
597.335	931.84
597.536	910.34
597.737	932.04
597.938	918.86
598.138	957.22
598.339	952.77
598.54	958.77
598.74	924.67
598.941	924.87
599.142	990.16
599.342	937.27
599.543	901.43
599.744	904.91
599.944	933.97
600.145	941.14
600.345	946.57
600.546	997.72
600.746	967.11
600.947	1007.21
601.147	940.17
601.348	986.48
601.548	934.36
601.749	906.66
601.949	882.63
602.15	899.68
602.35	924.48
602.551	959.16
602.751	889.22
602.951	928.55
603.152	834.78
603.352	931.26
603.552	902.2
603.753	982.22
603.953	981.83
604.153	923.12
604.354	940.76
604.554	885.73
604.754	922.93
604.954	899.68
605.155	939.01
605.355	886.12
605.555	964.39
605.755	987.45
605.955	952.96
606.155	963.23
606.356	920.02
606.556	912.86
606.756	921.57
606.956	880.69
607.156	978.92
607.356	908.21
607.556	932.81
607.756	907.43
607.956	1003.72
608.156	929.52
608.356	897.36
608.556	904.53
608.756	899.49
608.956	873.14
609.156	903.94
609.356	870.81
609.556	868.68
609.755	905.3
609.955	853.76
610.155	873.53
610.355	878.76
610.555	842.91
610.755	874.69
610.954	827.99
611.154	895.42
611.354	936.49
611.554	847.37
611.753	859.38
611.953	824.51
612.153	905.49
612.352	897.36
612.552	847.76
612.752	800.29
612.951	871.98
613.151	875.66
613.351	831.48
613.55	847.76
613.75	861.9
613.949	837.68
614.149	845.43
614.348	843.69
614.548	831.09
614.747	810.95
614.947	822.76
615.146	799.51
615.346	873.14
615.545	852.02
615.745	839.62
615.944	874.69
616.144	840.59
616.343	878.56
616.542	816.95
616.742	850.28
616.941	815.4
617.14	795.83
617.34	800.87
617.539	838.26
617.738	778.01
617.938	870.23
618.137	836.13
618.336	773.94
618.535	827.41
618.734	790.99
618.934	867.71
619.133	846.79
619.332	816.56
619.531	793.9
619.73	831.87
619.929	852.41
