Data from oakcork_FLMT105791__193__17-32-06-057.txt Node

Date: Mon Mar 20 17:32:06 GMT 2023
User: antho
Spectrometer: FLMT10579
Trigger mode: 0
Integration Time (sec): 1.000000E-1
Scans to average: 10
Electric dark correction enabled: true
Nonlinearity correction enabled: false
Boxcar width: 0
XAxis mode: Wavelengths
Number of Pixels in Spectrum: 3648
>>>>>Begin Spectral Data<<<<<
345.248	-132.59
345.464	-132.59
345.681	-132.59
345.898	-150.41
346.114	-141.31
346.331	-33
346.548	26.48
346.764	10.59
346.981	20.28
347.197	-21.18
347.414	11.37
347.631	-33.39
347.847	53.6
348.064	-5.49
348.28	6.52
348.497	-36.3
348.713	0.52
348.93	39.07
349.146	16.99
349.363	-24.86
349.579	14.08
349.796	-2.78
350.012	14.85
350.229	49.53
350.445	6.14
350.661	-5.3
350.878	27.84
351.094	11.37
351.311	10.4
351.527	17.57
351.743	-11.3
351.96	12.14
352.176	31.52
352.392	3.42
352.609	29.19
352.825	-12.85
353.041	22.6
353.257	10.2
353.474	8.85
353.69	23.38
353.906	15.44
354.122	-45.79
354.339	64.65
354.555	-2.97
354.771	-25.25
354.987	42.17
355.203	55.15
355.42	-18.08
355.636	-25.45
355.852	-12.85
356.068	2.26
356.284	-22.93
356.5	56.51
356.716	50.7
356.932	1.68
357.148	40.82
357.364	13.69
357.58	52.25
357.796	42.56
358.012	61.35
358.228	26.87
358.444	-29.32
358.66	80.15
358.876	0.52
359.092	-1.61
359.308	6.91
359.524	19.12
359.74	-2.97
359.956	-16.53
360.172	10.4
360.388	37.52
360.604	-24.48
360.819	74.33
361.035	24.74
361.251	33.45
361.467	-8.01
361.683	50.7
361.898	25.51
362.114	48.37
362.33	4.97
362.546	43.33
362.762	-28.16
362.977	0.32
363.193	-4.71
363.409	46.43
363.624	-42.88
363.84	-16.73
364.056	-6.46
364.271	17.95
364.487	15.44
364.703	-11.3
364.918	-14.79
365.134	-7.43
365.35	0.71
365.565	105.92
365.781	14.85
365.996	-2.39
366.212	64.26
366.427	10.98
366.643	0.71
366.858	13.5
367.074	-19.63
367.289	47.02
367.505	77.82
367.72	-25.83
367.936	26.09
368.151	23.57
368.367	34.03
368.582	19.89
368.798	1.1
369.013	52.44
369.228	24.93
369.444	11.17
369.659	56.12
369.874	37.33
370.09	62.9
370.305	-23.7
370.52	-7.43
370.736	40.82
370.951	-19.83
371.166	31.52
371.381	56.32
371.597	33.07
371.812	-37.46
372.027	-20.6
372.242	19.12
372.458	98.55
372.673	-20.8
372.888	14.47
373.103	6.52
373.318	83.83
373.533	1.68
373.749	18.15
373.964	-18.47
374.179	52.05
374.394	15.82
374.609	36.94
374.824	-18.28
375.039	64.45
375.254	-22.93
375.469	60.97
375.684	41.2
375.899	55.35
376.114	21.05
376.329	35.58
376.544	28.03
376.759	47.21
376.974	-8.4
377.189	-11.88
377.404	-19.05
377.619	49.34
377.834	-47.34
378.049	-22.35
378.264	-14.98
378.478	36.94
378.693	-24.28
378.908	26.48
379.123	-9.95
379.338	58.64
379.553	11.17
379.767	13.89
379.982	26.67
380.197	39.07
380.412	-15.37
380.626	29.58
380.841	96.62
381.056	26.29
381.271	54.57
381.485	-2
381.7	-38.43
381.915	49.73
382.129	-14.6
382.344	17.95
382.559	9.24
382.773	53.8
382.988	-12.27
383.202	27.84
383.417	2.07
383.632	108.24
383.846	-18.08
384.061	15.24
384.275	19.31
384.49	29.77
384.704	43.72
384.919	36.94
385.133	-6.65
385.348	48.76
385.562	1.87
385.777	32.1
385.991	4.2
386.206	0.71
386.42	15.63
386.634	73.17
386.849	28.61
387.063	22.02
387.277	-12.46
387.492	17.76
387.706	-19.63
387.92	2.07
388.135	59.22
388.349	17.18
388.563	28.61
388.778	19.89
388.992	38.68
389.206	64.26
389.42	75.5
389.635	1.49
389.849	59.42
390.063	63.68
390.277	13.11
390.491	72.59
390.706	55.54
390.92	31.52
391.134	14.27
391.348	20.28
391.562	-26.22
391.776	24.35
391.99	-7.23
392.205	48.18
392.419	3.42
392.633	8.07
392.847	76.47
393.061	-18.86
393.275	97.2
393.489	36.36
393.703	31.32
393.917	41.2
394.131	14.66
394.345	41.59
394.559	73.56
394.773	39.07
394.986	7.88
395.2	24.54
395.414	61.35
395.628	2.26
395.842	47.21
396.056	2.07
396.27	-28.16
396.484	11.75
396.697	59.03
396.911	52.44
397.125	66.39
397.339	57.67
397.553	55.54
397.766	91
397.98	42.37
398.194	61.55
398.408	27.06
398.621	53.8
398.835	61.74
399.049	40.62
399.262	77.05
399.476	81.12
399.69	26.87
399.903	94.1
400.117	27.84
400.331	72.01
400.544	18.15
400.758	128
400.971	21.64
401.185	61.93
401.398	-1.42
401.612	83.83
401.826	46.24
402.039	85.18
402.253	22.22
402.466	59.61
402.68	42.95
402.893	67.36
403.106	47.02
403.32	35.97
403.533	68.13
403.747	68.33
403.96	52.44
404.174	78.79
404.387	20.47
404.6	55.93
404.814	46.82
405.027	32.1
405.24	43.14
405.454	28.61
405.667	65.23
405.88	-17.31
406.094	53.22
406.307	86.73
406.52	49.92
406.733	25.9
406.947	-10.33
407.16	89.06
407.373	63.68
407.586	29.77
407.799	29
408.012	83.44
408.226	56.7
408.439	59.03
408.652	9.62
408.865	71.23
409.078	87.9
409.291	58.25
409.504	8.07
409.717	62.13
409.93	29.58
410.143	49.73
410.357	-1.23
410.57	-14.21
410.783	40.23
410.996	71.23
411.209	48.37
411.421	79.37
411.634	34.42
411.847	13.3
412.06	39.85
412.273	43.33
412.486	65.62
412.699	129.16
412.912	37.52
413.125	67.36
413.338	35.97
413.55	71.62
413.763	55.35
413.976	56.9
414.189	31.9
414.402	38.68
414.615	89.64
414.827	22.02
415.04	78.21
415.253	84.6
415.466	92.55
415.678	115.99
415.891	39.85
416.104	65.62
416.316	49.73
416.529	44.11
416.742	72.2
416.954	75.3
417.167	44.69
417.38	40.62
417.592	94.29
417.805	30.55
418.017	15.05
418.23	93.52
418.442	41.2
418.655	50.89
418.868	67.36
419.08	69.1
419.293	101.46
419.505	74.33
419.718	66.39
419.93	59.03
420.142	46.63
420.355	102.62
420.567	118.12
420.78	49.53
420.992	57.48
421.205	109.4
421.417	16.79
421.629	25.32
421.842	10.01
422.054	17.37
422.266	91.97
422.479	95.65
422.691	27.64
422.903	83.44
423.115	48.37
423.328	83.25
423.54	70.07
423.752	26.87
423.964	32.1
424.177	77.24
424.389	30.74
424.601	176.25
424.813	46.05
425.025	92.16
425.238	101.07
425.45	51.47
425.662	40.23
425.874	325.82
426.086	60.77
426.298	103.59
426.51	58.45
426.722	57.28
426.934	50.5
427.146	95.45
427.358	39.85
427.57	106.3
427.782	69.1
427.994	80.92
428.206	49.53
428.418	15.05
428.63	83.44
428.842	92.93
429.054	77.63
429.266	107.47
429.478	53.8
429.69	72.01
429.902	29.19
430.114	94.68
430.325	98.94
430.537	52.44
430.749	70.65
430.961	35.97
431.173	71.43
431.384	88.09
431.596	9.43
431.808	48.37
432.02	57.09
432.231	99.33
432.443	112.89
432.655	91.97
432.867	42.17
433.078	57.67
433.29	156.1
433.502	113.67
433.713	89.45
433.925	71.04
434.136	96.62
434.348	36.75
434.56	26.87
434.771	165.4
434.983	54.57
435.194	29.97
435.406	52.44
435.617	115.8
435.829	135.36
436.04	97.78
436.252	81.31
436.463	129.75
436.675	96.62
436.886	90.42
437.098	87.9
437.309	112.89
437.521	82.47
437.732	110.37
437.943	83.63
438.155	90.22
438.366	33.07
438.578	147.18
438.789	76.85
439	110.18
439.211	88.09
439.423	104.95
439.634	119.86
439.845	106.69
440.057	84.41
440.268	112.5
440.479	67.55
440.69	109.79
440.902	72.59
441.113	100.3
441.324	57.09
441.535	115.02
441.746	141.18
441.957	57.48
442.168	64.65
442.38	113.67
442.591	155.32
442.802	63.29
443.013	72.01
443.224	104.75
443.435	87.12
443.646	89.64
443.857	94.87
444.068	94.48
444.279	94.29
444.49	156.29
444.701	85.77
444.912	190.78
445.123	128.78
445.334	129.75
445.545	131.49
445.756	106.5
445.967	58.25
446.178	114.25
446.388	158.03
446.599	147.38
446.81	146.21
447.021	123.74
447.232	152.61
447.443	172.76
447.653	85.57
447.864	118.51
448.075	111.53
448.286	118.9
448.496	123.93
448.707	130.33
448.918	97
449.129	201.05
449.339	92.16
449.55	116.76
449.761	98.17
449.971	163.07
450.182	109.79
450.393	127.03
450.603	120.83
450.814	125.1
451.024	125.29
451.235	144.66
451.446	184.38
451.656	159.97
451.867	101.07
452.077	130.91
452.288	173.92
452.498	180.7
452.709	139.24
452.919	153.19
453.13	78.79
453.34	156.1
453.55	99.91
453.761	152.41
453.971	171.6
454.182	172.95
454.392	160.36
454.602	212.86
454.813	125.68
455.023	181.67
455.233	110.95
455.444	133.23
455.654	68.91
455.864	128.58
456.075	121.41
456.285	114.25
456.495	128.2
456.705	152.8
456.916	185.74
457.126	198.33
457.336	133.62
457.546	90.22
457.756	93.52
457.967	202.6
458.177	131.68
458.387	157.06
458.597	126.06
458.807	144.47
459.017	121.61
459.227	123.16
459.437	134.59
459.647	177.21
459.857	160.16
460.068	131.3
460.278	178.38
460.488	167.33
460.698	219.64
460.908	133.43
461.117	97.39
461.327	86.15
461.537	128.58
461.747	141.18
461.957	160.75
462.167	243.28
462.377	159.97
462.587	160.55
462.797	215.58
463.007	111.34
463.216	172.76
463.426	185.35
463.636	190.58
463.846	121.22
464.056	159.97
464.265	194.46
464.475	130.91
464.685	139.82
464.895	179.15
465.104	161.13
465.314	203.56
465.524	139.24
465.733	115.8
465.943	210.73
466.153	211.89
466.362	197.75
466.572	159.97
466.782	157.84
466.991	145.63
467.201	218.87
467.41	131.68
467.62	170.82
467.829	159.58
468.039	180.7
468.249	178.57
468.458	155.9
468.668	182.06
468.877	165.59
469.086	207.44
469.296	190
469.505	138.66
469.715	239.99
469.924	190.58
470.134	200.08
470.343	204.73
470.552	184.38
470.762	177.41
470.971	143.7
471.18	190.78
471.39	171.6
471.599	144.86
471.808	190.78
472.018	152.22
472.227	226.81
472.436	234.18
472.645	201.05
472.855	157.45
473.064	218.87
473.273	176.63
473.482	201.05
473.691	219.45
473.901	226.62
474.11	180.12
474.319	277.58
474.528	196.4
474.737	224.29
474.946	193.49
475.155	185.74
475.364	230.88
475.573	205.31
475.783	214.99
475.992	226.81
476.201	241.54
476.41	184.58
476.619	169.46
476.828	195.23
477.037	171.79
477.245	195.43
477.454	250.45
477.663	194.85
477.872	167.14
478.081	278.93
478.29	168.88
478.499	264.4
478.708	207.83
478.917	278.35
479.125	223.71
479.334	227.59
479.543	211.31
479.752	231.27
479.961	245.8
480.169	239.79
480.378	186.71
480.587	322.33
480.796	246.77
481.004	217.71
481.213	263.63
481.422	232.43
481.63	231.85
481.839	257.04
482.048	273.12
482.256	241.73
482.465	247.74
482.674	244.83
482.882	252
483.091	322.14
483.299	270.79
483.508	279.32
483.716	248.9
483.925	286.1
484.134	238.05
484.342	237.47
484.551	291.14
484.759	279.71
484.967	273.7
485.176	263.43
485.384	267.89
485.593	318.26
485.801	282.03
486.01	264.01
486.218	247.93
486.426	241.54
486.635	259.75
486.843	256.46
487.051	268.28
487.26	255.88
487.468	283.97
487.676	284.55
487.885	238.44
488.093	258.78
488.301	268.28
488.509	270.41
488.717	283.19
488.926	286.68
489.134	274.48
489.342	263.04
489.55	244.44
489.758	264.98
489.967	267.69
490.175	364.76
490.383	268.28
490.591	304.31
490.799	280.48
491.007	341.71
491.215	308.57
491.423	309.74
491.631	277.96
491.839	317.49
492.047	320.59
492.255	268.28
492.463	241.93
492.671	266.73
492.879	320.59
493.087	322.72
493.295	325.62
493.503	308.38
493.711	333.96
493.919	365.92
494.127	345.77
494.334	333.96
494.542	279.51
494.75	302.96
494.958	312.26
495.166	371.16
495.374	310.32
495.581	318.84
495.789	305.09
495.997	357.98
496.205	331.24
496.412	319.81
496.62	333.76
496.828	343.84
497.035	318.65
497.243	361.27
497.451	347.71
497.658	351.39
497.866	318.65
498.074	361.47
498.281	316.32
498.489	394.99
498.696	342.48
498.904	313.22
499.112	345.39
499.319	382.78
499.527	330.66
499.734	371.16
499.942	304.7
500.149	326.79
500.357	335.51
500.564	337.64
500.771	360.89
500.979	305.09
501.186	319.62
501.394	358.76
501.601	360.89
501.808	354.69
502.016	354.3
502.223	341.71
502.43	343.06
502.638	366.51
502.845	308.77
503.052	424.82
503.26	330.66
503.467	414.75
503.674	345.39
503.881	369.02
504.089	445.36
504.296	396.73
504.503	327.76
504.71	377.94
504.917	308.57
505.125	363.99
505.332	354.69
505.539	366.89
505.746	407.97
505.953	370.38
506.16	373.67
506.367	423.08
506.574	413
506.781	421.92
506.988	357.79
507.195	389.75
507.402	400.8
507.609	424.05
507.816	350.23
508.023	396.34
508.23	387.24
508.437	362.44
508.644	415.91
508.851	441.29
509.058	418.82
509.265	401.19
509.472	426.18
509.679	484.69
509.885	397.7
510.092	407.97
510.299	410.29
510.506	432.38
510.713	403.7
510.92	446.14
511.126	424.44
511.333	456.02
511.54	452.14
511.746	505.81
511.953	462.22
512.16	475.2
512.367	436.84
512.573	413
512.78	456.6
512.987	437.03
513.193	440.52
513.4	368.83
513.606	435.48
513.813	446.52
514.02	471.32
514.226	498.06
514.433	470.16
514.639	392.66
514.846	461.25
515.052	434.7
515.259	441.49
515.465	475.78
515.672	460.67
515.878	521.7
516.085	443.23
516.291	489.15
516.497	460.09
516.704	475.39
516.91	427.15
517.117	402.74
517.323	405.06
517.529	440.52
517.736	436.45
517.942	452.14
518.148	458.15
518.354	429.67
518.561	454.08
518.767	455.63
518.973	484.88
519.179	498.45
519.386	474.42
519.592	448.65
519.798	463.96
520.004	498.64
520.21	497.28
520.417	512.4
520.623	516.66
520.829	547.08
521.035	548.43
521.241	546.11
521.447	550.76
521.653	625.16
521.859	537.78
522.065	566.84
522.271	616.25
522.477	577.69
522.683	610.63
522.889	581.56
523.095	569.36
523.301	560.25
523.507	524.99
523.713	583.5
523.919	546.3
524.125	615.66
524.331	563.93
524.537	624.58
524.742	644.73
524.948	605.01
525.154	615.28
525.36	679.21
525.566	639.5
525.772	684.06
525.977	573.43
526.183	660.03
526.389	647.83
526.595	619.93
526.8	625.55
527.006	579.05
527.212	574.4
527.417	569.55
527.623	562.96
527.829	640.27
528.034	642.98
528.24	644.34
528.446	584.86
528.651	672.82
528.857	655.19
529.062	716.22
529.268	663.52
529.473	674.37
529.679	628.26
529.884	710.79
530.09	677.86
530.295	712.93
530.501	711.57
530.706	690.64
530.912	671.08
531.117	721.64
531.323	695.68
531.528	734.62
531.733	723.39
531.939	691.23
532.144	712.93
532.35	725.91
532.555	752.45
532.76	735.59
532.966	749.93
533.171	756.91
533.376	691.81
533.581	703.43
533.787	708.86
533.992	733.07
534.197	768.14
534.402	705.76
534.607	707.31
534.813	841.19
535.018	715.83
535.223	713.51
535.428	731.33
535.633	793.72
535.838	809.22
536.043	759.62
536.249	821.04
536.454	749.35
536.659	765.04
536.864	737.34
537.069	762.72
537.274	773.76
537.479	771.63
537.684	777.64
537.889	747.61
538.094	841.38
538.299	781.71
538.504	807.47
538.708	804.96
538.913	787.13
539.118	763.69
539.323	787.71
539.528	779.77
539.733	787.13
539.938	787.71
540.142	806.89
540.347	792.17
540.552	765.43
540.757	808.64
540.962	781.12
541.166	733.27
541.371	726.68
541.576	793.91
541.781	693.16
541.985	793.91
542.19	778.41
542.395	822.59
542.599	856.1
542.804	848.55
543.008	865.6
543.213	803.79
543.418	782.48
543.622	805.34
543.827	788.1
544.031	858.04
544.236	851.26
544.44	816.58
544.645	903.38
544.849	801.47
545.054	836.92
545.258	903.96
545.463	915.58
545.667	810.38
545.872	852.04
546.076	833.63
546.281	845.84
546.485	825.69
546.689	833.24
546.894	886.33
547.098	818.71
547.302	818.13
547.507	818.52
547.711	864.24
547.915	904.35
548.119	813.29
548.324	808.64
548.528	907.25
548.732	852.42
548.936	910.93
549.141	882.84
549.345	852.81
549.549	835.76
549.753	857.07
549.957	935.73
550.161	900.09
550.366	861.14
550.57	829.17
550.774	854.75
550.978	851.84
551.182	897.18
551.386	829.56
551.59	843.32
551.794	847.58
551.998	885.17
552.202	852.42
552.406	828.01
552.61	851.26
552.814	872.19
553.018	916.36
553.222	893.69
553.426	860.75
553.63	928.95
553.833	870.05
554.037	849.9
554.241	896.21
554.445	890.59
554.649	846.8
554.853	823.36
555.056	906.48
555.26	877.8
555.464	867.34
555.668	863.66
555.871	884.78
556.075	942.52
556.279	845.25
556.483	853.59
556.686	829.17
556.89	856.69
557.094	884.2
557.297	813.48
557.501	909.19
557.704	810.19
557.908	893.11
558.112	830.34
558.315	893.69
558.519	837.12
558.722	818.32
558.926	824.72
559.129	788.29
559.333	784.81
559.536	809.22
559.74	792.56
559.943	806.7
560.147	809.41
560.35	799.14
560.553	781.71
560.757	747.02
560.96	851.26
561.164	797.01
561.367	859.79
561.57	777.44
561.774	808.25
561.977	791.59
562.18	778.99
562.384	876.45
562.587	819.1
562.79	776.47
562.993	819.1
563.197	847.58
563.4	861.53
563.603	834.4
563.806	896.99
564.009	769.69
564.212	819.68
564.416	728.81
564.619	801.66
564.822	751.48
565.025	854.75
565.228	795.27
565.431	781.9
565.634	713.7
565.837	766.98
566.04	738.89
566.243	780.93
566.446	685.99
566.649	778.22
566.852	710.79
567.055	726.68
567.258	759.04
567.461	812.32
567.664	812.51
567.867	700.53
568.07	781.51
568.273	754
568.475	770.47
568.678	739.08
568.881	742.96
569.084	725.33
569.287	661.19
569.489	677.86
569.692	754.77
569.895	754.77
570.098	691.42
570.3	676.69
570.503	624.77
570.706	654.8
570.909	646.47
571.111	636.2
571.314	640.66
571.516	666.62
571.719	694.71
571.922	620.9
572.124	629.23
572.327	671.27
572.529	628.45
572.732	600.75
572.935	670.69
573.137	685.8
573.34	625.74
573.542	679.21
573.745	660.42
573.947	639.11
574.15	632.13
574.352	627.68
574.554	677.08
574.757	625.35
574.959	615.66
575.162	582.73
575.364	594.16
575.566	690.06
575.769	570.71
575.971	623.61
576.173	557.73
576.376	619.73
576.578	626.51
576.78	659.06
576.982	540.49
577.185	590.86
577.387	575.75
577.589	592.61
577.791	619.93
577.993	622.45
578.196	566.06
578.398	618.38
578.6	632.71
578.802	560.64
579.004	565.1
579.206	563.35
579.408	581.76
579.61	572.26
579.812	617.21
580.014	572.85
580.216	576.33
580.418	563.93
580.62	574.98
580.822	545.92
581.024	590.86
581.226	610.63
581.428	574.59
581.63	652.67
581.832	557.35
582.034	612.95
582.236	596.1
582.438	606.36
582.64	625.74
582.841	617.8
583.043	672.63
583.245	604.23
583.447	608.3
583.649	562.77
583.85	585.44
584.052	664.1
584.254	563.93
584.456	625.55
584.657	549.02
584.859	583.11
585.061	580.01
585.262	562.96
585.464	518.02
585.666	590.67
585.867	542.62
586.069	636.2
586.27	585.05
586.472	565.1
586.674	571.3
586.875	555.99
587.077	559.28
587.278	596.1
587.48	578.27
587.681	641.63
587.883	573.43
588.084	483.53
588.285	555.21
588.487	547.66
588.688	561.61
588.89	500.19
589.091	500.38
589.292	502.52
589.494	514.53
589.695	494.57
589.896	474.42
590.098	454.47
590.299	525.38
590.5	463.96
590.702	475.39
590.903	518.6
591.104	556.38
591.305	511.23
591.507	573.62
591.708	529.83
591.909	519.57
592.11	572.26
592.311	545.92
592.512	516.08
592.714	477.52
592.915	475
593.116	480.43
593.317	488.76
593.518	500.77
593.719	495.93
593.92	525.57
594.121	569.75
594.322	530.8
594.523	496.51
594.724	507.94
594.925	498.45
595.126	503.87
595.327	512.59
595.528	502.13
595.729	531.58
595.929	496.51
596.13	530.42
596.331	492.05
596.532	514.92
596.733	566.06
596.934	523.63
597.135	568.78
597.335	518.98
597.536	487.6
597.737	532.55
597.938	469.19
598.138	525.57
598.339	494.57
598.54	529.06
598.74	519.37
598.941	501.93
599.142	556.76
599.342	504.07
599.543	463.57
599.744	508.13
599.944	524.6
600.145	506.78
600.345	520.34
600.546	573.23
600.746	558.51
600.947	568.78
601.147	512.4
601.348	561.8
601.548	475.97
601.749	507.94
601.949	463.57
602.15	465.7
602.35	510.65
602.551	557.35
602.751	498.83
602.951	479.27
603.152	423.66
603.352	544.56
603.552	476.94
603.753	545.92
603.953	512.78
604.153	512.2
604.354	489.15
604.554	503.29
604.754	507.94
604.954	462.99
605.155	531.97
605.355	475.2
605.555	529.06
605.755	520.73
605.955	512.2
606.155	523.44
606.356	493.99
606.556	522.67
606.756	500.77
606.956	447.69
607.156	518.4
607.356	470.55
607.556	503.1
607.756	532.55
607.956	530.22
608.156	499.42
608.356	489.53
608.556	510.85
608.756	530.8
608.956	459.89
609.156	518.6
609.356	461.05
609.556	459.31
609.755	483.92
609.955	443.62
610.155	468.61
610.355	472.68
610.555	461.83
610.755	479.07
610.954	398.86
611.154	498.25
611.354	533.9
611.554	455.44
611.753	448.85
611.953	429.47
612.153	512.59
612.352	468.22
612.552	435.87
612.752	389.95
612.951	455.82
613.151	466.67
613.351	446.33
613.55	453.11
613.75	488.37
613.949	457.95
614.149	483.92
614.348	452.34
614.548	422.5
614.747	406.22
614.947	461.64
615.146	387.62
615.346	467.64
615.545	434.9
615.745	438.58
615.944	484.5
616.144	437.42
616.343	496.7
616.542	445.17
616.742	410.87
616.941	417.27
617.14	381.23
617.34	439.55
617.539	437.8
617.738	402.93
617.938	451.56
618.137	454.27
618.336	398.86
618.535	443.62
618.734	432.57
618.934	417.65
619.133	438.19
619.332	418.62
619.531	398.09
619.73	425.4
619.929	478.3
620.128	457.18
620.328	477.72
620.527	415.33
620.726	417.46
620.925	449.43
621.124	381.62
621.323	433.74
621.522	367.47
621.721	391.11
621.92	380.26
622.119	444.2
622.318	375.22
622.517	405.64
622.715	380.45
622.914	379.29
623.113	373.29
623.312	362.24
623.511	428.31
623.71	392.27
623.909	381.23
624.107	468.61
624.306	359.72
624.505	392.08
624.704	372.12
624.902	370.77
625.101	433.54
625.3	395.37
625.499	395.37
625.697	401.57
625.896	371.16
626.095	380.45
626.293	357.79
626.492	386.07
626.69	397.7
626.889	334.73
627.088	423.08
627.286	364.18
