Data from oakcork_FLMT105791__233__17-33-04-044.txt Node

Date: Mon Mar 20 17:33:04 GMT 2023
User: antho
Spectrometer: FLMT10579
Trigger mode: 0
Integration Time (sec): 1.000000E-1
Scans to average: 10
Electric dark correction enabled: true
Nonlinearity correction enabled: false
Boxcar width: 0
XAxis mode: Wavelengths
Number of Pixels in Spectrum: 3648
>>>>>Begin Spectral Data<<<<<
345.248	-157.98
345.464	-157.98
345.681	-157.98
345.898	-153.33
346.114	-157.6
346.331	-39.02
346.548	34.21
346.764	-21.97
346.981	18.52
347.197	5.54
347.414	20.65
347.631	-47.74
347.847	45.26
348.064	18.33
348.28	17.55
348.497	-39.41
348.713	-11.9
348.93	43.32
349.146	44.29
349.363	3.41
349.579	6.89
349.796	8.64
350.012	-3.57
350.229	30.34
350.445	6.51
350.661	-8.8
350.878	5.93
351.094	17.55
351.311	19.49
351.527	16.78
351.743	-20.23
351.96	50.49
352.176	38.09
352.392	22.59
352.609	33.63
352.825	-16.94
353.041	7.28
353.257	28.59
353.474	10.58
353.69	29.37
353.906	2.05
354.122	-15.58
354.339	63.27
354.555	14.84
354.771	4.76
354.987	71.99
355.203	61.14
355.42	5.73
355.636	7.86
355.852	-16.36
356.068	14.45
356.284	-11.9
356.5	58.82
356.716	31.89
356.932	18.33
357.148	15.81
357.364	10.77
357.58	39.25
357.796	61.92
358.012	48.55
358.228	12.13
358.444	-39.02
358.66	58.82
358.876	19.68
359.092	-17.91
359.308	24.91
359.524	29.37
359.74	-6.67
359.956	-7.44
360.172	19.68
360.388	47.97
360.604	25.3
360.819	84.39
361.035	26.85
361.251	35.76
361.467	-4.92
361.683	60.95
361.898	15.23
362.114	56.11
362.33	30.73
362.546	60.56
362.762	4.96
362.977	44.29
363.193	-3.18
363.409	58.82
363.624	0.69
363.84	-11.71
364.056	-2.02
364.271	24.14
364.487	23.36
364.703	-7.06
364.918	-1.44
365.134	18.33
365.35	20.84
365.565	103.19
365.781	20.46
365.996	57.85
366.212	87.88
366.427	61.72
366.643	21.43
366.858	18.91
367.074	-6.86
367.289	68.7
367.505	112.87
367.72	-11.51
367.936	27.04
368.151	64.82
368.367	55.72
368.582	31.5
368.798	30.73
369.013	61.14
369.228	29.37
369.444	12.13
369.659	64.05
369.874	59.4
370.09	73.74
370.305	-51.81
370.52	19.68
370.736	80.91
370.951	15.42
371.166	66.18
371.381	90.79
371.597	36.54
371.812	5.54
372.027	5.15
372.242	28.98
372.458	67.92
372.673	36.73
372.888	32.28
373.103	62.31
373.318	87.88
373.533	14.06
373.749	52.42
373.964	0.69
374.179	71.02
374.394	-0.86
374.609	53.78
374.824	11.35
375.039	69.47
375.254	10.38
375.469	101.06
375.684	38.67
375.899	71.02
376.114	27.43
376.329	48.36
376.544	53.78
376.759	67.92
376.974	14.64
377.189	33.83
377.404	41.38
377.619	56.49
377.834	-10.93
378.049	-1.05
378.264	5.93
378.478	67.73
378.693	9.41
378.908	48.94
379.123	26.66
379.338	79.55
379.553	42.35
379.767	38.28
379.982	57.07
380.197	60.76
380.412	31.31
380.626	42.16
380.841	117.52
381.056	51.26
381.271	102.61
381.485	11.93
381.7	10.96
381.915	62.69
382.129	40.61
382.344	34.21
382.559	22.78
382.773	58.43
382.988	-15.19
383.202	42.35
383.417	4.38
383.632	119.07
383.846	31.11
384.061	65.6
384.275	15.61
384.49	44.29
384.704	70.25
384.919	43.71
385.133	29.18
385.348	65.02
385.562	34.02
385.777	71.99
385.991	58.24
386.206	29.76
386.42	28.79
386.634	98.15
386.849	58.62
387.063	41.57
387.277	10.19
387.492	54.36
387.706	35.57
387.92	22.78
388.135	89.82
388.349	43.71
388.563	58.24
388.778	94.66
388.992	78.77
389.206	51.26
389.42	115.59
389.635	69.67
389.849	102.8
390.063	99.51
390.277	54.75
390.491	92.92
390.706	76.64
390.92	92.34
391.134	68.89
391.348	78
391.562	28.59
391.776	80.71
391.99	33.44
392.205	105.12
392.419	35.18
392.633	68.51
392.847	111.52
393.061	53.2
393.275	104.16
393.489	55.33
393.703	61.92
393.917	84.97
394.131	57.46
394.345	71.22
394.559	91.17
394.773	51.84
394.986	102.99
395.2	82.84
395.414	114.42
395.628	30.73
395.842	71.41
396.056	70.44
396.27	24.33
396.484	96.41
396.697	86.14
396.911	110.74
397.125	62.31
397.339	78.58
397.553	77.42
397.766	125.08
397.98	97.37
398.194	134.96
398.408	75.09
398.621	118.88
398.835	132.83
399.049	113.26
399.262	155.5
399.476	138.64
399.69	127.99
399.903	176.23
400.117	102.61
400.331	119.66
400.544	89.04
400.758	204.9
400.971	148.33
401.185	154.92
401.398	91.76
401.612	187.27
401.826	167.51
402.039	128.57
402.253	98.15
402.466	141.55
402.68	130.89
402.893	167.7
403.106	145.04
403.32	128.18
403.533	153.37
403.747	118.49
403.96	150.65
404.174	149.69
404.387	107.06
404.6	108.03
404.814	155.5
405.027	120.82
405.24	127.21
405.454	116.75
405.667	191.92
405.88	96.21
406.094	128.37
406.307	156.47
406.52	178.94
406.733	98.15
406.947	78
407.16	200.06
407.373	190.76
407.586	109.19
407.799	124.5
408.012	165.19
408.226	160.15
408.439	209.55
408.652	126.44
408.865	181.65
409.078	163.05
409.291	170.61
409.504	134.57
409.717	170.03
409.93	149.49
410.143	147.75
410.357	90.21
410.57	90.4
410.783	166.35
410.996	151.82
411.209	160.73
411.421	191.92
411.634	157.24
411.847	132.05
412.06	158.99
412.273	182.43
412.486	177.2
412.699	234.93
412.912	160.34
413.125	201.42
413.338	174.49
413.55	221.95
413.763	172.94
413.976	194.64
414.189	149.88
414.402	171.39
414.615	236.29
414.827	138.84
415.04	191.15
415.253	204.52
415.466	199.67
415.678	237.65
415.891	184.37
416.104	174.87
416.316	183.4
416.529	153.56
416.742	187.66
416.954	208.97
417.167	209.94
417.38	164.02
417.592	227.57
417.805	146.78
418.017	116.75
418.23	205.87
418.442	145.23
418.655	165.19
418.868	215.17
419.08	222.15
419.293	199.09
419.505	180.88
419.718	182.62
419.93	239.58
420.142	175.65
420.355	253.53
420.567	224.08
420.78	195.41
420.992	209.75
421.205	237.84
421.417	153.17
421.629	203.16
421.842	195.6
422.054	171.39
422.266	212.07
422.479	258.18
422.691	188.05
422.903	237.26
423.115	176.42
423.328	195.41
423.54	213.62
423.752	187.47
423.964	171.19
424.177	233.97
424.389	211.3
424.601	307.98
424.813	216.53
425.025	252.37
425.238	249.27
425.45	203.55
425.662	205.87
425.874	457.94
426.086	204.71
426.298	210.14
426.51	229.9
426.722	222.53
426.934	214.4
427.146	263.42
427.358	180.3
427.57	261.28
427.782	183.01
427.994	221.76
428.206	206.65
428.418	197.93
428.63	264.97
428.842	234.35
429.054	234.35
429.266	258.57
429.478	203.55
429.69	222.53
429.902	166.93
430.114	254.12
430.325	220.98
430.537	202.97
430.749	166.74
430.961	138.84
431.173	208
431.384	222.15
431.596	146.97
431.808	213.04
432.02	232.61
432.231	265.93
432.443	285.5
432.655	240.36
432.867	201.61
433.078	261.87
433.29	316.5
433.502	318.83
433.713	308.56
433.925	291.32
434.136	268.45
434.348	197.15
434.56	184.37
434.771	335.49
434.983	214.78
435.194	242.68
435.406	251.4
435.617	314.76
435.829	315.92
436.04	301.58
436.252	309.72
436.463	323.67
436.675	348.08
436.886	327.93
437.098	292.28
437.309	362.81
437.521	298.1
437.732	301.2
437.943	285.12
438.155	307.2
438.366	249.85
438.578	356.61
438.789	273.3
439	317.66
439.211	289.18
439.423	317.47
439.634	331.61
439.845	321.15
440.057	327.16
440.268	351.18
440.479	303.91
440.69	325.8
440.902	320.96
441.113	310.88
441.324	342.27
441.535	343.43
441.746	376.76
441.957	298.87
442.168	326.77
442.38	345.76
442.591	378.89
442.802	289.77
443.013	322.7
443.224	354.09
443.435	340.91
443.646	312.82
443.857	346.15
444.068	312.82
444.279	320.96
444.49	410.28
444.701	377.15
444.912	452.9
445.123	375.01
445.334	368.43
445.545	364.36
445.756	357.77
445.967	332.78
446.178	366.68
446.388	396.91
446.599	377.15
446.81	377.53
447.021	346.53
447.232	392.45
447.443	373.46
447.653	353.31
447.864	442.24
448.075	373.66
448.286	453.68
448.496	398.26
448.707	414.54
448.918	355.06
449.129	475.37
449.339	369.78
449.55	394.78
449.761	384.51
449.971	438.95
450.182	376.18
450.393	413.38
450.603	364.36
450.814	436.43
451.024	416.67
451.235	452.51
451.446	488.36
451.656	488.74
451.867	399.81
452.077	425.78
452.288	463.75
452.498	445.93
452.709	416.86
452.919	414.34
453.13	392.06
453.34	466.08
453.55	376.56
453.761	440.69
453.971	411.05
454.182	452.13
454.392	438.56
454.602	495.91
454.813	459.68
455.023	429.65
455.233	380.83
455.444	444.38
455.654	378.5
455.864	400.98
456.075	402.72
456.285	421.71
456.495	446.12
456.705	452.9
456.916	452.13
457.126	492.23
457.336	429.84
457.546	393.23
457.756	408.53
457.967	477.51
458.177	457.94
458.387	457.94
458.597	429.07
458.807	439.14
459.017	445.54
459.227	463.17
459.437	420.35
459.647	457.36
459.857	525.56
460.068	427.33
460.278	481.77
460.488	477.89
460.698	516.06
460.908	455.23
461.117	405.63
461.327	442.44
461.537	498.62
461.747	482.93
461.957	478.86
462.167	572.83
462.377	508.89
462.587	497.27
462.797	539.12
463.007	490.49
463.216	508.51
463.426	554.04
463.636	545.71
463.846	437.59
464.056	461.04
464.265	528.46
464.475	473.63
464.685	522.07
464.895	528.27
465.104	508.12
465.314	539.51
465.524	493.2
465.733	487.77
465.943	578.25
466.153	561.98
466.362	531.95
466.572	519.74
466.782	504.82
466.991	510.44
467.201	560.24
467.41	473.24
467.62	528.07
467.829	512.77
468.039	545.51
468.249	532.34
468.458	520.52
468.668	568.95
468.877	549.39
469.086	596.47
469.296	604.8
469.505	530.4
469.715	626.69
469.924	565.47
470.134	602.47
470.343	612.16
470.552	551.52
470.762	558.3
470.971	520.52
471.18	565.85
471.39	568.37
471.599	552.87
471.808	583.49
472.018	578.84
472.227	617.2
472.436	625.34
472.645	587.75
472.855	559.66
473.064	648.78
473.273	605.19
473.482	618.94
473.691	665.44
473.901	660.6
474.11	608.09
474.319	731.32
474.528	611.39
474.737	683.65
474.946	654.01
475.155	680.17
475.364	695.28
475.573	650.91
475.783	703.03
475.992	691.79
476.201	731.51
476.41	654.78
476.619	630.57
476.828	644.52
477.037	666.99
477.245	672.8
477.454	735.77
477.663	690.43
477.872	671.25
478.081	758.05
478.29	672.42
478.499	775.88
478.708	740.23
478.917	769.29
479.125	732.87
479.334	759.21
479.543	733.45
479.752	782.27
479.961	780.14
480.169	782.85
480.378	766.58
480.587	868.1
480.796	804.94
481.004	773.36
481.213	840.2
481.422	776.85
481.63	814.82
481.839	813.46
482.048	881.47
482.256	836.91
482.465	824.31
482.674	834.58
482.882	851.63
483.091	915.76
483.299	852.21
483.508	845.63
483.716	875.08
483.925	892.51
484.134	836.52
484.342	860.16
484.551	882.44
484.759	866.74
484.967	910.53
485.176	919.25
485.384	901.04
485.593	900.84
485.801	856.86
486.01	863.26
486.218	805.33
486.426	746.04
486.635	801.06
486.843	790.6
487.051	799.13
487.26	794.48
487.468	813.85
487.676	879.34
487.885	862.48
488.093	897.36
488.301	918.47
488.509	922.35
488.717	951.61
488.926	924.48
489.134	923.12
489.342	961.49
489.55	892.9
489.758	935.91
489.967	951.99
490.175	1051
490.383	990.55
490.591	1041.89
490.799	967.88
491.007	1018.84
491.215	1019.42
491.423	1001.4
491.631	985.51
491.839	1011.47
492.047	1002.56
492.255	939.79
492.463	958.58
492.671	954.71
492.879	1038.21
493.087	1024.84
493.295	1024.26
493.503	1060.1
493.711	1049.45
493.919	1060.1
494.127	1059.72
494.334	1098.66
494.542	1030.27
494.75	1060.69
494.958	1027.36
495.166	1131.21
495.374	1097.3
495.581	1097.88
495.789	1085.1
495.997	1118.62
496.205	1073.47
496.412	1090.33
496.62	1086.65
496.828	1117.65
497.035	1101.57
497.243	1125.59
497.451	1114.55
497.658	1110.67
497.866	1103.89
498.074	1161.63
498.281	1087.62
498.489	1168.22
498.696	1076.19
498.904	1092.07
499.112	1074.64
499.319	1181.78
499.527	1102.15
499.734	1136.83
499.942	1071.73
500.149	1074.64
500.357	1113.38
500.564	1044.02
500.771	1121.13
500.979	1073.28
501.186	1085.29
501.394	1101.76
501.601	1058.36
501.808	1102.73
502.016	1084.71
502.223	1102.73
502.43	1125.4
502.638	1106.22
502.845	1102.34
503.052	1183.52
503.26	1104.67
503.467	1178.29
503.674	1134.89
503.881	1143.8
504.089	1197.47
504.296	1138.77
504.503	1095.56
504.71	1113.38
504.917	1112.8
505.125	1133.73
505.332	1130.05
505.539	1165.12
505.746	1239.9
505.953	1224.6
506.16	1202.7
506.367	1231.96
506.574	1258.7
506.781	1258.89
506.988	1177.51
507.195	1258.11
507.402	1223.05
507.609	1229.25
507.816	1200.96
508.023	1180.42
508.23	1215.88
508.437	1143.22
508.644	1211.61
508.851	1221.88
509.058	1230.21
509.265	1221.11
509.472	1246.68
509.679	1333.68
509.885	1233.12
510.092	1230.8
510.299	1257.53
510.506	1239.71
510.713	1251.72
510.92	1241.06
511.126	1278.84
511.333	1303.64
511.54	1274
511.746	1365.84
511.953	1299.19
512.16	1370.87
512.367	1294.54
512.573	1290.86
512.78	1276.33
512.987	1238.16
513.193	1296.48
513.4	1222.08
513.606	1243
513.813	1305.78
514.02	1290.08
514.226	1356.34
514.433	1312.56
514.639	1226.92
514.846	1287.95
515.052	1252.88
515.259	1312.17
515.465	1301.13
515.672	1312.94
515.878	1369.91
516.085	1318.37
516.291	1358.47
516.497	1302.29
516.704	1276.91
516.91	1213.36
517.117	1172.86
517.323	1149.81
517.529	1177.13
517.736	1199.21
517.942	1182.36
518.148	1206.19
518.354	1233.9
518.561	1223.63
518.767	1254.63
518.973	1281.75
519.179	1309.46
519.386	1248.43
519.592	1266.83
519.798	1281.17
520.004	1364.48
520.21	1322.63
520.417	1349.76
520.623	1370.49
520.829	1416.99
521.035	1394.9
521.241	1402.07
521.447	1401.1
521.653	1499.33
521.859	1355.96
522.065	1453.8
522.271	1561.72
522.477	1457.48
522.683	1490.8
522.889	1423.96
523.095	1434.42
523.301	1454.77
523.507	1402.65
523.713	1427.06
523.919	1388.51
524.125	1537.11
524.331	1474.14
524.537	1572.37
524.742	1534.98
524.948	1556.29
525.154	1555.32
525.36	1642.9
525.566	1532.85
525.772	1592.91
525.977	1532.65
526.183	1547.57
526.389	1565.59
526.595	1508.24
526.8	1522.19
527.006	1473.37
527.212	1408.07
527.417	1422.02
527.623	1389.86
527.829	1477.63
528.034	1474.53
528.24	1513.28
528.446	1495.07
528.651	1609.76
528.857	1606.08
529.062	1633.98
529.268	1617.32
529.473	1616.74
529.679	1577.22
529.884	1717.29
530.09	1627.4
530.295	1650.84
530.501	1639.8
530.706	1629.14
530.912	1643.28
531.117	1643.09
531.323	1687.07
531.528	1692.3
531.733	1690.95
531.939	1670.41
532.144	1699.86
532.35	1695.6
532.555	1706.44
532.76	1671.57
532.966	1708.96
533.171	1649.29
533.376	1635.92
533.581	1630.11
533.787	1644.45
533.992	1684.75
534.197	1687.46
534.402	1681.45
534.607	1710.71
534.813	1807.77
535.018	1710.51
535.223	1751.01
535.428	1719.62
535.633	1783.56
535.838	1784.33
536.043	1762.24
536.249	1852.14
536.454	1787.62
536.659	1786.66
536.864	1766.31
537.069	1759.73
537.274	1806.22
537.479	1736.67
537.684	1779.68
537.889	1775.23
538.094	1849.43
538.299	1778.91
538.504	1879.46
538.708	1833.35
538.913	1849.43
539.118	1821.72
539.323	1806.81
539.528	1763.6
539.733	1811.65
539.938	1826.57
540.142	1821.92
540.347	1757.01
540.552	1763.99
540.757	1770.58
540.962	1754.88
541.166	1740.74
541.371	1738.99
541.576	1796.54
541.781	1715.36
541.985	1831.61
542.19	1740.54
542.395	1854.27
542.599	1898.06
542.804	1863.96
543.008	1905.81
543.213	1824.24
543.418	1757.79
543.622	1858.92
543.827	1803.71
544.031	1896.7
544.236	1911.24
544.44	1862.41
544.645	1930.8
544.849	1841.87
545.054	1904.07
545.258	1918.79
545.463	1921.5
545.667	1820.56
545.872	1941.65
546.076	1847.49
546.281	1877.33
546.485	1860.47
546.689	1906.78
546.894	1922.28
547.098	1920.34
547.302	1866.87
547.507	1893.41
547.711	1908.72
547.915	1947.66
548.119	1870.55
548.324	1862.02
548.528	1932.74
548.732	1906.97
548.936	1952.12
549.141	1942.62
549.345	1876.36
549.549	1904.07
549.753	1922.09
549.957	2006.37
550.161	1962.97
550.366	1937.2
550.57	1912.01
550.774	1919.57
550.978	1919.18
551.182	1929.84
551.386	1904.65
551.59	1911.82
551.794	1916.27
551.998	1936.23
552.202	1885.66
552.406	1895.54
552.61	1949.99
552.814	1948.63
553.018	1961.42
553.222	1869.39
553.426	1941.27
553.63	1992.03
553.833	1917.82
554.037	1900
554.241	1974.4
554.445	1948.63
554.649	1929.84
554.853	1918.21
555.056	1954.44
555.26	1980.98
555.464	1961.03
555.668	1968.58
555.871	1967.23
556.075	2009.27
556.279	1923.64
556.483	1894.38
556.686	1926.15
556.89	1962.58
557.094	1935.84
557.297	1871.52
557.501	1905.81
557.704	1877.52
557.908	1948.44
558.112	1877.14
558.315	1989.9
558.519	1896.7
558.722	1863.38
558.926	1832.77
559.129	1770.96
559.333	1811.65
559.536	1817.85
559.74	1795.76
559.943	1792.08
560.147	1795.57
560.35	1832.77
560.553	1804.87
560.757	1753.91
560.96	1867.84
561.164	1817.27
561.367	1883.92
561.57	1820.95
561.774	1816.3
561.977	1806.42
562.18	1784.33
562.384	1921.12
562.587	1794.6
562.79	1791.5
562.993	1804.09
563.197	1852.14
563.4	1907.94
563.603	1842.84
563.806	1914.53
564.009	1823.47
564.212	1810.87
564.416	1786.27
564.619	1826.57
564.822	1743.26
565.025	1824.44
565.228	1758.76
565.431	1794.02
565.634	1684.16
565.837	1739.38
566.04	1710.13
566.243	1703.73
566.446	1669.05
566.649	1710.71
566.852	1676.22
567.055	1719.62
567.258	1726.59
567.461	1788.01
567.664	1733.18
567.867	1664.98
568.07	1736.86
568.273	1726.4
568.475	1771.74
568.678	1689.4
568.881	1677.96
569.084	1653.55
569.287	1594.46
569.489	1600.66
569.692	1682.61
569.895	1702.38
570.098	1608.22
570.3	1610.15
570.503	1523.55
570.706	1561.91
570.909	1571.98
571.111	1520.06
571.314	1545.44
571.516	1520.06
571.719	1563.65
571.922	1560.36
572.124	1540.79
572.327	1569.85
572.529	1528.78
572.732	1546.8
572.935	1572.37
573.137	1617.71
573.34	1536.92
573.542	1591.94
573.745	1594.65
573.947	1594.85
574.15	1570.24
574.352	1535.56
574.554	1623.52
574.757	1515.22
574.959	1503.4
575.162	1528.58
575.364	1505.34
575.566	1596.98
575.769	1480.92
575.971	1537.3
576.173	1401.87
576.376	1486.74
576.578	1509.99
576.78	1564.04
576.982	1431.71
577.185	1463.49
577.387	1451.09
577.589	1432.1
577.791	1488.67
577.993	1497.59
578.196	1503.79
578.398	1456.51
578.6	1480.34
578.802	1404.2
579.004	1381.92
579.206	1412.14
579.408	1491.58
579.61	1442.75
579.812	1500.69
580.014	1431.32
580.216	1429.58
580.418	1490.22
580.62	1446.44
580.822	1422.61
581.024	1493.32
581.226	1506.89
581.428	1465.62
581.63	1533.04
581.832	1469.3
582.034	1531.1
582.236	1500.1
582.438	1529.17
582.64	1544.67
582.841	1538.47
583.043	1570.05
583.245	1525.29
583.447	1504.56
583.649	1513.67
583.85	1517.74
584.052	1526.07
584.254	1447.99
584.456	1540.21
584.657	1446.24
584.859	1494.29
585.061	1490.8
585.262	1474.92
585.464	1449.34
585.666	1503.59
585.867	1449.73
586.069	1522.77
586.27	1501.27
586.472	1470.65
586.674	1418.73
586.875	1428.61
587.077	1452.83
587.278	1458.64
587.48	1441.79
587.681	1562.1
587.883	1504.17
588.084	1394.51
588.285	1423.96
588.487	1425.51
588.688	1437.52
588.89	1364.09
589.091	1313.33
589.292	1328.64
589.494	1310.04
589.695	1261.41
589.896	1227.31
590.098	1264.89
590.299	1291.63
590.5	1246.88
590.702	1263.73
590.903	1341.23
591.104	1360.8
591.305	1322.44
591.507	1381.14
591.708	1353.24
591.909	1367.58
592.11	1379.21
592.311	1410.01
592.512	1335.81
592.714	1295.31
592.915	1336.19
593.116	1349.37
593.317	1377.85
593.518	1335.23
593.719	1329.99
593.92	1382.89
594.121	1390.83
594.322	1348.4
594.523	1341.43
594.724	1327.28
594.925	1347.24
595.126	1355.96
595.327	1321.08
595.528	1359.83
595.729	1343.36
595.929	1343.56
596.13	1361.57
596.331	1373.97
596.532	1347.43
596.733	1426.29
596.934	1381.14
597.135	1375.52
597.335	1370.1
597.536	1345.88
597.737	1354.02
597.938	1340.26
598.138	1357.89
598.339	1382.31
598.54	1380.17
598.74	1324.38
598.941	1356.73
599.142	1405.17
599.342	1373.39
599.543	1311.59
599.744	1333.87
599.944	1353.05
600.145	1366.22
600.345	1359.44
600.546	1432.87
600.746	1397.81
600.947	1440.43
601.147	1338.52
601.348	1398.39
601.548	1307.33
601.749	1369.52
601.949	1302.48
602.15	1310.81
602.35	1354.02
602.551	1364.48
602.751	1315.66
602.951	1342.39
603.152	1301.13
603.352	1374.56
603.552	1361.96
603.753	1353.44
603.953	1391.41
604.153	1399.74
604.354	1340.65
604.554	1360.61
604.754	1362.16
604.954	1319.53
605.155	1395.29
605.355	1353.63
605.555	1396.84
605.755	1412.72
605.955	1355.76
606.155	1393.54
606.356	1320.89
606.556	1399.74
606.756	1330.77
606.956	1300.54
607.156	1388.7
607.356	1314.49
607.556	1380.56
607.756	1359.06
607.956	1386.37
608.156	1358.28
608.356	1317.01
608.556	1390.64
608.756	1328.83
608.956	1320.11
609.156	1322.24
609.356	1316.24
609.556	1313.14
609.755	1362.54
609.955	1318.95
610.155	1326.12
610.355	1344.91
610.555	1271.29
610.755	1308.68
610.954	1236.41
611.154	1313.72
611.354	1324.38
611.554	1274
611.753	1300.16
611.953	1273.23
612.153	1325.54
612.352	1327.86
612.552	1251.91
612.752	1224.79
612.951	1247.07
613.151	1266.44
613.351	1248.23
613.55	1267.03
613.75	1302.29
613.949	1280.39
614.149	1262.18
614.348	1263.34
614.548	1206.58
614.747	1225.18
614.947	1218.01
615.146	1184.3
615.346	1278.07
615.545	1273.23
615.745	1266.25
615.944	1259.08
