Data from oakcork_FLMT105791__294__17-34-40-052.txt Node

Date: Mon Mar 20 17:34:40 GMT 2023
User: antho
Spectrometer: FLMT10579
Trigger mode: 0
Integration Time (sec): 1.000000E-1
Scans to average: 10
Electric dark correction enabled: true
Nonlinearity correction enabled: false
Boxcar width: 0
XAxis mode: Wavelengths
Number of Pixels in Spectrum: 3648
>>>>>Begin Spectral Data<<<<<
345.248	-156.61
345.464	-156.61
345.681	-156.61
345.898	-163.97
346.114	-160.87
346.331	-22.15
346.548	41.78
346.764	-5.49
346.981	-21.18
347.197	-21.57
347.414	29
347.631	-27.58
347.847	61.16
348.064	12.14
348.28	27.45
348.497	-39.98
348.713	-33.58
348.93	10.79
349.146	8.46
349.363	2.07
349.579	11.17
349.796	-20.21
350.012	-11.88
350.229	39.85
350.445	7.3
350.661	-22.93
350.878	-8.59
351.094	10.2
351.311	19.89
351.527	22.6
351.743	-3.94
351.96	4.2
352.176	57.48
352.392	25.12
352.609	44.5
352.825	-4.33
353.041	11.75
353.257	-19.25
353.474	-38.23
353.69	31.52
353.906	18.34
354.122	-28.16
354.339	32.68
354.555	9.04
354.771	4.78
354.987	70.27
355.203	55.93
355.42	-30.68
355.636	-6.46
355.852	-14.01
356.068	19.7
356.284	-25.25
356.5	52.63
356.716	22.02
356.932	-8.4
357.148	35.39
357.364	9.82
357.58	46.82
357.796	44.88
358.012	66.2
358.228	18.92
358.444	-41.33
358.66	27.25
358.876	33.84
359.092	-1.03
359.308	31.9
359.524	26.09
359.74	-23.51
359.956	-7.23
360.172	13.89
360.388	34.23
360.604	-15.18
360.819	74.92
361.035	15.05
361.251	27.64
361.467	-8.4
361.683	58.83
361.898	6.52
362.114	6.91
362.33	3.04
362.546	46.05
362.762	23.19
362.977	-4.52
363.193	-10.91
363.409	45.27
363.624	-19.83
363.84	-21.18
364.056	-19.25
364.271	14.08
364.487	5.55
364.703	-10.72
364.918	-18.66
365.134	-4.13
365.35	-1.23
365.565	97.97
365.781	25.51
365.996	53.02
366.212	32.29
366.427	16.02
366.643	-8.98
366.858	14.66
367.074	-26.61
367.289	66
367.505	60.19
367.72	-50.83
367.936	-17.31
368.151	30.74
368.367	24.35
368.582	15.44
368.798	-15.18
369.013	39.46
369.228	31.13
369.444	40.82
369.659	63.87
369.874	9.82
370.09	49.92
370.305	-45.98
370.52	5.75
370.736	42.37
370.951	23.96
371.166	49.53
371.381	59.8
371.597	29
371.812	-6.46
372.027	3.42
372.242	5.36
372.458	60.38
372.673	-8.4
372.888	12.53
373.103	27.64
373.318	104.56
373.533	30.93
373.749	18.73
373.964	-12.46
374.179	43.72
374.394	-21.18
374.609	38.49
374.824	-28.74
375.039	30.55
375.254	-26.03
375.469	87.12
375.684	9.24
375.899	65.62
376.114	-3.75
376.329	36.55
376.544	47.6
376.759	35.97
376.974	5.55
377.189	-10.91
377.404	-2
377.619	34.03
377.834	-32.61
378.049	-34.55
378.264	-15.56
378.478	6.33
378.693	5.55
378.908	59.8
379.123	-19.25
379.338	58.45
379.553	32.29
379.767	13.89
379.982	55.35
380.197	36.94
380.412	10.2
380.626	36.36
380.841	84.02
381.056	20.86
381.271	56.51
381.485	-16.73
381.7	-22.35
381.915	25.32
382.129	8.65
382.344	28.61
382.559	-9.56
382.773	34.62
382.988	9.82
383.202	8.07
383.417	-12.85
383.632	86.35
383.846	12.53
384.061	21.64
384.275	4.39
384.49	35.58
384.704	9.43
384.919	18.34
385.133	28.61
385.348	5.94
385.562	-8.2
385.777	34.42
385.991	-0.65
386.206	23.77
386.42	18.92
386.634	57.67
386.849	39.07
387.063	27.06
387.277	-9.17
387.492	-20.41
387.706	-12.08
387.92	-8.59
388.135	38.3
388.349	34.42
388.563	4.59
388.778	31.9
388.992	19.31
389.206	42.95
389.42	83.63
389.635	22.99
389.849	33.45
390.063	64.45
390.277	6.52
390.491	47.79
390.706	53.6
390.92	64.65
391.134	12.53
391.348	37.13
391.562	-10.53
391.776	4
391.99	-32.61
392.205	22.8
392.419	12.92
392.633	-16.34
392.847	78.6
393.061	1.68
393.275	85.38
393.489	3.42
393.703	34.23
393.917	62.9
394.131	29.38
394.345	43.72
394.559	41.4
394.773	6.52
394.986	35.58
395.2	27.25
395.414	44.3
395.628	-21.57
395.842	13.69
396.056	10.79
396.27	-25.83
396.484	45.08
396.697	38.49
396.911	67.17
397.125	50.89
397.339	33.07
397.553	73.37
397.766	74.53
397.98	51.47
398.194	57.87
398.408	22.22
398.621	59.8
398.835	35.39
399.049	39.07
399.262	76.66
399.476	62.52
399.69	47.79
399.903	74.33
400.117	37.13
400.331	24.35
400.544	28.8
400.758	120.45
400.971	32.29
401.185	50.89
401.398	-11.3
401.612	72.98
401.826	57.48
402.039	48.95
402.253	15.24
402.466	45.85
402.68	35.2
402.893	38.49
403.106	48.57
403.32	20.09
403.533	33.84
403.747	41.78
403.96	12.34
404.174	52.83
404.387	15.82
404.6	29.58
404.814	75.11
405.027	53.41
405.24	48.37
405.454	16.02
405.667	65.03
405.88	-26.22
406.094	53.6
406.307	74.14
406.52	49.73
406.733	4.59
406.947	12.53
407.16	66.78
407.373	60.38
407.586	0.13
407.799	11.37
408.012	88.09
408.226	75.3
408.439	82.86
408.652	5.55
408.865	50.5
409.078	80.73
409.291	45.66
409.504	1.1
409.717	52.83
409.93	55.73
410.143	49.53
410.357	-18.47
410.57	2.26
410.783	21.83
410.996	42.56
411.209	12.14
411.421	51.08
411.634	43.53
411.847	-1.42
412.06	45.47
412.273	42.75
412.486	36.94
412.699	113.86
412.912	39.27
413.125	72.78
413.338	65.62
413.55	81.5
413.763	61.16
413.976	54.57
414.189	-3.16
414.402	24.93
414.615	84.99
414.827	32.68
415.04	54.77
415.253	41.2
415.466	80.15
415.678	82.86
415.891	55.73
416.104	60
416.316	41.78
416.529	0.9
416.742	51.08
416.954	56.32
417.167	40.43
417.38	41.01
417.592	76.47
417.805	16.99
418.017	16.21
418.23	47.02
418.442	20.28
418.655	29.38
418.868	48.76
419.08	78.21
419.293	89.06
419.505	49.15
419.718	59.8
419.93	92.35
420.142	28.22
420.355	58.45
420.567	89.83
420.78	71.04
420.992	54.38
421.205	103.01
421.417	16.79
421.629	46.82
421.842	-5.68
422.054	17.57
422.266	63.68
422.479	86.35
422.691	47.02
422.903	88.87
423.115	20.09
423.328	59.42
423.54	52.63
423.752	66.58
423.964	10.98
424.177	60.58
424.389	43.33
424.601	122
424.813	28.03
425.025	88.67
425.238	59.22
425.45	58.83
425.662	50.31
425.874	296.56
426.086	57.87
426.298	82.47
426.51	57.67
426.722	71.04
426.934	15.05
427.146	40.23
427.358	0.13
427.57	63.29
427.782	42.75
427.994	52.05
428.206	24.74
428.418	23.38
428.63	74.14
428.842	76.66
429.054	62.13
429.266	58.45
429.478	24.54
429.69	74.14
429.902	25.32
430.114	67.75
430.325	46.24
430.537	17.37
430.749	60.38
430.961	22.99
431.173	16.99
431.384	57.09
431.596	10.2
431.808	26.09
432.02	63.29
432.231	85.57
432.443	126.65
432.655	87.32
432.867	0.32
433.078	55.15
433.29	124.51
433.502	67.55
433.713	95.84
433.925	63.48
434.136	85.96
434.348	11.75
434.56	-9.75
434.771	141.76
434.983	17.95
435.194	24.74
435.406	57.87
435.617	85.38
435.829	101.27
436.04	93.71
436.252	74.14
436.463	108.05
436.675	89.64
436.886	73.17
437.098	63.1
437.309	104.75
437.521	59.03
437.732	87.12
437.943	70.65
438.155	87.12
438.366	11.75
438.578	122.77
438.789	93.71
439	105.53
439.211	60.58
439.423	59.42
439.634	93.52
439.845	99.72
440.057	59.61
440.268	101.65
440.479	72.78
440.69	58.45
440.902	52.83
441.113	58.83
441.324	71.23
441.535	87.51
441.746	104.37
441.957	43.53
442.168	30.93
442.38	83.44
442.591	90.42
442.802	81.31
443.013	39.46
443.224	61.55
443.435	82.28
443.646	73.75
443.857	47.6
444.068	60.38
444.279	60.58
444.49	130.33
444.701	60.77
444.912	155.9
445.123	116.18
445.334	83.44
445.545	100.88
445.756	80.73
445.967	62.13
446.178	99.91
446.388	111.15
446.599	110.37
446.81	122.19
447.021	56.7
447.232	103.59
447.443	128.39
447.653	48.76
447.864	113.47
448.075	62.71
448.286	120.45
448.496	97.39
448.707	107.27
448.918	73.37
449.129	143.31
449.339	45.85
449.55	88.48
449.761	83.63
449.971	116.18
450.182	64.07
450.393	100.68
450.603	75.69
450.814	113.08
451.024	83.63
451.235	102.23
451.446	149.51
451.656	123.16
451.867	78.21
452.077	82.28
452.288	139.43
452.498	121.61
452.709	87.12
452.919	114.05
453.13	49.15
453.34	91.97
453.55	74.33
453.761	120.45
453.971	102.62
454.182	105.92
454.392	91.19
454.602	157.65
454.813	113.28
455.023	125.68
455.233	50.31
455.444	105.72
455.654	51.67
455.864	96.42
456.075	78.02
456.285	81.89
456.495	88.87
456.705	111.53
456.916	145.44
457.126	132.26
457.336	95.65
457.546	47.6
457.756	76.08
457.967	139.05
458.177	76.27
458.387	107.47
458.597	73.56
458.807	103.78
459.017	107.27
459.227	88.48
459.437	88.09
459.647	123.74
459.857	114.44
460.068	69.68
460.278	143.5
460.488	132.65
460.698	163.07
460.908	97.78
461.117	66.2
461.327	77.82
461.537	83.83
461.747	78.4
461.957	72.98
462.167	201.05
462.377	111.73
462.587	92.74
462.797	122.58
463.007	112.89
463.216	127.61
463.426	129.55
463.636	123.55
463.846	52.63
464.056	39.85
464.265	111.53
464.475	63.29
464.685	108.05
464.895	117.15
465.104	108.24
465.314	138.08
465.524	112.5
465.733	87.9
465.943	171.01
466.153	139.24
466.362	144.47
466.572	105.72
466.782	91.77
466.991	122.19
467.201	191.16
467.41	61.16
467.62	128.39
467.829	106.3
468.039	114.44
468.249	80.53
468.458	115.02
468.668	144.08
468.877	165.2
469.086	141.37
469.296	174.11
469.505	91.38
469.715	179.54
469.924	127.42
470.134	133.81
470.343	151.06
470.552	115.22
470.762	118.7
470.971	80.73
471.18	141.37
471.39	109.6
471.599	90.22
471.808	131.3
472.018	84.99
472.227	164.81
472.436	145.83
472.645	100.3
472.855	115.02
473.064	163.85
473.273	127.81
473.482	162.3
473.691	155.51
473.901	158.81
474.11	111.92
474.319	214.61
474.528	144.86
474.737	162.3
474.946	166.17
475.155	130.13
475.364	177.6
475.573	134.4
475.783	143.7
475.992	192.91
476.201	171.21
476.41	143.11
476.619	111.53
476.828	141.37
477.037	125.48
477.245	115.8
477.454	190.97
477.663	125.1
477.872	101.65
478.081	189.23
478.29	87.9
478.499	208.99
478.708	157.45
478.917	197.95
479.125	143.11
479.334	162.1
479.543	165.98
479.752	154.35
479.961	143.31
480.169	166.75
480.378	163.26
480.587	255.68
480.796	175.66
481.004	165.4
481.213	183.41
481.422	154.74
481.63	139.43
481.839	172.18
482.048	217.9
482.256	182.25
482.465	154.55
482.674	181.28
482.882	171.01
483.091	230.69
483.299	178.76
483.508	190.78
483.716	154.35
483.925	189.23
484.134	144.47
484.342	192.71
484.551	204.14
484.759	210.54
484.967	195.04
485.176	194.65
485.384	221.39
485.593	206.86
485.801	201.05
486.01	203.18
486.218	189.61
486.426	170.63
486.635	164.04
486.843	160.75
487.051	171.98
487.26	192.52
487.468	198.91
487.676	209.57
487.885	157.65
488.093	174.89
488.301	167.14
488.509	212.09
488.717	224.29
488.926	176.83
489.134	153.77
489.342	210.73
489.55	169.08
489.758	205.69
489.967	168.69
490.175	263.04
490.383	175.86
490.591	226.81
490.799	153
491.007	240.18
491.215	202.4
491.423	163.46
491.631	198.33
491.839	212.67
492.047	236.31
492.255	175.28
492.463	166.36
492.671	183.8
492.879	236.69
493.087	191.36
493.295	211.89
493.503	232.63
493.711	240.18
493.919	252
494.127	217.51
494.334	245.8
494.542	160.36
494.75	208.02
494.958	190.78
495.166	219.45
495.374	200.08
495.581	223.33
495.789	211.7
495.997	262.85
496.205	223.33
496.412	204.53
496.62	199.3
496.828	246.38
497.035	218.09
497.243	251.03
497.451	216.16
497.658	235.14
497.866	208.41
498.074	271.96
498.281	214.03
498.489	267.69
498.696	245.8
498.904	216.93
499.112	213.06
499.319	286.29
499.527	213.64
499.734	265.76
499.942	192.52
500.149	235.73
500.357	204.73
500.564	215.19
500.771	267.5
500.979	221.97
501.186	213.25
501.394	258.78
501.601	258.2
501.808	246.38
502.016	228.36
502.223	231.85
502.43	236.5
502.638	222.16
502.845	211.51
503.052	280.68
503.26	207.24
503.467	275.06
503.674	237.66
503.881	263.43
504.089	313.42
504.296	231.46
504.503	223.71
504.71	240.76
504.917	213.06
505.125	245.61
505.332	241.15
505.539	268.08
505.746	301.21
505.953	268.08
506.16	248.71
506.367	295.59
506.574	301.41
506.781	295.4
506.988	233.21
507.195	235.73
507.402	254.13
507.609	283.78
507.816	261.49
508.023	229.53
508.23	214.41
508.437	232.24
508.644	264.01
508.851	310.12
509.058	294.82
509.265	273.12
509.472	284.36
509.679	354.11
509.885	248.9
510.092	262.08
510.299	262.27
510.506	269.63
510.713	266.34
510.92	270.02
511.126	283.39
511.333	321.56
511.54	294.62
511.746	323.49
511.953	321.17
512.16	322.72
512.367	251.81
512.573	261.49
512.78	301.99
512.987	253.36
513.193	276.03
513.4	204.34
513.606	276.61
513.813	292.88
514.02	297.53
514.226	367.47
514.433	347.13
514.639	251.03
514.846	281.45
515.052	260.33
515.259	277.58
515.465	281.45
515.672	282.03
515.878	376.97
516.085	273.89
516.291	321.17
516.497	270.21
516.704	309.54
516.91	248.9
517.117	262.08
517.323	227.01
517.529	274.09
517.736	280.48
517.942	286.1
518.148	274.86
518.354	299.47
518.561	279.71
518.767	269.63
518.973	336.86
519.179	291.52
519.386	295.01
519.592	268.28
519.798	252.97
520.004	308.19
520.21	267.11
520.417	314.19
520.623	335.89
520.829	316.32
521.035	323.49
521.241	303.15
521.447	335.89
521.653	394.99
521.859	301.99
522.065	324.46
522.271	405.25
522.477	336.67
522.683	354.69
522.889	341.51
523.095	345.97
523.301	326.59
523.507	310.71
523.713	360.69
523.919	322.72
524.125	379.87
524.331	340.16
524.537	374.06
524.742	357.4
524.948	354.69
525.154	382.39
525.36	460.09
525.566	375.61
525.772	398.28
525.977	288.62
526.183	374.26
526.389	387.24
526.595	368.83
526.8	320.01
527.006	340.93
527.212	315.94
527.417	323.49
527.623	320.97
527.829	373.48
528.034	369.99
528.24	389.56
528.446	333.37
528.651	392.47
528.857	345.39
529.062	424.63
529.268	342.29
529.473	390.92
529.679	354.49
529.884	415.91
530.09	390.34
530.295	431.41
530.501	405.64
530.706	387.43
530.912	370.38
531.117	371.74
531.323	366.31
531.528	374.64
531.733	391.3
531.939	390.72
532.144	390.53
532.35	376.19
532.555	439.94
532.76	426.37
532.966	423.47
533.171	419.79
533.376	396.92
533.581	383.55
533.787	414.17
533.992	419.98
534.197	462.41
534.402	394.99
534.607	421.92
534.813	511.04
535.018	380.84
535.223	411.45
535.428	437.8
535.633	428.12
535.838	425.4
536.043	397.7
536.249	469.58
536.454	401.19
536.659	429.86
536.864	394.21
537.069	403.51
537.274	468.03
537.479	448.07
537.684	436.06
537.889	413.2
538.094	494.57
538.299	427.34
538.504	442.84
538.708	453.69
538.913	486.24
539.118	407.39
539.323	454.08
539.528	408.74
539.733	420.17
539.938	453.11
540.142	462.41
540.347	444.59
540.552	425.79
540.757	415.91
540.962	450.98
541.166	397.31
541.371	387.43
541.576	425.6
541.781	337.83
541.985	422.89
542.19	442.65
542.395	476.55
542.599	525.57
542.804	504.84
543.008	482.75
543.213	423.08
543.418	418.24
543.622	448.65
543.827	412.04
544.031	490.31
544.236	486.05
544.44	471.13
544.645	538.17
544.849	434.12
545.054	452.92
545.258	517.43
545.463	516.47
545.667	428.89
545.872	519.18
546.076	455.63
546.281	454.47
546.485	441.29
546.689	478.3
546.894	490.7
547.098	465.12
547.302	393.63
547.507	464.74
547.711	466.48
547.915	504.45
548.119	433.35
548.324	461.83
548.528	523.25
548.732	455.63
548.936	489.34
549.141	485.08
549.345	470.93
549.549	468.61
549.753	448.65
549.957	542.82
550.161	513.56
550.366	483.92
550.57	455.82
550.774	458.54
550.978	459.31
551.182	473.45
551.386	442.07
551.59	468.42
551.794	450.2
551.998	481.78
552.202	471.9
552.406	413.97
552.61	461.64
552.814	479.07
553.018	492.05
553.222	473.45
553.426	457.76
553.63	544.37
553.833	450.2
554.037	394.79
554.241	492.63
554.445	469.19
554.649	443.81
554.853	450.4
555.056	472.68
555.26	494.57
555.464	485.85
555.668	482.75
555.871	500.19
556.075	513.75
556.279	447.69
556.483	431.22
556.686	476.36
556.89	455.63
557.094	489.92
557.297	419.2
557.501	479.27
557.704	408.74
557.908	512.01
558.112	451.95
558.315	489.53
558.519	452.92
558.722	462.22
558.926	458.92
559.129	432.38
559.333	405.45
559.536	422.5
559.74	411.65
559.943	404.09
560.147	412.81
560.35	440.52
560.553	413.97
560.757	367.67
560.96	518.98
561.164	425.79
561.367	509.49
561.57	413
561.774	467.25
561.977	446.91
562.18	423.08
562.384	491.28
562.587	440.13
562.79	440.52
562.993	423.47
563.197	455.63
563.4	517.05
563.603	465.12
563.806	507.55
564.009	411.26
564.212	461.44
564.416	376.58
564.619	451.17
564.822	410.29
565.025	453.3
565.228	423.85
565.431	446.72
565.634	340.54
565.837	412.81
566.04	407.97
566.243	407.77
566.446	351.78
566.649	431.02
566.852	359.72
567.055	405.25
567.258	432.57
567.461	496.51
567.664	453.11
567.867	354.49
568.07	440.9
568.273	408.16
568.475	453.89
568.678	393.24
568.881	414.75
569.084	440.71
569.287	338.02
569.489	394.99
569.692	407.97
569.895	419.01
570.098	376.39
570.3	376.97
570.503	321.75
570.706	382.78
570.909	358.76
571.111	322.33
571.314	338.41
571.516	393.05
571.719	360.11
571.922	355.46
572.124	304.89
572.327	364.57
572.529	318.07
572.732	314.77
572.935	370.38
573.137	412.04
573.34	327.17
573.542	370.57
573.745	369.99
573.947	343.45
574.15	355.66
574.352	314.39
574.554	394.21
574.757	303.54
574.959	331.44
575.162	315.36
575.364	351.2
575.566	418.04
575.769	330.86
575.971	349.07
576.173	270.41
576.376	358.95
576.578	418.82
576.78	400.99
576.982	272.34
577.185	321.94
577.387	296.56
577.589	281.64
577.791	362.82
577.993	321.56
578.196	348.29
578.398	359.72
578.6	360.69
578.802	271.18
579.004	301.21
579.206	299.47
579.408	324.46
579.61	286.29
579.812	372.12
580.014	299.86
580.216	322.91
580.418	314.58
580.62	301.99
580.822	271.57
581.024	331.44
581.226	363.21
581.428	299.86
581.63	340.74
581.832	288.62
582.034	343.84
582.236	316.91
582.438	330.08
582.64	358.95
582.841	362.05
583.043	383.75
583.245	352.75
583.447	338.02
583.649	340.74
583.85	353.33
584.052	376.58
584.254	311.87
584.456	366.89
584.657	295.98
584.859	342.09
585.061	306.06
585.262	277.77
585.464	304.51
585.666	361.27
585.867	315.94
586.069	398.09
586.27	352.56
586.472	306.06
586.674	308.77
586.875	314.77
587.077	312.45
587.278	345.58
587.48	311.48
587.681	405.45
587.883	335.7
588.084	294.62
588.285	305.67
588.487	310.71
588.688	307.22
588.89	283.39
589.091	282.23
589.292	298.5
589.494	282.61
589.695	281.45
589.896	246.96
590.098	241.34
590.299	302.96
590.5	263.43
590.702	255.29
590.903	305.28
591.104	331.63
591.305	292.11
591.507	357.98
591.708	300.44
591.909	282.42
592.11	370.96
592.311	322.33
592.512	304.89
592.714	257.23
592.915	276.22
593.116	246.38
593.317	291.72
593.518	263.43
593.719	289.01
593.92	307.02
594.121	339.57
594.322	288.04
594.523	307.22
594.724	252.58
594.925	284.74
595.126	279.9
595.327	324.85
595.528	276.8
595.729	312.45
595.929	274.86
596.13	283.58
596.331	289.59
596.532	278.16
596.733	321.17
596.934	349.65
597.135	316.91
597.335	309.74
597.536	272.93
597.737	305.47
597.938	272.93
598.138	291.52
598.339	286.68
598.54	307.22
598.74	278.16
598.941	294.04
599.142	336.67
599.342	286.68
599.543	291.72
599.744	304.12
599.944	263.82
600.145	284.55
600.345	295.79
600.546	340.16
600.746	309.74
600.947	371.54
601.147	302.37
601.348	323.3
601.548	265.18
601.749	298.69
601.949	239.6
602.15	266.14
602.35	305.86
602.551	336.86
602.751	276.61
602.951	267.69
603.152	222.74
603.352	307.8
603.552	290.75
603.753	315.94
603.953	334.15
604.153	296.17
604.354	272.54
604.554	286.29
604.754	262.27
604.954	227.59
605.155	306.64
605.355	292.88
605.555	283.58
605.755	351.97
605.955	294.82
606.155	318.07
606.356	295.4
606.556	295.59
606.756	304.12
606.956	246.19
607.156	356.24
607.356	272.73
607.556	310.71
607.756	317.68
607.956	319.23
608.156	285.52
608.356	279.51
608.556	318.65
608.756	285.33
608.956	265.37
609.156	266.53
609.356	250.06
609.556	263.82
609.755	278.74
609.955	277.77
610.155	289.59
610.355	284.55
610.555	279.9
610.755	262.46
610.954	223.71
611.154	265.18
611.354	308.57
611.554	261.88
611.753	264.79
611.953	235.53
612.153	302.18
612.352	314
612.552	227.2
612.752	209.57
612.951	261.88
613.151	268.47
613.351	235.92
613.55	278.16
613.75	293.07
613.949	267.89
614.149	264.98
614.348	264.98
614.548	252.19
614.747	209.38
614.947	250.26
615.146	208.6
615.346	285.33
615.545	264.01
615.745	279.13
615.944	323.11
616.144	238.05
616.343	297.53
616.542	259.75
616.742	284.55
616.941	258.01
617.14	210.54
617.34	259.94
617.539	258.39
617.738	219.06
617.938	296.95
618.137	254.91
618.336	211.12
618.535	277.58
618.734	228.17
618.934	271.96
619.133	228.17
619.332	287.65
619.531	224.29
619.73	253.94
619.929	263.04
620.128	248.9
620.328	300.24
620.527	216.35
620.726	203.37
620.925	258.01
621.124	263.24
621.323	246.19
621.522	238.44
621.721	211.12
621.92	205.11
622.119	306.64
622.318	217.32
622.517	234.56
622.715	228.56
622.914	181.86
623.113	219.84
623.312	210.15
623.511	248.32
623.71	214.22
623.909	227.2
624.107	282.81
624.306	210.34
624.505	209.96
624.704	211.12
624.902	221.19
625.101	290.17
625.3	267.5
625.499	216.35
625.697	208.02
625.896	206.47
626.095	259.17
626.293	199.69
626.492	233.4
626.69	246.58
626.889	193.88
627.088	256.07
627.286	184.77
627.485	209.76
627.683	213.44
