Data from oakcork_FLMT105791__221__17-32-52-055.txt Node

Date: Mon Mar 20 17:32:52 GMT 2023
User: antho
Spectrometer: FLMT10579
Trigger mode: 0
Integration Time (sec): 1.000000E-1
Scans to average: 10
Electric dark correction enabled: true
Nonlinearity correction enabled: false
Boxcar width: 0
XAxis mode: Wavelengths
Number of Pixels in Spectrum: 3648
>>>>>Begin Spectral Data<<<<<
345.248	-143.29
345.464	-143.29
345.681	-143.29
345.898	-166.15
346.114	-159.18
346.331	-46.42
346.548	33.79
346.764	5.12
346.981	-9.22
347.197	-16.97
347.414	2.6
347.631	-11.54
347.847	57.62
348.064	9.38
348.28	24.88
348.497	-26.08
348.713	-23.17
348.93	12.48
349.146	29.72
349.363	-2.05
349.579	-2.44
349.796	-13.48
350.012	-12.32
350.229	51.62
350.445	-3.02
350.661	-14.26
350.878	15
351.094	30.69
351.311	-5.34
351.527	17.52
351.743	3.96
351.96	45.03
352.176	25.46
352.392	32.63
352.609	28.17
352.825	-16.39
353.041	-19.68
353.257	0.08
353.474	17.13
353.69	13.26
353.906	27.98
354.122	-21.04
354.339	55.3
354.555	-5.54
354.771	4.92
354.987	64.99
355.203	50.46
355.42	-4.18
355.636	-13.68
355.852	-26.66
356.068	-5.73
356.284	-22.98
356.5	60.14
356.716	20.23
356.932	-15.61
357.148	39.61
357.364	-17.16
357.58	37.67
357.796	42.71
358.012	28.56
358.228	23.52
358.444	-65.79
358.66	55.88
358.876	20.81
359.092	-31.11
359.308	16.16
359.524	5.12
359.74	28.76
359.956	-9.41
360.172	-9.03
360.388	36.12
360.604	-4.18
360.819	79.52
361.035	9.38
361.251	22.17
361.467	0.08
361.683	36.89
361.898	34.57
362.114	24.69
362.33	39.8
362.546	58.98
362.762	12.87
362.977	20.42
363.193	-1.08
363.409	49.49
363.624	-21.62
363.84	2.21
364.056	-1.28
364.271	-3.6
364.487	42.51
364.703	-10.38
364.918	-17.16
365.134	-3.41
365.35	-3.99
365.565	96.76
365.781	45.03
365.996	31.47
366.212	53.94
366.427	22.17
366.643	-6.51
366.858	-12.13
367.074	-5.93
367.289	62.08
367.505	99.86
367.72	-18.52
367.936	4.73
368.151	40.19
368.367	35.54
368.582	32.05
368.798	-23.17
369.013	64.99
369.228	10.16
369.444	32.05
369.659	59.75
369.874	43.29
370.09	61.11
370.305	-18.52
370.52	8.99
370.736	69.64
370.951	17.71
371.166	46.97
371.381	57.43
371.597	45.61
371.812	-9.8
372.027	1.63
372.242	26.82
372.458	61.11
372.673	8.99
372.888	36.12
373.103	28.17
373.318	94.05
373.533	31.66
373.749	26.04
373.964	-24.91
374.179	64.99
374.394	2.6
374.609	53.36
374.824	-4.18
375.039	69.83
375.254	1.05
375.469	74.87
375.684	44.84
375.899	59.75
376.114	28.95
376.329	20.62
376.544	67.7
376.759	62.85
376.974	6.47
377.189	7.06
377.404	34.57
377.619	50.46
377.834	-27.82
378.049	-51.26
378.264	-7.48
378.478	30.11
378.693	-5.34
378.908	19.84
379.123	3.76
379.338	61.3
379.553	35.15
379.767	13.06
379.982	35.34
380.197	30.31
380.412	18.1
380.626	42.51
380.841	71.19
381.056	36.31
381.271	76.61
381.485	4.54
381.7	7.64
381.915	30.5
382.129	6.67
382.344	53.75
382.559	21.78
382.773	68.47
382.988	-5.54
383.202	29.34
383.417	2.6
383.632	124.66
383.846	43.09
384.061	31.47
384.275	5.7
384.49	41.16
384.704	45.42
384.919	29.34
385.133	43.09
385.348	43.29
385.562	-15.61
385.777	71.77
385.991	14.42
386.206	27.21
386.42	7.06
386.634	70.22
386.849	55.3
387.063	27.98
387.277	2.21
387.492	1.82
387.706	14.81
387.92	12.29
388.135	58.59
388.349	45.03
388.563	35.54
388.778	26.24
388.992	42.71
389.206	66.34
389.42	89.2
389.635	46.97
389.849	82.23
390.063	85.52
390.277	50.84
390.491	106.25
390.706	46.39
390.92	57.24
391.134	33.41
391.348	80.68
391.562	-3.6
391.776	19.07
391.99	15.77
392.205	79.9
392.419	19.84
392.633	36.89
392.847	90.17
393.061	10.16
393.275	96.18
393.489	40.19
393.703	40.38
393.917	58.01
394.131	8.02
394.345	49.68
394.559	60.92
394.773	30.89
394.986	45.03
395.2	50.46
395.414	79.52
395.628	17.32
395.842	57.82
396.056	58.79
396.27	-6.51
396.484	65.95
396.697	42.12
396.911	98.31
397.125	56.27
397.339	90.17
397.553	65.37
397.766	120.59
397.98	99.28
398.194	99.67
398.408	57.82
398.621	77.77
398.835	91.53
399.049	61.69
399.262	102.96
399.476	89.59
399.69	104.32
399.903	121.75
400.117	66.54
400.331	78.16
400.544	44.26
400.758	154.11
400.971	83.2
401.185	110.52
401.398	54.72
401.612	131.64
401.826	88.43
402.039	95.4
402.253	57.82
402.466	95.79
402.68	69.64
402.893	69.25
403.106	92.69
403.32	58.79
403.533	108.97
403.747	72.54
403.96	95.79
404.174	110.52
404.387	74.09
404.6	80.87
404.814	113.04
405.027	65.76
405.24	91.92
405.454	104.32
405.667	131.83
405.88	30.31
406.094	92.89
406.307	118.27
406.52	93.85
406.733	59.37
406.947	50.65
407.16	127.57
407.373	122.72
407.586	63.44
407.799	58.2
408.012	116.33
408.226	78.16
408.439	147.33
408.652	75.84
408.865	72.93
409.078	115.17
409.291	128.92
409.504	66.92
409.717	101.8
409.93	115.36
410.143	63.44
410.357	56.85
410.57	48.52
410.783	79.32
410.996	110.9
411.209	80.29
411.421	127.37
411.634	118.46
411.847	72.15
412.06	95.99
412.273	133.77
412.486	113.62
412.699	182.01
412.912	91.53
413.125	130.28
413.338	90.17
413.55	147.91
413.763	136.87
413.976	127.57
414.189	91.34
414.402	86.3
414.615	174.07
414.827	67.89
415.04	132.6
415.253	113.42
415.466	128.34
415.678	168.06
415.891	132.6
416.104	117.49
416.316	123.11
416.529	89.98
416.742	117.88
416.954	183.56
417.167	100.44
417.38	124.47
417.592	146.94
417.805	83.78
418.017	67.89
418.23	137.84
418.442	83.78
418.655	124.66
418.868	121.37
419.08	147.91
419.293	165.54
419.505	154.88
419.718	147.91
419.93	152.17
420.142	111.29
420.355	184.72
420.567	170.38
420.78	163.6
420.992	117.49
421.205	182.2
421.417	112.07
421.629	107.8
421.842	82.62
422.054	96.95
422.266	145.2
422.479	149.27
422.691	118.27
422.903	155.27
423.115	96.18
423.328	128.92
423.54	147.13
423.752	135.12
423.964	111.49
424.177	151.4
424.389	130.67
424.601	228.12
424.813	144.81
425.025	158.18
425.238	163.6
425.45	133.38
425.662	121.17
425.874	418.77
426.086	145
426.298	183.37
426.51	156.24
426.722	145
426.934	111.49
427.146	157.79
427.358	84.94
427.57	156.24
427.782	143.84
427.994	124.66
428.206	123.69
428.418	96.37
428.63	173.29
428.842	146.17
429.054	170.77
429.266	178.33
429.478	142.29
429.69	145.78
429.902	99.47
430.114	182.01
430.325	132.8
430.537	141.32
430.749	110.9
430.961	67.7
431.173	125.44
431.384	145.78
431.596	86.3
431.808	132.99
432.02	171.74
432.231	176.2
432.443	188.79
432.655	168.83
432.867	117.49
433.078	183.17
433.29	216.88
433.502	184.92
433.713	202.35
433.925	178.33
434.136	215.53
434.348	133.96
434.56	122.72
434.771	266.87
434.983	116.14
435.194	145.78
435.406	193.63
435.617	197.32
435.829	216.69
436.04	214.75
436.252	219.02
436.463	243.23
436.675	222.5
436.886	200.03
437.098	219.4
437.309	227.73
437.521	189.37
437.732	217.66
437.943	219.02
438.155	187.24
438.366	171.93
438.578	242.07
438.789	194.22
439	209.91
439.211	176.97
439.423	225.8
439.634	235.29
439.845	201.77
440.057	220.18
440.268	240.52
440.479	207
440.69	223.86
440.902	198.48
441.113	221.92
441.324	238
441.535	213.59
441.746	269.58
441.957	201
442.168	211.46
442.38	224.25
442.591	256.41
442.802	214.95
443.013	199.25
443.224	236.26
443.435	221.34
443.646	218.24
443.857	228.7
444.068	223.08
444.279	216.88
444.49	286.44
444.701	213.4
444.912	323.83
445.123	266.87
445.334	250.21
445.545	261.06
445.756	231.22
445.967	210.3
446.178	260.09
446.388	274.81
446.599	242.85
446.81	245.56
447.021	234.51
447.232	274.43
447.443	288.76
447.653	221.53
447.864	282.18
448.075	251.76
448.286	286.83
448.496	259.51
448.707	291.67
448.918	252.53
449.129	353.09
449.339	254.66
449.55	277.53
449.761	266.1
449.971	301.55
450.182	247.69
450.393	291.48
450.603	251.56
450.814	317.24
451.024	312.21
451.235	319.38
451.446	333.52
451.656	339.14
451.867	290.12
452.077	296.71
452.288	368.39
452.498	337.98
452.709	307.56
452.919	314.53
453.13	260.28
453.34	297.68
453.55	254.86
453.761	338.94
453.971	284.31
454.182	312.21
454.392	299.03
454.602	377.5
454.813	330.61
455.023	332.36
455.233	270.16
455.444	315.31
455.654	244.01
455.864	291.48
456.075	305.43
456.285	276.95
456.495	288.96
456.705	321.31
456.916	331.19
457.126	381.18
457.336	305.81
457.546	248.46
457.756	311.05
457.967	342.82
458.177	294.96
458.387	294.96
458.597	293.61
458.807	324.41
459.017	286.44
459.227	326.16
459.437	283.92
459.647	333.71
459.857	341.46
460.068	286.25
460.278	349.21
460.488	331
460.698	377.31
460.908	315.89
461.117	284.7
461.327	313.95
461.537	322.09
461.747	337.2
461.957	333.33
462.167	445.89
462.377	372.46
462.587	370.72
462.797	380.6
463.007	334.29
463.216	361.61
463.426	417.41
463.636	380.21
463.846	312.79
464.056	320.73
464.265	384.86
464.475	294.38
464.685	369.75
464.895	368.98
465.104	352.7
465.314	379.83
465.524	358.13
465.733	313.37
465.943	426.91
466.153	395.33
466.362	388.93
466.572	365.88
466.782	354.44
466.991	382.93
467.201	407.14
467.41	307.17
467.62	367.62
467.829	372.27
468.039	376.34
468.249	353.28
468.458	367.04
468.668	386.22
468.877	379.05
469.086	415.67
469.296	394.74
469.505	371.3
469.715	430.78
469.924	382.15
470.134	411.99
470.343	419.16
470.552	370.33
470.762	370.91
470.971	350.38
471.18	377.69
471.39	402.11
471.599	371.49
471.808	419.93
472.018	394.94
472.227	440.47
472.436	448.8
472.645	430.01
472.855	409.27
473.064	473.41
473.273	427.68
473.482	443.57
473.691	472.24
473.901	458.1
474.11	431.75
474.319	532.89
474.528	426.91
474.737	504.6
474.946	479.02
475.155	463.72
475.364	491.81
475.573	474.57
475.783	469.72
475.992	493.55
476.201	517.58
476.41	475.92
476.619	441.63
476.828	472.05
477.037	462.56
477.245	476.51
477.454	517.58
477.663	489.68
477.872	450.74
478.081	504.02
478.29	453.45
478.499	551.68
478.708	537.34
478.917	574.15
479.125	534.24
479.334	546.06
479.543	530.56
479.752	556.52
479.961	528.24
480.169	568.34
480.378	520.68
480.587	652.82
480.796	586.75
481.004	560.01
481.213	573.57
481.422	555.55
481.63	562.92
481.839	599.15
482.048	647.78
482.256	597.6
482.465	571.44
482.674	601.86
482.882	607.09
483.091	645.84
483.299	593.72
483.508	613.29
483.716	623.17
483.925	612.52
484.134	589.65
484.342	587.33
484.551	646.42
484.759	642.35
484.967	640.03
485.176	676.45
485.384	648.17
485.593	645.45
485.801	618.72
486.01	634.99
486.218	569.5
486.426	560.79
486.635	589.07
486.843	553.62
487.051	583.07
487.26	574.93
487.468	599.73
487.676	650.3
487.885	582.1
488.093	650.68
488.301	643.52
488.509	669.48
488.717	695.63
488.926	628.79
489.134	645.07
489.342	656.5
489.55	640.22
489.758	650.1
489.967	625.5
490.175	773.13
490.383	663.86
490.591	749.88
490.799	700.67
491.007	730.7
491.215	701.25
491.423	682.85
491.631	718.69
491.839	690.01
492.047	753.76
492.255	665.99
492.463	687.69
492.671	693.11
492.879	744.26
493.087	719.85
493.295	747.17
493.503	735.93
493.711	759.57
493.919	768.48
494.127	782.63
494.334	789.02
494.542	729.35
494.75	770.03
494.958	764.8
495.166	822.34
495.374	767.32
495.581	778.75
495.789	753.18
495.997	832.81
496.205	762.67
496.412	785.14
496.62	794.06
496.828	785.92
497.035	777.78
497.243	808.59
497.451	782.04
497.658	812.66
497.866	772.55
498.074	859.74
498.281	752.4
498.489	868.46
498.696	802
498.904	762.28
499.112	774.29
499.319	868.65
499.527	809.75
499.734	840.94
499.942	767.71
500.149	814.21
500.357	810.14
500.564	762.67
500.771	830.68
500.979	758.6
501.186	800.26
501.394	821.57
501.601	768.48
501.808	826.41
502.016	802.58
502.223	788.63
502.43	784.37
502.638	803.94
502.845	795.03
503.052	882.6
503.26	800.26
503.467	919.41
503.674	830.09
503.881	819.63
504.089	904.69
504.296	855.28
504.503	804.71
504.71	800.45
504.917	773.71
505.125	872.72
505.332	824.48
505.539	876.98
505.746	960.68
505.953	902.36
506.16	889.96
506.367	944.99
506.574	947.89
506.781	940.14
506.988	872.91
507.195	905.46
507.402	894.61
507.609	920.96
507.816	891.9
508.023	901.78
508.23	854.7
508.437	858.38
508.644	925.8
508.851	940.92
509.058	944.99
509.265	932.39
509.472	955.84
509.679	1019
509.885	938.2
510.092	936.07
510.299	929.29
510.506	937.43
510.713	931.04
510.92	970.56
511.126	972.5
511.333	1001.95
511.54	952.54
511.746	1045.73
511.953	998.46
512.16	1028.1
512.367	995.55
512.573	955.84
512.78	998.65
512.987	966.69
513.193	957.97
513.4	935.69
513.606	980.25
513.813	979.67
514.02	1002.34
514.226	1037.79
514.433	1036.24
514.639	967.65
514.846	988.77
515.052	962.62
515.259	1021.52
515.465	985.29
515.672	979.09
515.878	1093.59
516.085	1013.96
516.291	1066.47
516.497	1003.69
516.704	969.59
516.91	974.44
517.117	952.93
517.323	893.26
517.529	931.42
517.736	943.05
517.942	971.34
518.148	944.4
518.354	1001.75
518.561	969.59
518.767	958.55
518.973	977.34
519.179	1011.25
519.386	997.69
519.592	987.03
519.798	1030.43
520.004	1068.02
520.21	1051.93
520.417	1106.76
520.623	1103.66
520.829	1105.8
521.035	1082.35
521.241	1123.23
521.447	1151.13
521.653	1243.16
521.859	1151.71
522.065	1166.83
522.271	1220.11
522.477	1189.88
522.683	1194.14
522.889	1183.68
523.095	1165.86
523.301	1155.01
523.507	1180.78
523.713	1217.01
523.919	1154.04
524.125	1252.46
524.331	1190.27
524.537	1301.09
524.742	1265.83
524.948	1276.1
525.154	1255.95
525.36	1367.55
525.566	1252.85
525.772	1298.77
525.977	1251.69
526.183	1271.84
526.389	1287.92
526.595	1254.59
526.8	1243.74
527.006	1170.9
527.212	1174.38
527.417	1187.75
527.623	1150.16
527.829	1231.15
528.034	1222.43
528.24	1267.19
528.446	1237.54
528.651	1316.4
528.857	1310.97
529.062	1375.1
529.268	1345.27
529.473	1335.97
529.679	1348.76
529.884	1411.53
530.09	1402.42
530.295	1400.68
530.501	1360.57
530.706	1421.41
530.912	1363.29
531.117	1357.67
531.323	1397.19
531.528	1456.67
531.733	1430.71
531.939	1371.62
532.144	1433.62
532.35	1415.02
532.555	1439.43
532.76	1431.49
532.966	1416.95
533.171	1387.89
533.376	1378.4
533.581	1357.47
533.787	1386.73
533.992	1412.3
534.197	1452.02
534.402	1405.52
534.607	1438.27
534.813	1529.91
535.018	1419.67
535.223	1438.46
535.428	1496.78
535.633	1468.49
535.838	1511.5
536.043	1491.55
536.249	1551.41
536.454	1516.35
536.659	1547.93
536.864	1484.77
537.069	1460.16
537.274	1490.19
537.479	1511.31
537.684	1520.22
537.889	1445.44
538.094	1590.94
538.299	1554.71
538.504	1549.09
538.708	1512.08
538.913	1553.74
539.118	1521
539.323	1561.68
539.528	1488.25
539.733	1528.94
539.938	1509.18
540.142	1534.56
540.347	1495.23
540.552	1468.1
540.757	1488.45
540.962	1461.52
541.166	1418.12
541.371	1460.93
541.576	1517.12
541.781	1409.79
541.985	1539.79
542.19	1526.81
542.395	1593.26
542.599	1605.28
542.804	1574.08
543.008	1601.79
543.213	1525.45
543.418	1503.37
543.622	1574.66
543.827	1526.81
544.031	1603.53
544.236	1606.83
544.44	1607.21
544.645	1614.19
544.849	1564.4
545.054	1626.01
545.258	1669.41
545.463	1661.66
545.667	1584.16
545.872	1582.22
546.076	1592.49
546.281	1577.38
546.485	1606.44
546.689	1609.35
546.894	1635.11
547.098	1615.16
547.302	1575.63
547.507	1624.84
547.711	1575.63
547.915	1658.36
548.119	1562.07
548.324	1625.81
548.528	1673.09
548.732	1608.96
548.936	1663.01
549.141	1696.73
549.345	1608.76
549.549	1621.55
549.753	1647.13
549.957	1686.84
550.161	1714.36
550.366	1661.66
550.57	1624.26
550.774	1643.64
550.978	1638.6
551.182	1694.01
551.386	1643.06
551.59	1637.44
551.794	1631.04
551.998	1651.78
552.202	1629.11
552.406	1590.55
552.61	1646.54
552.814	1661.46
553.018	1708.54
553.222	1665.14
553.426	1612.06
553.63	1705.44
553.833	1625.04
554.037	1620.2
554.241	1666.69
554.445	1697.5
554.649	1664.18
554.853	1657.59
555.056	1707.19
555.26	1694.4
555.464	1683.16
555.668	1701.96
555.871	1689.75
556.075	1717.46
556.279	1625.81
556.483	1605.28
556.686	1640.93
556.89	1636.28
557.094	1671.54
557.297	1583.19
557.501	1655.26
557.704	1600.05
557.908	1653.33
558.112	1560.91
558.315	1671.15
558.519	1601.6
558.722	1611.67
558.926	1580.28
559.129	1534.75
559.333	1532.43
559.536	1560.13
559.74	1524.48
559.943	1540.37
560.147	1535.92
560.35	1546.18
560.553	1543.66
560.757	1492.52
560.96	1606.25
561.164	1545.21
561.367	1655.84
561.57	1537.66
561.774	1575.25
561.977	1557.81
562.18	1533.2
562.384	1611.67
562.587	1561.1
562.79	1526.23
562.993	1506.85
563.197	1577.18
563.4	1595.59
563.603	1595.2
563.806	1638.21
564.009	1510.53
564.212	1549.86
564.416	1507.24
564.619	1538.63
564.822	1471.01
565.025	1526.62
565.228	1503.17
565.431	1526.81
565.634	1433.04
565.837	1470.82
566.04	1461.71
566.243	1451.83
566.446	1356.7
566.649	1472.37
566.852	1419.47
567.055	1417.73
567.258	1460.93
567.461	1513.44
567.664	1523.52
567.867	1407.85
568.07	1497.75
568.273	1470.82
568.475	1521.58
568.678	1411.34
568.881	1389.25
569.084	1420.44
569.287	1332.87
569.489	1379.17
569.692	1431.68
569.895	1413.66
570.098	1355.34
570.3	1389.44
570.503	1298.19
570.706	1322.02
570.909	1331.71
571.111	1261.57
571.314	1284.82
571.516	1298.77
571.719	1331.71
571.922	1291.79
572.124	1308.26
572.327	1355.92
572.529	1269.71
572.732	1298.19
572.935	1315.43
573.137	1399.71
573.34	1280.94
573.542	1344.69
573.745	1326.28
573.947	1316.01
574.15	1302.06
574.352	1286.37
574.554	1359.61
574.757	1288.5
574.959	1286.56
575.162	1264.48
575.364	1252.08
575.566	1386.73
575.769	1251.3
575.971	1277.65
576.173	1170.31
576.376	1238.51
576.578	1249.94
576.78	1309.62
576.982	1152.1
577.185	1215.26
577.387	1213.52
577.589	1227.86
577.791	1256.92
577.993	1272.81
578.196	1210.42
578.398	1242.19
578.6	1261.38
578.802	1185.81
579.004	1185.23
579.206	1206.35
579.408	1240.26
579.61	1198.02
579.812	1228.83
580.014	1198.41
580.216	1223.79
580.418	1207.9
580.62	1175.93
580.822	1155.59
581.024	1224.37
581.226	1272.42
581.428	1198.99
581.63	1290.24
581.832	1213.33
582.034	1271.26
582.236	1240.26
582.438	1270.68
582.64	1256.34
582.841	1295.86
583.043	1304.58
583.245	1243.36
583.447	1241.23
583.649	1224.18
583.85	1260.41
584.052	1311.36
584.254	1203.25
584.456	1295.47
584.657	1203.83
584.859	1196.66
585.061	1223.01
585.262	1201.7
585.464	1182.91
585.666	1269.13
585.867	1197.83
586.069	1264.09
586.27	1204.99
586.472	1213.13
586.674	1200.93
586.875	1194.34
587.077	1191.82
587.278	1192.98
587.48	1172.83
587.681	1312.72
587.883	1205.58
588.084	1125.17
588.285	1150.16
588.487	1168.38
588.688	1181.94
588.89	1065.11
589.091	1080.22
589.292	1072.28
589.494	1052.9
589.695	1029.46
589.896	972.89
590.098	1014.93
590.299	1031.2
590.5	1014.35
590.702	1049.61
590.903	1052.71
591.104	1131.95
591.305	1099.98
591.507	1140.09
591.708	1117.81
591.909	1082.93
592.11	1169.54
592.311	1105.41
592.512	1069.18
592.714	1027.52
592.915	1068.02
593.116	1098.82
593.317	1099.6
593.518	1061.62
593.719	1116.06
593.92	1123.23
594.121	1121.88
594.322	1094.95
594.523	1100.56
594.724	1036.82
594.925	1051.74
595.126	1079.06
595.327	1071.31
595.528	1093.01
595.729	1074.6
595.929	1072.08
596.13	1082.16
596.331	1094.37
596.532	1112.19
596.733	1142.03
596.934	1124.4
597.135	1120.13
597.335	1136.8
597.536	1037.21
597.737	1091.27
597.938	1079.45
598.138	1102.7
598.339	1070.34
598.54	1134.08
598.74	1074.41
598.941	1075.18
599.142	1159.27
599.342	1113.93
599.543	1077.9
599.744	1084.29
599.944	1084.87
600.145	1062.78
600.345	1062.98
600.546	1145.9
600.746	1143.96
600.947	1192.21
601.147	1120.52
601.348	1133.31
601.548	1074.41
601.749	1117.81
601.949	1071.12
602.15	1072.47
602.35	1082.74
602.551	1119.16
602.751	1038.57
602.951	1092.82
603.152	1033.92
603.352	1127.5
603.552	1108.7
603.753	1131.18
603.953	1142.8
604.153	1069.37
604.354	1112.96
604.554	1100.95
604.754	1064.14
604.954	1058.52
605.155	1115.48
605.355	1096.88
605.555	1131.76
605.755	1129.05
605.955	1076.15
606.155	1118.39
606.356	1097.66
606.556	1122.26
606.756	1091.07
606.956	1047.48
607.156	1132.53
607.356	1067.63
607.556	1092.43
607.756	1092.62
607.956	1115.29
608.156	1088.55
608.356	1054.26
608.556	1091.07
608.756	1098.24
608.956	1040.89
609.156	1106.18
609.356	1054.26
609.556	1003.11
609.755	1061.62
609.955	1033.14
610.155	1059.1
610.355	1089.13
610.555	1013.57
610.755	1057.94
610.954	1027.72
611.154	1080.61
611.354	1066.66
611.554	1015.12
611.753	1014.35
611.953	984.7
612.153	1060.65
612.352	1056.78
612.552	999.43
612.752	980.05
612.951	1030.62
613.151	1018.8
613.351	1007.37
613.55	986.25
613.75	1026.36
613.949	979.86
614.149	1006.02
614.348	998.07
614.548	976.37
614.747	944.79
614.947	944.21
615.146	926.97
615.346	1028.68
615.545	1004.47
615.745	986.45
615.944	1011.25
616.144	985.09
616.343	1024.03
616.542	937.24
616.742	952.35
616.941	952.15
617.14	905.66
617.34	951.57
617.539	946.73
617.738	914.76
617.938	1012.41
618.137	962.81
618.336	944.02
618.535	985.87
618.734	953.32
