Data from oakcork_FLMT105791__171__17-31-44-057.txt Node

Date: Mon Mar 20 17:31:44 GMT 2023
User: antho
Spectrometer: FLMT10579
Trigger mode: 0
Integration Time (sec): 1.000000E-1
Scans to average: 10
Electric dark correction enabled: true
Nonlinearity correction enabled: false
Boxcar width: 0
XAxis mode: Wavelengths
Number of Pixels in Spectrum: 3648
>>>>>Begin Spectral Data<<<<<
345.248	-141.02
345.464	-141.02
345.681	-141.02
345.898	-150.12
346.114	-164.46
346.331	-43.37
346.548	13.79
346.764	-9.46
346.981	0.81
347.197	2.36
347.414	8.56
347.631	-22.05
347.847	67.26
348.064	-7.72
348.28	30.45
348.497	-45.89
348.713	5.26
348.93	19.99
349.146	35.1
349.363	-6.17
349.579	19.79
349.796	-10.43
350.012	-17.6
350.229	19.21
350.445	-2.68
350.661	-15.27
350.878	19.02
351.094	1.78
351.311	19.99
351.527	-2.1
351.743	-43.56
351.96	26.38
352.176	13.21
352.392	59.9
352.609	27.16
352.825	-12.56
353.041	-0.36
353.257	8.75
353.474	15.14
353.69	16.5
353.906	17.28
354.122	-7.72
354.339	40.33
354.555	-11.21
354.771	-3.07
354.987	71.72
355.203	53.7
355.42	-30.39
355.636	1.19
355.852	-15.47
356.068	-19.15
356.284	-24.77
356.5	45.95
356.716	-5.78
356.932	6.62
357.148	25.03
357.364	6.43
357.58	42.66
357.796	27.16
358.012	41.49
358.228	-11.21
358.444	-44.92
358.66	48.66
358.876	45.95
359.092	-23.22
359.308	-22.05
359.524	25.8
359.74	-4.81
359.956	-14.31
360.172	14.37
360.388	16.5
360.604	-23.6
360.819	106.4
361.035	-5.59
361.251	25.22
361.467	-29.42
361.683	45.18
361.898	10.3
362.114	34.13
362.33	0.23
362.546	39.17
362.762	20.96
362.977	29.68
363.193	-25.35
363.409	31.42
363.624	-30.97
363.84	-27.67
364.056	7.39
364.271	32
364.487	-6.56
364.703	-24.57
364.918	-20.5
365.134	13.4
365.35	-16.82
365.565	84.12
365.781	35.1
365.996	5.65
366.212	55.06
366.427	46.73
366.643	2.74
366.858	-2.87
367.074	-16.82
367.289	55.06
367.505	92.84
367.72	-29.61
367.936	-20.5
368.151	33.55
368.367	19.41
368.582	12.63
368.798	6.04
369.013	58.93
369.228	10.49
369.444	27.16
369.659	33.74
369.874	3.52
370.09	59.13
370.305	-43.17
370.52	-14.11
370.736	57.96
370.951	4.88
371.166	67.26
371.381	57.77
371.597	39.94
371.812	-35.04
372.027	-18.37
372.242	21.15
372.458	68.04
372.673	-9.85
372.888	-1.32
373.103	9.33
373.318	90.32
373.533	21.15
373.749	30.45
373.964	-29.8
374.179	50.41
374.394	1
374.609	44.79
374.824	-15.08
375.039	41.88
375.254	-21.67
375.469	59.9
375.684	17.66
375.899	50.21
376.114	-7.72
376.329	30.26
376.544	40.53
376.759	36.07
376.974	-35.23
377.189	19.6
377.404	-2.49
377.619	-1.71
377.834	-43.37
378.049	-29.8
378.264	-20.31
378.478	24.44
378.693	-17.6
378.908	29.48
379.123	-33.1
379.338	26.38
379.553	38.59
379.767	21.73
379.982	29.48
380.197	44.21
380.412	9.33
380.626	19.79
380.841	78.31
381.056	27.54
381.271	59.51
381.485	1
381.7	-21.09
381.915	-4.04
382.129	-4.23
382.344	2.36
382.559	4.68
382.773	44.21
382.988	-17.6
383.202	25.8
383.417	-5.39
383.632	107.37
383.846	29.87
384.061	22.89
384.275	13.21
384.49	25.61
384.704	27.35
384.919	22.51
385.133	23.48
385.348	48.28
385.562	-42.4
385.777	49.83
385.991	10.11
386.206	6.62
386.42	-8.49
386.634	53.7
386.849	17.86
387.063	14.37
387.277	-29.03
387.492	0.61
387.706	-22.83
387.92	4.68
388.135	42.08
388.349	25.61
388.563	21.73
388.778	20.76
388.992	33.16
389.206	26.19
389.42	72.88
389.635	19.6
389.849	24.83
390.063	51.76
390.277	48.08
390.491	41.69
390.706	16.69
390.92	59.71
391.134	3.91
391.348	46.14
391.562	-35.42
391.776	14.18
391.99	-31.74
392.205	39.94
392.419	-17.99
392.633	-19.15
392.847	63.78
393.061	-2.1
393.275	78.89
393.489	-9.46
393.703	19.41
393.917	35.68
394.131	10.49
394.345	54.09
394.559	75.98
394.773	17.47
394.986	46.14
395.2	18.24
395.414	32.19
395.628	-25.74
395.842	18.63
396.056	2.16
396.27	-25.15
396.484	53.51
396.697	21.15
396.911	63.97
397.125	21.93
397.339	65.13
397.553	36.46
397.766	95.94
397.98	70.36
398.194	33.16
398.408	-5.01
398.621	62.42
398.835	55.44
399.049	17.08
399.262	49.83
399.476	41.69
399.69	39.17
399.903	78.11
400.117	24.64
400.331	42.66
400.544	-14.11
400.758	113.96
400.971	12.43
401.185	47.11
401.398	6.04
401.612	45.56
401.826	41.11
402.039	31.81
402.253	27.74
402.466	30.84
402.68	-3.07
402.893	33.36
403.106	20.18
403.32	18.24
403.533	62.42
403.747	8.36
403.96	23.67
404.174	60.87
404.387	-18.76
404.6	9.53
404.814	54.86
405.027	14.56
405.24	11.08
405.454	15.14
405.667	61.84
405.88	-37.75
406.094	8.56
406.307	57.77
406.52	44.98
406.733	-17.79
406.947	-23.02
407.16	84.51
407.373	56.8
407.586	13.59
407.799	-17.79
408.012	66.1
408.226	64.55
408.439	81.02
408.652	-14.89
408.865	5.65
409.078	31.23
409.291	24.83
409.504	-16.63
409.717	19.21
409.93	48.28
410.143	36.46
410.357	-31.94
410.57	-0.55
410.783	28.51
410.996	63.19
411.209	8.94
411.421	55.64
411.634	34.52
411.847	7.2
412.06	12.04
412.273	17.47
412.486	31.61
412.699	114.54
412.912	23.28
413.125	52.54
413.338	18.44
413.55	91.67
413.763	32.97
413.976	36.84
414.189	13.21
414.402	2.16
414.615	68.62
414.827	-16.05
415.04	55.64
415.253	50.21
415.466	60.09
415.678	66.29
415.891	35.29
416.104	15.73
416.316	24.25
416.529	-11.59
416.742	39.17
416.954	34.33
417.167	32
417.38	28.32
417.592	72.69
417.805	10.3
418.017	-12.56
418.23	71.33
418.442	13.21
418.655	18.24
418.868	54.67
419.08	61.26
419.293	47.89
419.505	39.17
419.718	37.43
419.93	77.53
420.142	48.47
420.355	75.21
420.567	63.97
420.78	43.43
420.992	1.19
421.205	64.94
421.417	-13.53
421.629	16.5
421.842	1.97
422.054	-1.71
422.266	35.88
422.479	41.3
422.691	0.03
422.903	27.16
423.115	7.39
423.328	9.72
423.54	45.18
423.752	49.44
423.964	11.66
424.177	26.58
424.389	13.21
424.601	129.84
424.813	38.98
425.025	42.66
425.238	69.2
425.45	13.01
425.662	27.35
425.874	305.77
426.086	31.23
426.298	60.87
426.51	50.79
426.722	25.22
426.934	4.49
427.146	76.76
427.358	15.53
427.57	63.58
427.782	32.19
427.994	25.8
428.206	8.17
428.418	-3.46
428.63	48.28
428.842	88.19
429.054	42.66
429.266	49.83
429.478	-0.16
429.69	31.61
429.902	3.52
430.114	65.33
430.325	69.01
430.537	22.89
430.749	28.51
430.961	-13.14
431.173	47.89
431.384	72.88
431.596	-32.52
431.808	17.28
432.02	33.55
432.231	47.31
432.443	52.15
432.655	50.79
432.867	7.2
433.078	48.66
433.29	90.12
433.502	68.23
433.713	41.3
433.925	17.28
434.136	76.56
434.348	-6.56
434.56	-9.66
434.771	135.85
434.983	-20.5
435.194	19.6
435.406	23.48
435.617	50.21
435.829	87.61
436.04	69.78
436.252	75.79
436.463	86.25
436.675	67.84
436.886	36.26
437.098	50.99
437.309	55.44
437.521	29.09
437.732	27.35
437.943	27.16
438.155	55.44
438.366	-7.14
438.578	86.25
438.789	31.03
439	67.84
439.211	27.16
439.423	57.19
439.634	33.94
439.845	72.11
440.057	43.63
440.268	75.98
440.479	4.68
440.69	44.21
440.902	54.48
441.113	25.61
441.324	18.83
441.535	52.93
441.746	114.92
441.957	28.51
442.168	26.77
442.38	69.98
442.591	32
442.802	4.88
443.013	20.76
443.224	53.51
443.435	33.55
443.646	34.52
443.857	7.01
444.068	6.62
444.279	16.69
444.49	115.7
444.701	52.54
444.912	132.17
445.123	52.54
445.334	40.33
445.545	43.04
445.756	6.81
445.967	20.18
446.178	61.45
446.388	66.29
446.599	77.72
446.81	66.68
447.021	38.2
447.232	68.04
447.443	99.23
447.653	10.3
447.864	69.01
448.075	33.94
448.286	65.13
448.496	69.59
448.707	67.46
448.918	37.81
449.129	122.87
449.339	23.28
449.55	60.68
449.761	36.26
449.971	113.18
450.182	52.54
450.393	69.59
450.603	54.09
450.814	59.71
451.024	69.01
451.235	70.94
451.446	118.61
451.656	100.39
451.867	28.13
452.077	64.16
452.288	96.32
452.498	95.74
452.709	51.18
452.919	80.24
453.13	57.38
453.34	98.84
453.55	13.59
453.761	73.66
453.971	87.8
454.182	104.07
454.392	62.03
454.602	127.71
454.813	65.33
455.023	90.9
455.233	24.06
455.444	59.71
455.654	16.31
455.864	50.41
456.075	50.99
456.285	48.66
456.495	56.99
456.705	49.24
456.916	99.23
457.126	110.47
457.336	70.56
457.546	7.39
457.756	37.43
457.967	114.92
458.177	42.46
458.387	59.9
458.597	31.81
458.807	69.39
459.017	64.94
459.227	75.4
459.437	40.14
459.647	97.29
459.857	93.03
460.068	47.69
460.278	106.98
460.488	75.79
460.698	131.01
460.908	63.19
461.117	34.33
461.327	24.83
461.537	77.53
461.747	74.62
461.957	52.93
462.167	147.86
462.377	108.53
462.587	72.11
462.797	132.56
463.007	61.06
463.216	94.58
463.426	91.87
463.636	89.74
463.846	33.74
464.056	73.66
464.265	92.26
464.475	60.48
464.685	93.03
464.895	96.71
465.104	65.52
465.314	92.45
465.524	77.34
465.733	46.73
465.943	120.74
466.153	130.04
466.362	113.37
466.572	100.01
466.782	72.88
466.991	58.93
467.201	117.83
467.41	39.17
467.62	76.37
467.829	76.95
468.039	83.15
468.249	80.82
468.458	53.31
468.668	102.14
468.877	78.31
469.086	133.52
469.296	117.64
469.505	59.32
469.715	149.41
469.924	107.76
470.134	143.6
470.343	119.38
470.552	92.45
470.762	106.4
470.971	72.69
471.18	103.49
471.39	72.49
471.599	67.46
471.808	105.62
472.018	71.91
472.227	117.25
472.436	132.94
472.645	71.72
472.855	66.29
473.064	121.51
473.273	66.88
473.482	117.06
473.691	118.41
473.901	129.26
474.11	81.21
474.319	162.2
474.528	106.59
474.737	131.39
474.946	118.22
475.155	104.27
475.364	140.11
475.573	97.68
475.783	93.81
475.992	113.96
476.201	134.88
476.41	92.64
476.619	66.68
476.828	107.76
477.037	90.71
477.245	113.96
477.454	122.87
477.663	51.57
477.872	69.39
478.081	150.19
478.29	40.53
478.499	164.52
478.708	75.59
478.917	164.52
479.125	91.48
479.334	95.74
479.543	84.12
479.752	117.64
479.961	96.91
480.169	136.24
480.378	65.33
480.587	180.99
480.796	112.6
481.004	111.05
481.213	165.3
481.422	119.57
481.63	89.35
481.839	128.1
482.048	165.3
482.256	137.79
482.465	97.87
482.674	151.54
482.882	82.96
483.091	178.67
483.299	141.08
483.508	124.61
483.716	84.89
483.925	124.61
484.134	115.12
484.342	110.86
484.551	148.64
484.759	127.52
484.967	130.42
485.176	155.22
485.384	168.01
485.593	154.06
485.801	132.17
486.01	109.11
486.218	140.5
486.426	119.57
486.635	127.32
486.843	129.26
487.051	149.02
487.26	116.67
487.468	162.39
487.676	167.43
487.885	112.21
488.093	129.07
488.301	122.67
488.509	138.76
488.717	152.32
488.926	119.96
489.134	97.1
489.342	132.36
489.55	98.46
489.758	140.11
489.967	118.22
490.175	232.34
490.383	84.51
490.591	185.84
490.799	86.64
491.007	179.44
491.215	149.02
491.423	122.29
491.631	138.95
491.839	141.08
492.047	180.6
492.255	124.81
492.463	147.67
492.671	157.16
492.879	183.7
493.087	138.76
493.295	177.7
493.503	171.89
493.711	170.14
493.919	187.19
494.127	165.1
494.334	206.76
494.542	130.23
494.75	149.99
494.958	141.47
495.166	175.57
495.374	159.49
495.581	150.96
495.789	159.87
495.997	192.04
496.205	156.97
496.412	129.46
496.62	151.54
496.828	162
497.035	146.7
497.243	157.36
497.451	145.54
497.658	172.27
497.866	136.24
498.074	206.18
498.281	138.95
498.489	249.19
498.696	187.97
498.904	149.61
499.112	174.99
499.319	219.94
499.527	168.59
499.734	199.01
499.942	131.39
500.149	166.27
500.357	170.92
500.564	133.52
500.771	190.29
500.979	153.48
501.186	136.82
501.394	166.85
501.601	197.27
501.808	205.21
502.016	167.43
502.223	169.95
502.43	170.92
502.638	195.72
502.845	149.41
503.052	249.19
503.26	172.66
503.467	225.94
503.674	148.44
503.881	179.83
504.089	245.12
504.296	201.72
504.503	142.24
504.71	178.47
504.917	173.24
505.125	181.77
505.332	191.65
505.539	201.34
505.746	242.99
505.953	222.07
506.16	187.39
506.367	234.08
506.574	241.44
506.781	232.14
506.988	171.69
507.195	208.7
507.402	198.62
507.609	240.47
507.816	187.58
508.023	204.24
508.23	178.47
508.437	163.17
508.644	202.69
508.851	265.85
509.058	221.1
509.265	221.49
509.472	223.23
509.679	281.93
509.885	184.29
510.092	197.27
510.299	208.7
510.506	223.62
510.713	216.45
510.92	234.66
511.126	236.6
511.333	248.8
511.54	239.31
511.746	270.89
511.953	268.95
512.16	268.57
512.367	189.52
512.573	201.14
512.78	219.16
512.987	225.36
513.193	227.3
513.4	148.06
513.606	218.97
513.813	231.75
514.02	231.56
514.226	282.32
514.433	273.41
514.639	199.4
514.846	244.35
515.052	196.1
515.259	208.12
515.465	241.25
515.672	226.72
515.878	304.99
516.085	247.45
516.291	280.19
516.497	230.4
516.704	222.84
516.91	200.17
517.117	212.57
517.323	180.99
517.529	236.79
517.736	239.89
517.942	249.58
518.148	227.88
518.354	250.74
518.561	269.73
518.767	239.12
518.973	285.23
519.179	254.81
519.386	231.17
519.592	232.53
519.798	228.27
520.004	261.01
520.21	247.06
520.417	257.13
520.623	304.41
520.829	301.31
521.035	272.05
521.241	274.77
521.447	286.39
521.653	373.77
521.859	258.3
522.065	284.84
522.271	377.06
522.477	305.18
522.683	318.75
522.889	296.27
523.095	310.22
523.301	307.12
523.507	297.43
523.713	319.33
523.919	277.48
524.125	341.22
524.331	292.2
524.537	333.86
524.742	332.5
524.948	360.01
525.154	321.85
525.36	408.26
525.566	339.48
525.772	393.73
525.977	304.6
526.183	353.43
526.389	385.2
526.595	313.71
526.8	374.74
527.006	284.65
527.212	301.5
527.417	319.33
527.623	276.51
527.829	369.51
528.034	308.28
528.24	346.06
528.446	300.34
528.651	357.88
528.857	351.3
529.062	399.54
529.268	343.35
529.473	355.95
529.679	323.01
529.884	404.96
530.09	376.1
530.295	419.69
530.501	387.14
530.706	371.83
530.912	337.73
531.117	361.18
531.323	363.7
531.528	372.03
531.733	377.84
531.939	366.02
532.144	376.1
532.35	418.53
532.555	420.08
532.76	427.05
532.966	432.09
533.171	404.38
533.376	377.45
533.581	362.92
533.787	374.74
533.992	402.83
534.197	439.45
534.402	388.88
534.607	382.68
534.813	486.34
535.018	387.33
535.223	354.78
535.428	406.13
535.633	437.32
535.838	411.75
536.043	419.3
536.249	462.89
536.454	401.67
536.659	428.99
536.864	393.15
537.069	364.28
537.274	428.99
537.479	429.96
537.684	432.86
537.889	400.12
538.094	485.18
538.299	427.05
538.504	450.3
538.708	449.53
538.913	451.08
539.118	421.05
539.323	423.76
539.528	404.38
539.733	433.44
539.938	419.5
540.142	456.31
540.347	423.76
540.552	405.93
540.757	445.07
540.962	430.34
541.166	395.08
541.371	400.9
541.576	438.68
541.781	346.26
541.985	438.09
542.19	434.22
542.395	448.36
542.599	469.68
542.804	466.77
543.008	509.2
543.213	422.59
543.418	426.08
543.622	440.23
543.827	412.33
544.031	489.05
544.236	482.66
544.44	433.06
544.645	526.83
544.849	428.79
545.054	459.41
545.258	520.63
545.463	517.14
545.667	457.86
545.872	462.12
546.076	477.81
546.281	455.53
546.485	402.83
546.689	459.99
546.894	502.61
547.098	435.96
547.302	415.62
547.507	450.49
547.711	483.24
547.915	513.66
548.119	415.23
548.324	479.75
548.528	515.79
548.732	454.95
548.936	486.34
549.141	515.79
549.345	464.83
549.549	462.89
549.753	471.42
549.957	542.72
550.161	534.19
550.366	481.88
550.57	459.99
550.774	468.71
550.978	443.52
551.182	530.71
551.386	465.41
551.59	451.46
551.794	463.86
551.998	490.6
552.202	467.54
552.406	416.78
552.61	474.13
552.814	452.82
553.018	513.85
553.222	483.63
553.426	470.64
553.63	547.76
553.833	480.91
554.037	418.91
554.241	487.11
554.445	495.06
554.649	424.53
554.853	474.13
555.056	509.2
555.26	493.89
555.464	468.32
555.668	503
555.871	532.45
556.075	503.39
556.279	432.86
556.483	435.38
556.686	497.19
556.89	482.85
557.094	497.19
557.297	446.23
557.501	508.81
557.704	445.26
557.908	483.82
558.112	478.59
558.315	566.36
558.519	472
558.722	487.5
558.926	449.14
559.129	438.29
559.333	427.44
559.536	406.9
559.74	430.73
559.943	416.78
560.147	426.86
560.35	462.31
560.553	420.08
560.757	407.48
560.96	527.8
561.164	417.17
561.367	478.39
561.57	440.23
561.774	469.29
561.977	440.81
562.18	418.72
562.384	521.41
562.587	455.53
562.79	418.14
562.993	460.38
563.197	483.43
563.4	503.78
563.603	475.68
563.806	535.74
564.009	421.05
564.212	475.49
564.416	410
564.619	484.79
564.822	397.21
565.025	484.4
565.228	440.03
565.431	423.37
565.634	361.95
565.837	424.92
566.04	405.55
566.243	435.96
566.446	360.98
566.649	460.38
566.852	372.41
567.055	417.17
567.258	453.01
567.461	468.51
567.664	486.92
567.867	379.58
568.07	461.54
568.273	416.4
568.475	476.65
568.678	418.53
568.881	405.74
569.084	426.28
569.287	342
569.489	375.32
569.692	416.98
569.895	420.46
570.098	390.43
570.3	365.63
570.503	315.26
570.706	366.02
570.909	353.23
571.111	333.67
571.314	361.76
571.516	409.03
571.719	401.67
571.922	348.58
572.124	384.23
572.327	377.06
572.529	331.53
572.732	341.22
572.935	366.6
573.137	404.77
573.34	326.3
573.542	373
573.745	369.31
573.947	331.73
574.15	356.33
574.352	332.89
574.554	410.2
574.757	356.53
574.959	350.71
575.162	329.98
575.364	340.06
575.566	423.18
575.769	320.68
575.971	348.2
576.173	278.25
576.376	360.21
576.578	363.31
576.78	411.94
576.982	279.61
577.185	357.88
577.387	312.55
577.589	310.61
577.791	337.54
577.993	337.15
578.196	341.8
578.398	355.17
578.6	360.21
578.802	293.95
579.004	330.57
579.206	307.7
579.408	352.85
579.61	317.97
579.812	351.49
580.014	335.02
580.216	332.31
580.418	313.32
580.62	299.37
580.822	261.78
581.024	327.27
581.226	355.17
581.428	296.27
581.63	388.11
581.832	314.29
582.034	379.58
582.236	308.87
582.438	346.06
582.64	361.95
582.841	373.96
583.043	418.14
583.245	345.29
583.447	345.68
583.649	352.26
583.85	340.45
584.052	403.41
584.254	300.53
584.456	354.78
584.657	302.86
584.859	320.1
585.061	326.5
585.262	305.18
585.464	300.53
585.666	340.06
585.867	296.27
586.069	387.72
586.27	347.61
586.472	331.92
586.674	291.82
586.875	319.13
587.077	310.03
587.278	316.03
587.48	330.76
587.681	413.68
587.883	336.18
588.084	258.68
588.285	308.09
588.487	293.56
588.688	336.38
588.89	309.83
589.091	247.25
589.292	329.4
589.494	276.12
589.695	290.46
589.896	245.32
590.098	239.7
590.299	302.47
590.5	250.16
590.702	270.5
590.903	276.51
591.104	334.05
591.305	327.08
591.507	325.14
591.708	310.42
591.909	257.52
592.11	348.39
592.311	323.4
592.512	293.17
592.714	268.57
592.915	260.23
593.116	294.14
593.317	272.44
593.518	274.77
593.719	255.58
593.92	312.16
594.121	317
594.322	297.05
594.523	321.85
594.724	279.61
594.925	266.63
595.126	306.93
595.327	313.32
595.528	294.92
595.729	322.23
595.929	287.94
596.13	282.71
596.331	274.38
596.532	296.27
596.733	343.35
596.934	296.66
597.135	312.93
597.335	327.66
597.536	267.4
597.737	307.9
597.938	263.53
598.138	315.45
598.339	274.38
598.54	302.86
598.74	290.85
598.941	306.35
599.142	339.09
599.342	277.48
599.543	272.83
599.744	276.12
599.944	273.41
600.145	268.18
600.345	299.18
600.546	344.51
600.746	324.75
600.947	358.08
601.147	317
601.348	323.98
601.548	286.97
601.749	309.64
601.949	275.15
602.15	276.9
602.35	295.3
602.551	342.77
602.751	257.33
602.951	266.24
603.152	235.63
603.352	299.95
603.552	273.99
603.753	310.8
603.953	292.98
604.153	299.95
604.354	272.44
604.554	273.41
604.754	285.23
604.954	242.22
605.155	304.02
605.355	274.96
605.555	329.21
605.755	338.9
605.955	263.92
606.155	295.5
606.356	296.27
606.556	304.02
606.756	305.57
606.956	239.5
607.156	347.23
607.356	257.91
607.556	304.22
607.756	307.51
607.956	348.97
608.156	299.37
608.356	268.76
608.556	295.11
608.756	295.5
608.956	244.54
609.156	306.73
609.356	256.36
609.556	259.85
609.755	309.64
609.955	286.78
610.155	277.67
610.355	282.9
610.555	246.29
610.755	271.47
610.954	236.02
611.154	283.87
611.354	307.7
611.554	250.35
611.753	271.47
611.953	236.99
612.153	293.37
612.352	295.11
612.552	245.7
612.752	215.29
612.951	264.5
613.151	276.12
613.351	232.14
613.55	247.83
613.75	299.76
613.949	259.27
614.149	281.35
614.348	263.53
614.548	235.05
614.747	207.92
614.947	266.24
615.146	210.25
615.346	292.4
615.545	256.36
615.745	261.2
615.944	290.07
616.144	247.45
616.343	314.29
616.542	237.37
616.742	262.95
616.941	268.57
617.14	236.02
617.34	263.72
617.539	287.17
617.738	220.52
617.938	314.87
618.137	246.67
618.336	217.22
618.535	289.49
618.734	252.29
618.934	279.8
619.133	256.55
619.332	271.86
619.531	232.72
619.73	236.21
619.929	292.59
620.128	263.14
620.328	315.26
620.527	245.9
620.726	242.8
620.925	255.58
621.124	220.32
621.323	269.53
621.522	193.78
621.721	215.29
621.92	206.76
622.119	249
622.318	249.38
622.517	234.08
622.715	258.49
622.914	185.64
623.113	228.65
623.312	213.15
623.511	257.91
623.71	248.8
623.909	220.9
624.107	305.77
624.306	190.29
624.505	222.45
624.704	209.86
624.902	236.02
625.101	299.57
625.3	262.95
625.499	186.22
625.697	224.97
625.896	204.63
626.095	261.01
626.293	180.41
626.492	222.84
626.69	253.26
626.889	185.25
627.088	232.53
627.286	213.93
627.485	197.46
627.683	199.79
627.882	260.43
628.08	163.36
628.279	210.64
628.477	283.29
628.676	207.92
628.874	255.97
629.073	205.4
