Data from oakcork_FLMT105791__170__17-31-43-057.txt Node

Date: Mon Mar 20 17:31:43 GMT 2023
User: antho
Spectrometer: FLMT10579
Trigger mode: 0
Integration Time (sec): 1.000000E-1
Scans to average: 10
Electric dark correction enabled: true
Nonlinearity correction enabled: false
Boxcar width: 0
XAxis mode: Wavelengths
Number of Pixels in Spectrum: 3648
>>>>>Begin Spectral Data<<<<<
345.248	-148.88
345.464	-148.88
345.681	-148.88
345.898	-174.07
346.114	-144.81
346.331	-55.3
346.548	43.9
346.764	13.29
346.981	-1.24
347.197	-22.75
347.414	28.79
347.631	-26.24
347.847	50.29
348.064	-8.22
348.28	9.03
348.497	-40.57
348.713	9.03
348.93	29.18
349.146	17.55
349.363	-8.99
349.579	30.92
349.796	4.57
350.012	12.9
350.229	12.51
350.445	0.89
350.661	-2.99
350.878	0.31
351.094	17.74
351.311	-6.28
351.527	12.51
351.743	-0.47
351.96	57.07
352.176	26.85
352.392	6.12
352.609	30.14
352.825	-12.09
353.041	9.03
353.257	24.72
353.474	10.77
353.69	13.68
353.906	12.9
354.122	5.34
354.339	70.44
354.555	22.39
354.771	-9.77
354.987	57.27
355.203	38.28
355.42	-37.09
355.636	3.41
355.852	-36.12
356.068	0.31
356.284	-17.13
356.5	39.64
356.716	15.81
356.932	0.89
357.148	48.16
357.364	4.18
357.58	49.52
357.796	48.74
358.012	43.9
358.228	16.39
358.444	-43.67
358.66	70.83
358.876	26.08
359.092	-11.32
359.308	28.98
359.524	26.08
359.74	19.88
359.956	-8.8
360.172	-20.23
360.388	36.54
360.604	7.48
360.819	73.16
361.035	36.92
361.251	17.74
361.467	-20.81
361.683	54.94
361.898	22.98
362.114	20.26
362.33	13.48
362.546	47.58
362.762	21.23
362.977	13.48
363.193	-32.63
363.409	46.81
363.624	-16.94
363.84	-28.76
364.056	-22.36
364.271	14.84
364.487	29.76
364.703	4.18
364.918	-17.52
365.134	1.66
365.35	8.64
365.565	84.2
365.781	9.8
365.996	5.34
366.212	79.74
366.427	33.24
366.643	-7.83
366.858	7.09
367.074	-15.77
367.289	47.58
367.505	92.14
367.72	-39.41
367.936	-3.37
368.151	51.26
368.367	41.77
368.582	38.47
368.798	-5.51
369.013	41.19
369.228	8.64
369.444	11.16
369.659	53.39
369.874	2.63
370.09	52.23
370.305	-43.87
370.52	2.05
370.736	64.24
370.951	-0.47
371.166	58.82
371.381	67.54
371.597	39.06
371.812	-21.39
372.027	-28.17
372.242	13.48
372.458	94.66
372.673	-1.24
372.888	9.22
373.103	16.19
373.318	82.26
373.533	23.56
373.749	30.92
373.964	-15.39
374.179	63.27
374.394	-19.07
374.609	44.48
374.824	-18.87
375.039	62.5
375.254	-13.64
375.469	40.41
375.684	21.04
375.899	45.64
376.114	18.13
376.329	14.06
376.544	72.57
376.759	53.59
376.974	-2.21
377.189	12.71
377.404	-1.24
377.619	56.69
377.834	-62.47
378.049	-23.33
378.264	3.21
378.478	9.41
378.693	-20.04
378.908	21.23
379.123	2.05
379.338	65.41
379.553	47.77
379.767	5.73
379.982	18.33
380.197	17.94
380.412	40.02
380.626	31.11
380.841	63.08
381.056	51.26
381.271	94.86
381.485	-2.02
381.7	-35.54
381.915	30.92
382.129	-9.77
382.344	31.5
382.559	9.8
382.773	61.72
382.988	-11.9
383.202	26.66
383.417	-22.94
383.632	104.93
383.846	48.94
384.061	-3.57
384.275	20.07
384.49	43.71
384.704	51.46
384.919	28.4
385.133	4.96
385.348	47.77
385.562	-4.34
385.777	44.67
385.991	6.12
386.206	-6.47
386.42	21.43
386.634	50.87
386.849	38.86
387.063	23.36
387.277	-27.59
387.492	-16.36
387.706	-34.37
387.92	0.31
388.135	64.63
388.349	18.13
388.563	38.67
388.778	29.56
388.992	52.04
389.206	30.92
389.42	77.61
389.635	54.17
389.849	30.34
390.063	39.83
390.277	35.57
390.491	61.53
390.706	34.41
390.92	64.24
391.134	7.09
391.348	46.42
391.562	-56.46
391.776	18.33
391.99	-24.88
392.205	41.38
392.419	-7.64
392.633	7.86
392.847	59.4
393.061	-1.24
393.275	79.94
393.489	13.09
393.703	32.86
393.917	67.15
394.131	-15.39
394.345	8.83
394.559	54.56
394.773	6.89
394.986	8.25
395.2	48.74
395.414	47.77
395.628	-8.8
395.842	22.39
396.056	2.44
396.27	-35.73
396.484	43.12
396.697	32.66
396.911	61.92
397.125	38.86
397.339	42.93
397.553	54.56
397.766	71.99
397.98	50.87
398.194	56.88
398.408	10.96
398.621	45.06
398.835	43.32
399.049	27.63
399.262	84.01
399.476	47.58
399.69	27.43
399.903	90.79
400.117	23.56
400.331	34.6
400.544	-2.21
400.758	121.4
400.971	18.91
401.185	53.39
401.398	10.19
401.612	41.19
401.826	45.84
402.039	35.18
402.253	0.5
402.466	42.54
402.68	20.46
402.893	16
403.106	29.37
403.32	7.48
403.533	31.89
403.747	51.65
403.96	28.98
404.174	48.94
404.387	10.77
404.6	9.99
404.814	54.75
405.027	49.13
405.24	31.89
405.454	25.11
405.667	59.98
405.88	-13.64
406.094	52.04
406.307	61.92
406.52	19.68
406.733	-6.67
406.947	-13.84
407.16	88.27
407.373	72.96
407.586	22.2
407.799	-6.47
408.012	64.24
408.226	47.39
408.439	77.81
408.652	-17.91
408.865	12.13
409.078	60.37
409.291	55.52
409.504	-8.02
409.717	22.2
409.93	47.58
410.143	46.03
410.357	-13.84
410.57	18.91
410.783	28.59
410.996	45.45
411.209	30.34
411.421	49.13
411.634	27.82
411.847	-5.7
412.06	42.93
412.273	39.64
412.486	31.31
412.699	94.47
412.912	34.21
413.125	40.22
413.338	47
413.55	56.3
413.763	32.28
413.976	42.16
414.189	2.83
414.402	3.41
414.615	84.01
414.827	6.12
415.04	57.85
415.253	15.61
415.466	48.55
415.678	84.97
415.891	30.92
416.104	29.56
416.316	39.83
416.529	19.1
416.742	73.74
416.954	56.11
417.167	9.61
417.38	12.13
417.592	71.02
417.805	0.89
418.017	15.03
418.23	55.91
418.442	28.21
418.655	24.72
418.868	34.21
419.08	85.56
419.293	76.45
419.505	62.69
419.718	46.03
419.93	74.71
420.142	32.86
420.355	62.5
420.567	74.71
420.78	65.6
420.992	32.47
421.205	105.71
421.417	0.5
421.629	32.28
421.842	-29.53
422.054	-19.26
422.266	68.12
422.479	63.86
422.691	18.52
422.903	57.85
423.115	19.68
423.328	14.06
423.54	51.26
423.752	48.16
423.964	29.76
424.177	65.79
424.389	29.18
424.601	112.68
424.813	71.41
425.025	59.21
425.238	71.8
425.45	54.94
425.662	50.29
425.874	303.52
426.086	29.56
426.298	35.96
426.51	55.52
426.722	47.39
426.934	9.61
427.146	42.35
427.358	-24.88
427.57	50.68
427.782	14.84
427.994	45.64
428.206	9.8
428.418	-12.87
428.63	34.41
428.842	50.68
429.054	52.04
429.266	51.26
429.478	22.78
429.69	45.26
429.902	-18.29
430.114	58.04
430.325	69.47
430.537	12.13
430.749	33.63
430.961	-2.21
431.173	60.17
431.384	59.4
431.596	-8.41
431.808	45.45
432.02	40.22
432.231	47.39
432.443	73.35
432.655	50.49
432.867	21.62
433.078	53.78
433.29	86.52
433.502	65.02
433.713	69.67
433.925	51.84
434.136	82.26
434.348	20.07
434.56	-12.87
434.771	121.01
434.983	15.81
435.194	51.84
435.406	42.35
435.617	76.45
435.829	102.8
436.04	78.58
436.252	59.79
436.463	87.3
436.675	52.62
436.886	45.45
437.098	56.3
437.309	90.21
437.521	20.84
437.732	46.42
437.943	46.61
438.155	67.54
438.366	-14.22
438.578	96.41
438.789	48.36
439	70.25
439.211	33.44
439.423	65.6
439.634	53.2
439.845	53.59
440.057	83.81
440.268	67.34
440.479	18.13
440.69	51.46
440.902	10.96
441.113	27.63
441.324	15.61
441.535	61.72
441.746	92.34
441.957	9.8
442.168	20.07
442.38	73.16
442.591	71.99
442.802	14.26
443.013	33.63
443.224	61.14
443.435	59.21
443.646	47.77
443.857	48.36
444.068	39.44
444.279	21.43
444.49	107.84
444.701	26.85
444.912	103.38
445.123	87.88
445.334	55.33
445.545	69.28
445.756	45.26
445.967	16.97
446.178	62.11
446.388	94.27
446.599	82.26
446.81	79.74
447.021	50.68
447.232	78.97
447.443	79.94
447.653	10.19
447.864	84.59
448.075	38.47
448.286	88.27
448.496	93.89
448.707	64.05
448.918	45.06
449.129	146
449.339	32.08
449.55	69.67
449.761	67.73
449.971	95.24
450.182	61.72
450.393	85.36
450.603	55.14
450.814	85.94
451.024	61.92
451.235	81.29
451.446	95.24
451.656	102.61
451.867	48.36
452.077	55.72
452.288	106.09
452.498	101.44
452.709	47.77
452.919	91.37
453.13	74.51
453.34	109.39
453.55	32.86
453.761	99.89
453.971	89.82
454.182	106.09
454.392	102.02
454.602	137.29
454.813	90.98
455.023	109.58
455.233	22.01
455.444	78.58
455.654	32.86
455.864	84.39
456.075	63.27
456.285	68.7
456.495	80.32
456.705	105.12
456.916	117.14
457.126	95.05
457.336	51.84
457.546	37.31
457.756	27.82
457.967	96.99
458.177	45.06
458.387	75.87
458.597	49.91
458.807	75.29
459.017	74.71
459.227	42.54
459.437	59.01
459.647	82.46
459.857	101.83
460.068	53.97
460.278	81.1
460.488	109.39
460.698	124.3
460.908	97.96
461.117	47.19
461.327	38.86
461.537	51.65
461.747	96.99
461.957	55.33
462.167	154.72
462.377	117.33
462.587	73.54
462.797	124.11
463.007	60.95
463.216	106.09
463.426	110.94
463.636	113.26
463.846	54.36
464.056	72.57
464.265	132.25
464.475	52.42
464.685	80.32
464.895	82.07
465.104	80.91
465.314	113.46
465.524	74.71
465.733	75.09
465.943	151.04
466.153	127.79
466.362	112.68
466.572	106.09
466.782	78.39
466.991	75.87
467.201	132.64
467.41	45.84
467.62	94.47
467.829	77.22
468.039	104.35
468.249	77.22
468.458	98.34
468.668	86.52
468.877	130.7
469.086	142.71
469.296	109.77
469.505	55.72
469.715	156.08
469.924	102.61
470.134	144.26
470.343	153.17
470.552	99.7
470.762	86.52
470.971	40.8
471.18	94.66
471.39	74.71
471.599	25.69
471.808	121.21
472.018	48.16
472.227	140.77
472.436	112.49
472.645	55.14
472.855	65.79
473.064	140.97
473.273	98.15
473.482	115.97
473.691	122.76
473.901	120.24
474.11	118.11
474.319	175.07
474.528	91.76
474.737	121.98
474.946	99.51
475.155	116.94
475.364	143.49
475.573	112.1
475.783	93.11
475.992	96.41
476.201	173.71
476.41	111.52
476.619	78.19
476.828	102.8
477.037	103.77
477.245	111.71
477.454	146.39
477.663	92.92
477.872	89.24
478.081	120.43
478.29	64.44
478.499	198.9
478.708	92.53
478.917	152.01
479.125	101.44
479.334	143.87
479.543	100.09
479.752	109.39
479.961	104.54
480.169	139.8
480.378	107.26
480.587	202.97
480.796	159.37
481.004	111.13
481.213	135.74
481.422	107.06
481.63	93.89
481.839	146
482.048	153.75
482.256	144.65
482.465	101.64
482.674	139.22
482.882	131.67
483.091	191.15
483.299	146.2
483.508	150.46
483.716	119.66
483.925	127.4
484.134	130.31
484.342	114.23
484.551	151.43
484.759	139.8
484.967	142.9
485.176	158.99
485.384	170.03
485.593	168.67
485.801	135.93
486.01	147.36
486.218	143.29
486.426	108.03
486.635	140.58
486.843	141.94
487.051	156.47
487.26	133.22
487.468	148.72
487.676	194.64
487.885	115.2
488.093	144.84
488.301	149.49
488.509	169.64
488.717	174.87
488.926	138.06
489.134	138.84
489.342	144.45
489.55	125.66
489.758	124.3
489.967	109.77
490.175	237.84
490.383	131.28
490.591	191.34
490.799	86.72
491.007	189.6
491.215	129.34
491.423	133.99
491.631	136.12
491.839	142.32
492.047	161.12
492.255	135.54
492.463	120.82
492.671	162.86
492.879	199.48
493.087	152.98
493.295	165.38
493.503	168.48
493.711	173.52
493.919	198.7
494.127	181.85
494.334	193.67
494.542	144.84
494.75	174.29
494.958	170.22
495.166	196.38
495.374	180.69
495.581	180.49
495.789	150.07
495.997	191.92
496.205	181.46
496.412	123.92
496.62	167.9
496.828	179.72
497.035	148.33
497.243	192.12
497.451	175.65
497.658	173.71
497.866	158.79
498.074	206.26
498.281	148.91
498.489	236.1
498.696	192.89
498.904	176.04
499.112	166.35
499.319	249.85
499.527	181.65
499.734	196.96
499.942	159.18
500.149	168.09
500.357	202.19
500.564	150.07
500.771	172.74
500.979	152.98
501.186	182.62
501.394	173.13
501.601	196.57
501.808	207.23
502.016	192.12
502.223	166.15
502.43	204.32
502.638	182.24
502.845	168.67
503.052	228.54
503.26	190.18
503.467	261.28
503.674	193.86
503.881	196.96
504.089	254.5
504.296	222.53
504.503	157.44
504.71	219.05
504.917	161.12
505.125	192.5
505.332	207.04
505.539	229.9
505.746	228.35
505.953	201.61
506.16	204.13
506.367	264.97
506.574	270.58
506.781	230.09
506.988	184.75
507.195	218.08
507.402	173.9
507.609	227.38
507.816	185.14
508.023	218.66
508.23	186.3
508.437	171.97
508.644	234.74
508.851	259.35
509.058	248.11
509.265	233.19
509.472	223.5
509.679	279.69
509.885	221.76
510.092	223.89
510.299	221.95
510.506	237.26
510.713	226.6
510.92	253.34
511.126	248.11
511.333	256.63
511.54	208.2
511.746	287.83
511.953	245.78
512.16	253.92
512.367	213.23
512.573	206.84
512.78	241.91
512.987	215.17
513.193	240.55
513.4	182.82
513.606	221.95
513.813	270.97
514.02	241.72
514.226	262.64
514.433	288.99
514.639	231.45
514.846	230.67
515.052	210.52
515.259	234.55
515.465	239.2
515.672	250.82
515.878	314.56
516.085	254.5
516.291	258.38
516.497	210.52
516.704	252.37
516.91	203.35
517.117	220.02
517.323	219.43
517.529	229.9
517.736	240.75
517.942	261.87
518.148	219.24
518.354	254.89
518.561	255.08
518.767	249.27
518.973	278.53
519.179	269.23
519.386	245.59
519.592	230.09
519.798	219.05
520.004	292.67
520.21	237.65
520.417	272.72
520.623	265.35
520.829	326.19
521.035	262.25
521.241	308.75
521.447	290.73
521.653	357.96
521.859	289.57
522.065	303.71
522.271	376.56
522.477	308.75
522.683	350.6
522.889	323.48
523.095	327.74
523.301	323.86
523.507	295.77
523.713	327.35
523.919	303.71
524.125	340.72
524.331	307.59
524.537	337.43
524.742	340.14
524.948	360.29
525.154	328.13
525.36	423.06
525.566	347.31
525.772	413.18
525.977	282.02
526.183	376.76
526.389	387.41
526.595	313.4
526.8	336.07
527.006	312.24
527.212	314.76
527.417	315.92
527.623	308.95
527.829	386.83
528.034	354.48
528.24	346.53
528.446	323.67
528.651	352.73
528.857	390.71
529.062	401.94
529.268	349.44
529.473	343.82
529.679	318.63
529.884	403.11
530.09	378.5
530.295	421.9
530.501	391.09
530.706	387.61
530.912	354.48
531.117	386.06
531.323	372.5
531.528	389.16
531.733	402.14
531.939	353.9
532.144	390.13
532.35	405.82
532.555	459.88
532.76	439.53
532.966	414.34
533.171	396.71
533.376	371.72
533.581	378.31
533.787	403.69
533.992	417.06
534.197	456.97
534.402	393.23
534.607	401.36
534.813	489.32
535.018	392.64
535.223	386.25
535.428	412.79
535.633	457.36
535.838	409.69
536.043	395.16
536.249	473.44
536.454	419.38
536.659	429.26
536.864	373.08
537.069	425.39
537.274	439.73
537.479	457.74
537.684	467.82
537.889	420.54
538.094	510.06
538.299	425.19
538.504	466.27
538.708	449.61
538.913	441.86
539.118	437.01
539.323	449.8
539.528	383.93
539.733	436.43
539.938	462.98
540.142	475.18
540.347	437.01
540.552	436.24
540.757	440.11
540.962	439.92
541.166	408.14
541.371	404.27
541.576	467.24
541.781	357.38
541.985	409.5
542.19	450.96
542.395	478.86
542.599	486.81
542.804	488.74
543.008	487.97
543.213	439.14
543.418	431.78
543.622	455.61
543.827	437.01
544.031	486.61
544.236	506.76
544.44	450.38
544.645	547.84
544.849	443.21
545.054	483.71
545.258	524.2
545.463	518
545.667	459.88
545.872	482.74
546.076	493.59
546.281	498.04
546.485	433.53
546.689	490.29
546.894	524.59
547.098	480.02
547.302	450.96
547.507	458.33
547.711	483.71
547.915	516.64
548.119	459.49
548.324	492.81
548.528	543.57
548.732	499.59
548.936	498.62
549.141	525.94
549.345	470.14
549.549	467.82
549.753	479.06
549.957	544.54
550.161	522.26
550.366	489.91
550.57	470.14
550.774	466.85
550.978	468.98
551.182	514.51
551.386	487
551.59	506.96
551.794	479.25
551.998	494.56
552.202	446.31
552.406	440.89
552.61	470.92
552.814	486.22
553.018	547.45
553.222	478.09
553.426	458.13
553.63	553.26
553.833	450.77
554.037	444.38
554.241	503.47
554.445	483.32
554.649	488.94
554.853	494.94
555.056	517.81
555.26	501.92
555.464	483.71
555.668	511.02
555.871	518.19
556.075	540.28
556.279	460.07
556.483	443.21
556.686	489.32
556.89	519.74
557.094	494.17
557.297	459.29
557.501	527.11
557.704	438.56
557.908	526.14
558.112	456.97
558.315	550.94
558.519	493.2
558.722	475.76
558.926	471.31
559.129	438.37
559.333	429.84
559.536	442.24
559.74	438.95
559.943	450.38
560.147	423.06
560.35	465.49
560.553	446.12
560.757	402.91
560.96	507.54
561.164	435.46
561.367	531.37
561.57	458.33
561.774	462.59
561.977	449.61
562.18	445.15
562.384	538.15
562.587	469.76
562.79	438.37
562.993	449.61
563.197	506.76
563.4	511.02
563.603	492.81
563.806	521.49
564.009	429.84
564.212	459.88
564.416	398.84
564.619	459.49
564.822	411.83
565.025	496.11
565.228	427.13
565.431	457.55
565.634	394
565.837	435.46
566.04	405.43
566.243	432.94
566.446	357.77
566.649	455.03
566.852	384.9
567.055	426.74
567.258	458.33
567.461	488.94
567.664	456
567.867	368.81
568.07	454.06
568.273	444.18
568.475	462.98
568.678	418.22
568.881	416.09
569.084	433.53
569.287	360.87
569.489	404.66
569.692	449.41
569.895	446.12
570.098	373.46
570.3	402.14
570.503	326.96
570.706	353.31
570.909	333.94
571.111	358.55
571.314	367.07
571.516	381.41
571.719	378.5
571.922	363.39
572.124	358.35
572.327	372.5
572.529	331.42
572.732	318.44
572.935	368.23
573.137	430.81
573.34	349.05
573.542	402.72
573.745	382.96
573.947	410.66
574.15	368.23
574.352	330.65
574.554	387.8
574.757	331.03
574.959	375.01
575.162	341.5
575.364	343.43
575.566	454.06
575.769	341.69
575.971	339.75
576.173	292.48
576.376	362.23
576.578	385.86
576.78	400.98
576.982	306.81
577.185	331.03
577.387	300.81
577.589	316.5
577.791	369.4
577.993	368.62
578.196	327.74
578.398	370.95
578.6	374.43
578.802	321.35
579.004	317.08
579.206	335.68
579.408	351.38
579.61	327.35
579.812	368.62
580.014	320.18
580.216	333.55
580.418	301
580.62	301.2
580.822	278.72
581.024	339.56
581.226	372.5
581.428	316.7
581.63	389.74
581.832	292.48
582.034	357.77
582.236	332.2
582.438	321.35
582.64	368.23
582.841	370.17
583.043	412.02
583.245	377.34
583.447	341.11
583.649	335.3
583.85	323.09
584.052	371.91
584.254	329.87
584.456	386.25
584.657	298.87
584.859	327.74
585.061	308.17
585.262	273.88
585.464	266.52
585.666	342.27
585.867	310.88
586.069	378.11
586.27	342.46
586.472	353.9
586.674	310.3
586.875	339.75
587.077	295
587.278	329.48
587.48	306.23
587.681	438.56
587.883	334.91
588.084	267.87
588.285	324.06
588.487	296.35
588.688	331.81
588.89	294.22
589.091	310.69
589.292	313.4
589.494	312.63
589.695	297.52
589.896	264
590.098	245.01
590.299	316.89
590.5	256.25
590.702	287.44
590.903	282.98
591.104	346.92
591.305	308.17
591.507	347.31
591.708	326.19
591.909	276.2
592.11	379.28
592.311	308.17
592.512	314.37
592.714	257.6
592.915	262.25
593.116	284.15
593.317	287.25
593.518	294.61
593.719	282.4
593.92	316.89
594.121	327.55
594.322	295.19
594.523	299.84
594.724	254.7
594.925	264.38
595.126	297.52
595.327	304.1
595.528	327.93
595.729	271.94
595.929	307.78
596.13	308.36
596.331	280.08
596.532	282.02
596.733	352.93
596.934	294.03
597.135	320.96
597.335	301
597.536	271.75
597.737	304.1
597.938	283.18
598.138	302.16
598.339	276.98
598.54	320.96
598.74	292.67
598.941	289.18
599.142	328.71
599.342	314.95
599.543	247.72
599.744	287.44
599.944	276.78
600.145	294.61
600.345	300.23
600.546	321.93
600.746	339.95
600.947	359.51
601.147	319.8
601.348	328.32
601.548	268.84
601.749	323.67
601.949	250.24
602.15	279.3
602.35	273.68
602.551	322.31
602.751	272.91
602.951	265.74
603.152	208.39
603.352	316.5
603.552	280.66
603.753	306.43
603.953	308.95
604.153	274.27
604.354	267.68
604.554	284.15
604.754	286.08
604.954	255.67
605.155	264
605.355	289.57
605.555	331.61
605.755	355.83
605.955	277.56
606.155	320.18
606.356	282.79
606.556	319.02
606.756	302.36
606.956	245.4
607.156	348.66
607.356	273.49
607.556	304.3
607.756	290.54
607.956	322.31
608.156	304.68
608.356	266.13
608.556	317.28
608.756	294.22
608.956	252.76
609.156	299.06
609.356	257.8
609.556	289.18
609.755	283.37
609.955	265.16
610.155	279.88
610.355	300.81
610.555	282.4
610.755	295.58
610.954	261.67
611.154	273.3
611.354	306.81
611.554	254.5
611.753	279.3
611.953	240.36
612.153	306.62
612.352	279.88
612.552	258.57
612.752	196.96
612.951	254.31
613.151	290.35
613.351	240.55
613.55	293.06
613.75	280.27
613.949	280.66
614.149	293.64
614.348	255.86
614.548	275.23
614.747	218.66
614.947	226.6
615.146	210.33
615.346	303.13
615.545	263.42
615.745	261.67
615.944	303.33
616.144	243.65
616.343	278.14
616.542	270
616.742	279.3
616.941	248.88
617.14	204.71
617.34	305.46
617.539	277.17
617.738	231.64
617.938	317.08
618.137	249.66
618.336	223.5
618.535	263.42
618.734	250.43
618.934	270.2
619.133	262.64
619.332	273.49
619.531	242.49
619.73	243.07
619.929	263.61
620.128	264.58
620.328	309.91
620.527	204.71
620.726	221.95
620.925	269.42
621.124	238.81
621.323	249.08
621.522	221.57
621.721	204.13
621.92	215.56
622.119	262.25
622.318	207.81
622.517	237.65
622.715	241.52
622.914	205.68
623.113	251.21
623.312	206.45
623.511	253.53
623.71	232.03
623.909	249.85
624.107	303.33
624.306	166.54
624.505	214.01
624.704	233.97
624.902	223.31
625.101	262.83
625.3	280.47
625.499	224.47
625.697	231.06
625.896	216.14
626.095	274.27
626.293	193.28
626.492	203.55
626.69	247.14
626.889	186.5
627.088	248.3
627.286	191.73
627.485	215.95
627.683	202.97
627.882	242.49
628.08	176.23
628.279	193.86
628.477	282.4
628.676	197.35
628.874	230.87
