Data from oakcork_FLMT105791__20__17-26-55-067.txt Node

Date: Mon Mar 20 17:26:55 GMT 2023
User: antho
Spectrometer: FLMT10579
Trigger mode: 0
Integration Time (sec): 1.000000E-1
Scans to average: 10
Electric dark correction enabled: true
Nonlinearity correction enabled: false
Boxcar width: 0
XAxis mode: Wavelengths
Number of Pixels in Spectrum: 3648
>>>>>Begin Spectral Data<<<<<
345.248	-178.52
345.464	-178.52
345.681	-178.52
345.898	-167.67
346.114	-180.27
346.331	-32.82
346.548	43.9
346.764	-9.57
346.981	10.77
347.197	-21.01
347.414	15.61
347.631	-21.59
347.847	44.29
348.064	-4.54
348.28	6.51
348.497	-46.19
348.713	14.64
348.93	19.68
349.146	20.07
349.363	9.03
349.579	28.21
349.796	-3.57
350.012	-7.25
350.229	50.49
350.445	11.16
350.661	-27.01
350.878	-8.99
351.094	9.41
351.311	17.16
351.527	24.33
351.743	-8.61
351.96	27.82
352.176	66.76
352.392	55.72
352.609	31.31
352.825	1.66
353.041	8.44
353.257	18.52
353.474	27.43
353.69	6.7
353.906	8.64
354.122	-22.94
354.339	48.94
354.555	-2.6
354.771	-9.96
354.987	50.68
355.203	32.66
355.42	-31.27
355.636	14.64
355.852	-20.62
356.068	14.45
356.284	-39.41
356.5	75.87
356.716	33.24
356.932	1.08
357.148	17.55
357.364	2.05
357.58	59.4
357.796	52.81
358.012	46.61
358.228	35.57
358.444	-33.02
358.66	50.68
358.876	28.4
359.092	-22.75
359.308	21.81
359.524	28.98
359.74	-1.24
359.956	-25.85
360.172	16.78
360.388	34.6
360.604	8.44
360.819	77.22
361.035	-5.12
361.251	37.31
361.467	-42.71
361.683	37.51
361.898	35.57
362.114	49.13
362.33	8.06
362.546	65.6
362.762	14.45
362.977	28.59
363.193	2.24
363.409	10.38
363.624	-21.01
363.84	-26.43
364.056	-7.06
364.271	54.56
364.487	36.34
364.703	-7.25
364.918	-1.24
365.134	4.57
365.35	14.26
365.565	106.67
365.781	14.26
365.996	20.07
366.212	80.13
366.427	53.97
366.643	1.86
366.858	6.31
367.074	-3.76
367.289	87.49
367.505	134.77
367.72	-31.66
367.936	0.69
368.151	40.22
368.367	34.21
368.582	38.47
368.798	9.41
369.013	67.15
369.228	36.54
369.444	30.14
369.659	82.26
369.874	69.09
370.09	75.48
370.305	-33.79
370.52	-13.45
370.736	71.02
370.951	15.42
371.166	58.82
371.381	89.62
371.597	67.73
371.812	-27.4
372.027	0.89
372.242	13.48
372.458	107.45
372.673	-5.31
372.888	4.76
373.103	51.26
373.318	105.71
373.533	39.83
373.749	33.44
373.964	-19.65
374.179	58.43
374.394	-22.36
374.609	70.64
374.824	-4.92
375.039	64.24
375.254	27.63
375.469	75.48
375.684	24.53
375.899	67.73
376.114	13.29
376.329	25.3
376.544	77.42
376.759	48.16
376.974	-1.44
377.189	36.92
377.404	-2.21
377.619	80.13
377.834	-17.32
378.049	-17.91
378.264	4.57
378.478	45.45
378.693	26.66
378.908	50.49
379.123	15.23
379.338	57.46
379.553	46.81
379.767	27.82
379.982	37.7
380.197	43.32
380.412	41.77
380.626	50.29
380.841	94.47
381.056	54.75
381.271	83.42
381.485	9.8
381.7	-2.21
381.915	20.07
382.129	0.11
382.344	49.13
382.559	38.09
382.773	92.92
382.988	-3.76
383.202	63.27
383.417	4.38
383.632	101.83
383.846	46.61
384.061	42.54
384.275	16.58
384.49	41.77
384.704	57.85
384.919	53.59
385.133	20.65
385.348	65.02
385.562	4.76
385.777	56.49
385.991	55.72
386.206	44.48
386.42	21.43
386.634	78.97
386.849	52.04
387.063	43.32
387.277	-12.09
387.492	-1.63
387.706	4.96
387.92	0.89
388.135	43.71
388.349	54.17
388.563	40.8
388.778	41.77
388.992	62.89
389.206	54.56
389.42	106.87
389.635	44.87
389.849	70.44
390.063	97.96
390.277	71.02
390.491	101.83
390.706	67.54
390.92	84.78
391.134	51.46
391.348	80.32
391.562	-5.12
391.776	45.64
391.99	36.54
392.205	89.82
392.419	14.45
392.633	50.29
392.847	95.82
393.061	31.89
393.275	94.27
393.489	21.81
393.703	57.66
393.917	85.94
394.131	41.19
394.345	56.88
394.559	67.15
394.773	37.7
394.986	54.94
395.2	47
395.414	78.19
395.628	9.61
395.842	83.81
396.056	54.75
396.27	13.68
396.484	77.22
396.697	75.29
396.911	106.29
397.125	93.31
397.339	84.01
397.553	73.93
397.766	111.71
397.98	100.28
398.194	118.69
398.408	35.57
398.621	104.54
398.835	89.24
399.049	88.85
399.262	106.87
399.476	141.16
399.69	109.77
399.903	141.16
400.117	83.23
400.331	112.49
400.544	96.99
400.758	204.9
400.971	84.39
401.185	98.54
401.398	73.35
401.612	107.84
401.826	116.94
402.039	127.4
402.253	66.96
402.466	113.07
402.68	92.72
402.893	121.98
403.106	86.72
403.32	107.84
403.533	103.96
403.747	125.85
403.96	123.72
404.174	164.02
404.387	44.67
404.6	117.72
404.814	123.92
405.027	87.3
405.24	108.61
405.454	91.17
405.667	151.04
405.88	53.97
406.094	124.69
406.307	133.99
406.52	105.71
406.733	51.07
406.947	59.98
407.16	185.34
407.373	176.62
407.586	90.79
407.799	65.21
408.012	150.46
408.226	109.97
408.439	160.92
408.652	58.24
408.865	129.15
409.078	154.14
409.291	123.92
409.504	73.54
409.717	131.47
409.93	123.92
410.143	105.32
410.357	53.39
410.57	71.8
410.783	89.04
410.996	112.87
411.209	132.83
411.421	156.66
411.634	105.9
411.847	113.46
412.06	134.19
412.273	100.28
412.486	117.52
412.699	202.58
412.912	132.44
413.125	160.54
413.338	140.77
413.55	157.63
413.763	133.22
413.976	124.69
414.189	94.86
414.402	94.08
414.615	170.61
414.827	95.82
415.04	156.85
415.253	145.23
415.466	186.5
415.678	186.3
415.891	143.68
416.104	131.28
416.316	128.37
416.529	126.82
416.742	175.26
416.954	177
417.167	145.62
417.38	123.53
417.592	174.1
417.805	107.84
418.017	100.28
418.23	168.29
418.442	130.89
418.655	122.76
418.868	141.94
419.08	166.35
419.293	196.38
419.505	174.29
419.718	143.1
419.93	191.73
420.142	135.74
420.355	172.94
420.567	190.76
420.78	171.97
420.992	158.02
421.205	204.52
421.417	122.76
421.629	135.54
421.842	157.24
422.054	106.87
422.266	169.64
422.479	197.54
422.691	131.09
422.903	177.59
423.115	133.99
423.328	153.17
423.54	146.59
423.752	163.83
423.964	161.31
424.177	169.25
424.389	137.29
424.601	251.21
424.813	146.39
425.025	179.14
425.238	173.9
425.45	144.45
425.662	139.8
425.874	457.55
426.086	150.85
426.298	182.24
426.51	163.64
426.722	177.97
426.934	162.09
427.146	179.91
427.358	149.88
427.57	191.34
427.782	133.41
427.994	137.29
428.206	152.01
428.418	129.54
428.63	181.85
428.842	182.43
429.054	181.65
429.266	188.05
429.478	145.04
429.69	153.56
429.902	127.4
430.114	183.01
430.325	171.97
430.537	117.91
430.749	132.44
430.961	84.78
431.173	146.78
431.384	172.94
431.596	89.62
431.808	151.62
432.02	165.38
432.231	196.38
432.443	229.51
432.655	179.33
432.867	147.17
433.078	178.75
433.29	257.8
433.502	238.62
433.713	223.5
433.925	203.55
434.136	258.38
434.348	170.03
434.56	141.74
434.771	264
434.983	143.68
435.194	173.9
435.406	195.99
435.617	214.78
435.829	270
436.04	212.27
436.252	217.69
436.463	267.68
436.675	260.32
436.886	232.8
437.098	254.7
437.309	299.26
437.521	231.06
437.732	230.67
437.943	234.74
438.155	203.55
438.366	154.53
438.578	274.07
438.789	229.12
439	262.45
439.211	192.89
439.423	233.58
439.634	214.4
439.845	238.03
440.057	241.33
440.268	246.75
440.479	211.68
440.69	234.16
440.902	229.7
441.113	206.26
441.324	209.75
441.535	275.23
441.746	297.52
441.957	225.05
442.168	205.68
442.38	265.16
442.591	282.02
442.802	216.33
443.013	233.58
443.224	278.53
443.435	229.51
443.646	285.89
443.857	243.27
444.068	260.32
444.279	221.37
444.49	335.1
444.701	257.8
444.912	371.14
445.123	300.81
445.334	295.97
445.545	268.26
445.756	246.95
445.967	238.03
446.178	299.06
446.388	294.8
446.599	291.7
446.81	302.55
447.021	273.1
447.232	291.12
447.443	314.95
447.653	244.04
447.864	314.37
448.075	272.91
448.286	295.77
448.496	307.78
448.707	307.98
448.918	227.77
449.129	377.15
449.339	254.5
449.55	282.4
449.761	305.65
449.971	339.36
450.182	276.59
450.393	304.68
450.603	288.22
450.814	323.86
451.024	326.96
451.235	348.28
451.446	354.28
451.656	331.42
451.867	296.74
452.077	306.23
452.288	362.03
452.498	356.61
452.709	295.19
452.919	328.9
453.13	286.86
453.34	357.58
453.55	242.49
453.761	299.26
453.971	332.2
454.182	354.28
454.392	333.16
454.602	368.23
454.813	330.26
455.023	345.95
455.233	278.72
455.444	312.05
455.654	256.05
455.864	297.32
456.075	288.99
456.285	318.83
456.495	315.92
456.705	352.73
456.916	365.52
457.126	377.34
457.336	337.81
457.546	249.47
457.756	283.76
457.967	358.16
458.177	305.46
458.387	309.33
458.597	285.5
458.807	333.16
459.017	323.48
459.227	344.6
459.437	307.01
459.647	362.42
459.857	367.85
460.068	334.13
460.278	374.43
460.488	352.73
460.698	421.9
460.908	344.21
461.117	313.6
461.327	336.26
461.537	337.43
461.747	364.94
461.957	350.99
462.167	456.78
462.377	367.65
462.587	365.33
462.797	404.46
463.007	346.92
463.216	379.66
463.426	397.88
463.636	381.6
463.846	294.42
464.056	349.44
464.265	408.73
464.475	310.5
464.685	364.36
464.895	376.37
465.104	350.41
465.314	396.71
465.524	343.05
465.733	351.96
465.943	423.26
466.153	431.59
466.362	404.85
466.572	394.19
466.782	329.1
466.991	386.83
467.201	431.78
467.41	311.27
467.62	371.91
467.829	366.3
468.039	401.17
468.249	354.48
468.458	394.97
468.668	414.34
468.877	410.08
469.086	436.24
469.296	425.39
469.505	375.4
469.715	456.58
469.924	394
470.134	447.67
470.343	434.49
470.552	388.58
470.762	414.93
470.971	379.28
471.18	434.49
471.39	426.55
471.599	374.63
471.808	440.31
472.018	401.56
472.227	478.09
472.436	482.16
472.645	411.24
472.855	401.56
473.064	502.69
473.273	463.17
473.482	452.9
473.691	466.46
473.901	478.86
474.11	443.21
474.319	529.62
474.528	475.57
474.737	504.05
474.946	441.47
475.155	452.71
475.364	537.37
475.573	476.15
475.783	456.39
475.992	524.01
476.201	517.42
476.41	470.92
476.619	431.98
476.828	479.06
477.037	484.09
477.245	474.02
477.454	500.17
477.663	506.96
477.872	496.49
478.081	548.22
478.29	526.52
478.499	621.46
478.708	516.26
478.917	579.03
479.125	522.65
479.334	543.38
479.543	517.61
479.752	533.69
479.961	553.84
480.169	567.6
480.378	548.61
480.587	658.27
480.796	597.05
481.004	581.94
481.213	605.57
481.422	584.45
481.63	563.14
481.839	593.95
482.048	636.57
482.256	588.72
482.465	598.02
482.674	635.6
482.882	628.05
483.091	681.52
483.299	638.51
483.508	628.05
483.716	615.84
483.925	625.14
484.134	580
484.342	602.09
484.551	632.89
484.759	640.25
484.967	638.51
485.176	666.8
485.384	653.43
485.593	680.94
485.801	677.45
486.01	649.75
486.218	567.99
486.426	554.62
486.635	558.3
486.843	545.32
487.051	587.36
487.26	573.02
487.468	620.69
487.676	613.71
487.885	603.25
488.093	626.69
488.301	704
488.509	674.93
488.717	673.19
488.926	643.16
489.134	667.38
489.342	665.63
489.55	664.67
489.758	689.66
489.967	651.1
490.175	760.18
490.383	666.41
490.591	759.02
490.799	653.62
491.007	744.1
491.215	725.12
491.423	674.16
491.631	701.28
491.839	704.19
492.047	750.5
492.255	684.04
492.463	669.7
492.671	690.82
492.879	749.14
493.087	722.79
493.295	709.62
493.503	749.91
493.711	742.75
493.919	756.31
494.127	781.5
494.334	777.62
494.542	722.98
494.75	780.72
494.958	752.24
495.166	806.3
495.374	796.8
495.581	777.62
495.789	786.53
495.997	832.45
496.205	762.12
496.412	779.36
496.62	785.95
496.828	776.46
497.035	778.2
497.243	827.41
497.451	790.21
497.658	777.81
497.866	783.82
498.074	851.44
498.281	731.12
498.489	899.68
498.696	786.15
498.904	760.76
499.112	759.21
499.319	860.74
499.527	772.58
499.734	827.8
499.942	755.53
500.149	792.73
500.357	795.64
500.564	755.34
500.771	770.84
500.979	749.72
501.186	780.91
501.394	828.19
501.601	808.04
501.808	826.64
502.016	823.34
502.223	773.94
502.43	779.56
502.638	776.26
502.845	771.42
503.052	856.09
503.26	773.36
503.467	889.61
503.674	824.89
503.881	826.06
504.089	922.16
504.296	854.54
504.503	776.46
504.71	801.45
504.917	767.74
505.125	821.41
505.332	819.08
505.539	830.71
505.746	904.91
505.953	887.86
506.16	850.47
506.367	911.5
506.574	888.06
506.781	927
506.988	852.79
507.195	885.34
507.402	852.79
507.609	885.34
507.816	847.37
508.023	850.28
508.23	844.27
508.437	811.53
508.644	838.65
508.851	895.42
509.058	897.55
509.265	887.28
509.472	936.3
509.679	986.29
509.885	901.23
510.092	887.28
510.299	869.07
510.506	895.81
510.713	909.95
510.92	908.79
511.126	899.29
511.333	920.22
511.54	915.18
511.746	956.06
511.953	970.98
512.16	954.12
512.367	911.89
512.573	911.31
512.78	908.79
512.987	917.12
513.193	914.6
513.4	844.85
513.606	910.34
513.813	927.58
514.02	887.28
514.226	981.64
514.433	926.22
514.639	876.82
514.846	903.94
515.052	895.61
515.259	943.08
515.465	939.21
515.672	932.81
515.878	1019.8
516.085	931.46
516.291	947.73
516.497	933.97
516.704	896.97
516.91	889.41
517.117	832.84
517.323	771.61
517.529	864.03
517.736	843.49
517.942	865
518.148	881.86
518.354	881.86
518.561	911.31
518.767	874.69
518.973	927.19
519.179	946.37
519.386	898.52
519.592	888.25
519.798	897.55
520.004	964.2
520.21	910.34
520.417	977.37
520.623	1023.1
520.829	1015.93
521.035	1000.04
521.241	1007.99
521.447	1010.5
521.653	1117.26
521.859	1007.4
522.065	1001.59
522.271	1105.05
522.477	1075.41
522.683	1105.25
522.889	1028.52
523.095	1046.54
523.301	1049.25
523.507	1013.02
523.713	1052.35
523.919	996.56
524.125	1123.27
524.331	1066.5
524.537	1106.99
524.742	1099.82
524.948	1101.37
525.154	1102.15
525.36	1213.16
525.566	1120.94
525.772	1156.78
525.977	1064.95
526.183	1125.98
526.389	1147.68
526.595	1061.46
526.8	1072.12
527.006	1033.37
527.212	1003.92
527.417	1007.02
527.623	1009.34
527.829	1062.82
528.034	1067.27
528.24	1076.57
528.446	1068.05
528.651	1143.03
528.857	1140.7
529.062	1190.5
529.268	1123.65
529.473	1200.96
529.679	1148.84
529.884	1238.35
530.09	1181.39
530.295	1204.83
530.501	1216.26
530.706	1197.86
530.912	1131.79
531.117	1194.37
531.323	1218.01
531.528	1235.06
531.733	1241.84
531.939	1204.83
532.144	1222.27
532.35	1206.38
532.555	1228.28
532.76	1230.99
532.966	1225.95
533.171	1177.51
533.376	1184.88
533.581	1142.06
533.787	1147.48
533.992	1224.4
534.197	1264.31
534.402	1217.23
534.607	1234.48
534.813	1318.95
535.018	1189.72
535.223	1244.94
535.428	1264.31
535.633	1307.33
535.838	1261.79
536.043	1292.6
536.249	1332.51
536.454	1233.51
536.659	1288.14
536.864	1251.14
537.069	1278.26
537.274	1283.3
537.479	1302.29
537.684	1307.91
537.889	1240.87
538.094	1349.17
538.299	1264.7
538.504	1301.71
538.708	1317.01
538.913	1303.26
539.118	1279.23
539.323	1314.88
539.528	1264.51
539.733	1287.76
539.938	1311.78
540.142	1320.5
540.347	1277.88
540.552	1259.08
540.757	1248.62
540.962	1265.67
541.166	1256.56
541.371	1228.47
541.576	1245.33
541.781	1135.67
541.985	1288.53
542.19	1265.86
542.395	1346.46
542.599	1367.58
542.804	1323.21
543.008	1308.29
543.213	1261.41
543.418	1275.55
543.622	1341.62
543.827	1244.16
544.031	1342.39
544.236	1344.72
544.44	1309.46
544.645	1410.01
544.849	1312.36
545.054	1360.61
545.258	1416.6
545.463	1404.2
545.667	1339.88
545.872	1337.36
546.076	1371.26
546.281	1343.94
546.485	1317.59
546.689	1350.14
546.894	1398.19
547.098	1358.28
547.302	1305.58
547.507	1327.09
547.711	1354.02
547.915	1378.82
548.119	1321.47
548.324	1313.91
548.528	1377.46
548.732	1350.53
548.936	1370.1
549.141	1400.32
549.345	1320.89
549.549	1359.44
549.753	1335.42
549.957	1425.32
550.161	1406.91
550.366	1370.87
550.57	1336.97
550.774	1345.3
550.978	1341.62
551.182	1366.61
551.386	1331.54
551.59	1371.07
551.794	1352.86
551.998	1396.45
552.202	1336.58
552.406	1336.97
552.61	1377.46
552.814	1359.64
553.018	1440.24
553.222	1372.62
553.426	1341.62
553.63	1421.83
553.833	1374.36
554.037	1297.64
554.241	1373.97
554.445	1360.8
554.649	1352.27
554.853	1326.7
555.056	1366.81
555.26	1371.84
555.464	1388.31
555.668	1379.4
555.871	1379.79
556.075	1414.08
556.279	1334.84
556.483	1304.23
556.686	1324.57
556.89	1335.42
557.094	1350.53
557.297	1302.68
557.501	1352.66
557.704	1277.49
557.908	1354.21
558.112	1292.6
558.315	1364.67
558.519	1316.24
558.722	1327.48
558.926	1289.31
559.129	1225.37
559.333	1223.43
559.536	1270.51
559.74	1251.91
559.943	1213.36
560.147	1248.04
560.35	1283.3
560.553	1274.39
560.757	1188.56
560.96	1336.19
561.164	1265.67
561.367	1317.79
561.57	1299.58
561.774	1263.15
561.977	1255.01
562.18	1239.13
562.384	1345.88
562.587	1253.27
562.79	1240.48
562.993	1230.41
563.197	1244.75
563.4	1311.98
563.603	1317.4
563.806	1356.54
564.009	1295.31
564.212	1298.41
564.416	1219.95
564.619	1279.62
564.822	1211.03
565.025	1263.54
565.228	1248.81
565.431	1251.91
565.634	1157.75
565.837	1221.69
566.04	1170.15
566.243	1165.12
566.446	1133.92
566.649	1185.85
566.852	1161.24
567.055	1198.05
567.258	1207.35
567.461	1257.92
567.664	1233.12
567.867	1130.63
568.07	1212
568.273	1227.11
568.475	1240.1
568.678	1137.41
568.881	1154.65
569.084	1180.23
569.287	1076.38
569.489	1100.79
569.692	1184.1
569.895	1201.54
570.098	1094.01
570.3	1135.86
570.503	1036.66
570.706	1099.82
570.909	1070.57
571.111	1055.84
571.314	1069.99
571.516	1065.53
571.719	1100.79
571.922	1090.33
572.124	1063.98
572.327	1108.35
572.529	1034.14
572.732	1044.99
572.935	1068.24
573.137	1119.39
573.34	1072.7
573.542	1113.58
573.745	1085.68
573.947	1060.3
574.15	1059.14
574.352	1064.95
574.554	1086.84
574.757	1031.04
574.959	1024.84
575.162	1051
575.364	1018.25
575.566	1137.99
575.769	997.91
575.971	1060.3
576.173	949.86
576.376	1041.12
576.578	1061.46
576.78	1097.69
576.982	947.15
577.185	982.41
577.387	964.39
577.589	968.46
577.791	1024.84
577.993	1064.17
578.196	1011.09
578.398	1036.66
578.6	1056.23
578.802	964.01
579.004	941.92
579.206	987.26
579.408	1008.57
579.61	956.26
579.812	1052.55
580.014	997.52
580.216	976.99
580.418	979.51
580.62	961.68
580.822	928.74
581.024	992.1
581.226	982.99
581.428	977.18
581.63	1067.66
581.832	956.45
582.034	991.71
582.236	1024.45
582.438	1023.29
582.64	1032.01
582.841	1046.54
583.043	1084.13
583.245	1020.19
583.447	1039.57
583.649	1002.95
583.85	1031.24
584.052	1057.59
584.254	969.43
584.456	1035.3
584.657	1000.04
584.859	984.16
585.061	994.23
585.262	979.12
585.464	938.43
585.666	1048.67
585.867	964.97
586.069	1051
586.27	999.65
586.472	1020.97
586.674	966.33
586.875	963.23
587.077	973.11
587.278	995.59
587.48	960.71
587.681	1075.6
587.883	973.11
588.084	933.01
588.285	966.72
588.487	924.48
588.688	958.58
588.89	897.36
589.091	889.99
589.292	886.31
589.494	868.49
589.695	852.6
589.896	786.73
590.098	766
590.299	859.38
590.5	810.56
590.702	845.04
590.903	884.57
591.104	936.11
591.305	907.24
591.507	941.53
591.708	918.28
591.909	855.51
592.11	972.92
592.311	920.02
592.512	864.03
592.714	866.94
592.915	856.67
593.116	861.51
593.317	870.43
593.518	887.48
593.719	877.59
593.92	926.81
594.121	950.83
594.322	885.15
594.523	902.78
594.724	863.64
594.925	867.52
595.126	923.12
595.327	930.1
595.528	899.88
595.729	883.79
595.929	892.13
596.13	873.91
596.331	877.98
596.532	923.51
596.733	955.48
596.934	937.46
597.135	895.03
597.335	909.37
597.536	861.71
597.737	890.58
597.938	836.91
598.138	909.76
598.339	888.06
598.54	902.78
598.74	889.22
598.941	872.36
599.142	922.74
599.342	903.56
599.543	864.81
599.744	868.68
599.944	875.66
600.145	872.17
600.345	923.12
600.546	977.76
600.746	928.55
600.947	937.85
601.147	905.88
601.348	924.87
601.548	879.53
601.749	890.58
601.949	857.06
602.15	871.39
602.35	890.96
602.551	915.76
602.751	821.8
602.951	862.68
603.152	825.86
603.352	889.22
603.552	860.54
603.753	892.51
603.953	921.38
604.153	889.61
604.354	885.93
604.554	890.19
604.754	891.16
604.954	856.28
605.155	894.64
605.355	852.99
605.555	925.64
605.755	930.68
605.955	878.37
606.155	884.57
606.356	866.55
606.556	922.74
606.756	861.51
606.956	833.42
607.156	952.57
607.356	873.91
607.556	899.1
607.756	889.03
607.956	945.79
608.156	895.61
608.356	855.31
608.556	911.5
608.756	897.55
608.956	843.49
609.156	854.93
609.356	823.34
609.556	815.21
609.755	874.88
609.955	825.86
610.155	830.9
610.355	878.76
610.555	844.85
610.755	824.12
610.954	794.28
611.154	864.03
611.354	886.51
611.554	793.7
611.753	830.9
611.953	814.43
612.153	853.76
612.352	842.33
612.552	806.49
612.752	757.28
612.951	840.39
613.151	800.29
613.351	782.66
613.55	830.9
613.75	803.58
613.949	818.89
614.149	827.99
614.348	793.9
614.548	783.82
614.747	776.65
614.947	763.86
615.146	740.42
615.346	807.65
615.545	800.87
615.745	806.1
615.944	830.71
616.144	812.88
616.343	826.25
616.542	794.86
616.742	790.41
616.941	774.91
617.14	772
617.34	796.41
617.539	766.19
617.738	762.51
617.938	850.47
618.137	752.82
618.336	721.82
618.535	796.22
618.734	775.49
618.934	804.75
619.133	755.92
619.332	795.06
619.531	740.61
619.73	770.06
619.929	814.82
620.128	763.28
620.328	835.74
620.527	776.65
620.726	763.86
620.925	778.4
