Data from oakcork_FLMT105791__291__17-34-37-052.txt Node

Date: Mon Mar 20 17:34:37 GMT 2023
User: antho
Spectrometer: FLMT10579
Trigger mode: 0
Integration Time (sec): 1.000000E-1
Scans to average: 10
Electric dark correction enabled: true
Nonlinearity correction enabled: false
Boxcar width: 0
XAxis mode: Wavelengths
Number of Pixels in Spectrum: 3648
>>>>>Begin Spectral Data<<<<<
345.248	-141.94
345.464	-141.94
345.681	-141.94
345.898	-161.31
346.114	-124.69
346.331	-41.57
346.548	44.06
346.764	9.57
346.981	-17.94
347.197	-11.16
347.414	0.86
347.631	-17.16
347.847	63.24
348.064	10.54
348.28	13.45
348.497	-45.64
348.713	-8.25
348.93	25.85
349.146	27.59
349.363	-12.32
349.579	15.39
349.796	-1.66
350.012	12.67
350.229	25.85
350.445	3.37
350.661	-10.77
350.878	-2.24
351.094	8.61
351.311	4.73
351.527	-1.28
351.743	0.08
351.96	32.05
352.176	38.64
352.392	10.16
352.609	32.63
352.825	-35.18
353.041	-10.38
353.257	-15.03
353.474	-13.29
353.69	5.12
353.906	29.53
354.122	-21.43
354.339	31.86
354.555	8.41
354.771	-14.45
354.987	29.14
355.203	58.59
355.42	-20.26
355.636	-15.23
355.852	-38.09
356.068	-10.77
356.284	-67.54
356.5	35.73
356.716	35.54
356.932	-11.16
357.148	26.04
357.364	-13.29
357.58	43.67
357.796	31.47
358.012	53.17
358.228	3.76
358.444	-59.98
358.66	55.1
358.876	21.78
359.092	-28.98
359.308	15.39
359.524	25.27
359.74	-14.64
359.956	-21.43
360.172	-4.18
360.388	27.01
360.604	-16.78
360.819	47.94
361.035	20.62
361.251	40.57
361.467	-33.05
361.683	55.3
361.898	10.93
362.114	48.52
362.33	22.75
362.546	34.18
362.762	-9.41
362.977	5.51
363.193	-10.38
363.409	35.73
363.624	-21.81
363.84	-47.97
364.056	-11.35
364.271	35.73
364.487	-15.81
364.703	-4.18
364.918	-24.33
365.134	-16.39
365.35	17.52
365.565	88.62
365.781	40.57
365.996	18.68
366.212	44.26
366.427	9.96
366.643	1.44
366.858	2.99
367.074	-25.49
367.289	53.55
367.505	94.05
367.72	-40.41
367.936	4.34
368.151	43.67
368.367	4.15
368.582	10.54
368.798	-11.74
369.013	23.52
369.228	13.64
369.444	23.52
369.659	60.53
369.874	21.59
370.09	39.22
370.305	-50.1
370.52	7.44
370.736	25.66
370.951	7.25
371.166	38.06
371.381	73.12
371.597	37.09
371.812	-29.95
372.027	-14.06
372.242	-5.34
372.458	63.82
372.673	2.41
372.888	8.99
373.103	33.02
373.318	99.28
373.533	18.68
373.749	41.93
373.964	-59.21
374.179	55.88
374.394	-42.74
374.609	59.17
374.824	-47.39
375.039	36.31
375.254	-19.49
375.469	67.12
375.684	17.52
375.899	31.86
376.114	6.09
376.329	-3.41
376.544	49.49
376.759	19.07
376.974	-22.2
377.189	3.96
377.404	2.99
377.619	50.07
377.834	-46.22
378.049	-27.04
378.264	-21.62
378.478	14.81
378.693	0.86
378.908	17.91
379.123	-6.7
379.338	49.87
379.553	25.85
379.767	17.91
379.982	21.78
380.197	27.01
380.412	32.82
380.626	35.15
380.841	80.49
381.056	33.41
381.271	60.72
381.485	-1.66
381.7	-20.26
381.915	13.45
382.129	3.76
382.344	10.74
382.559	10.74
382.773	46.39
382.988	-54.17
383.202	18.49
383.417	-10.77
383.632	68.28
383.846	28.56
384.061	6.09
384.275	-2.05
384.49	43.67
384.704	30.5
384.919	-1.08
385.133	23.14
385.348	45.22
385.562	-43.32
385.777	29.72
385.991	13.26
386.206	-0.31
386.42	-14.84
386.634	41.16
386.849	35.73
387.063	51.23
387.277	-13.87
387.492	-19.68
387.706	-42.74
387.92	-19.29
388.135	54.52
388.349	52.39
388.563	-2.63
388.778	40.96
388.992	42.9
389.206	34.57
389.42	95.02
389.635	20.42
389.849	34.18
390.063	53.55
390.277	12.09
390.491	73.32
390.706	19.26
390.92	31.08
391.134	22.56
391.348	42.32
391.562	-9.99
391.776	10.74
391.99	-4.18
392.205	27.59
392.419	-0.5
392.633	26.43
392.847	46.77
393.061	-8.64
393.275	62.85
393.489	53.17
393.703	57.62
393.917	55.1
394.131	22.36
394.345	46.58
394.559	54.33
394.773	22.94
394.986	45.61
395.2	31.47
395.414	45.22
395.628	-11.54
395.842	31.08
396.056	11.51
396.27	-27.82
396.484	18.49
396.697	24.11
396.911	39.61
397.125	14.81
397.339	60.14
397.553	28.95
397.766	78.74
397.98	53.94
398.194	67.31
398.408	34.57
398.621	26.82
398.835	35.54
399.049	44.45
399.262	66.34
399.476	60.72
399.69	54.14
399.903	100.05
400.117	12.67
400.331	43.67
400.544	-6.89
400.758	116.72
400.971	50.07
401.185	68.47
401.398	-16
401.612	48.52
401.826	68.47
402.039	48.91
402.253	9.19
402.466	45.03
402.68	-0.31
402.893	55.1
403.106	19.46
403.32	45.42
403.533	47.36
403.747	5.31
403.96	31.86
404.174	87.27
404.387	-9.99
404.6	27.59
404.814	42.71
405.027	60.53
405.24	19.46
405.454	16.55
405.667	60.72
405.88	-20.65
406.094	46
406.307	68.28
406.52	68.28
406.733	0.27
406.947	-6.31
407.16	94.44
407.373	64.4
407.586	12.29
407.799	8.61
408.012	46.58
408.226	56.27
408.439	83.97
408.652	-3.41
408.865	64.02
409.078	76.61
409.291	41.54
409.504	-6.12
409.717	62.85
409.93	57.82
410.143	55.69
410.357	5.31
410.57	-8.25
410.783	6.28
410.996	44.06
411.209	58.4
411.421	84.55
411.634	32.44
411.847	9.19
412.06	37.86
412.273	37.28
412.486	38.64
412.699	88.82
412.912	14.22
413.125	80.49
413.338	41.16
413.55	60.92
413.763	24.11
413.976	55.49
414.189	6.67
414.402	49.1
414.615	86.88
414.827	21.59
415.04	75.45
415.253	71.19
415.466	64.99
415.678	99.67
415.891	71.77
416.104	46.58
416.316	46.19
416.529	21.78
416.742	51.42
416.954	63.82
417.167	66.34
417.38	44.45
417.592	63.44
417.805	33.41
418.017	1.63
418.23	64.21
418.442	18.1
418.655	27.59
418.868	51.23
419.08	81.65
419.293	76.42
419.505	80.1
419.718	51.62
419.93	108.39
420.142	18.68
420.355	92.11
420.567	98.31
420.78	62.27
420.992	36.89
421.205	101.22
421.417	4.54
421.629	46
421.842	41.93
422.054	14.42
422.266	67.89
422.479	88.04
422.691	46.39
422.903	74.09
423.115	16.94
423.328	52
423.54	50.26
423.752	43.48
423.964	16.36
424.177	49.49
424.389	45.22
424.601	129.31
424.813	68.86
425.025	79.32
425.238	58.59
425.45	33.21
425.662	41.74
425.874	316.86
426.086	50.07
426.298	68.86
426.51	48.91
426.722	77
426.934	52.59
427.146	81.45
427.358	18.87
427.57	84.55
427.782	45.22
427.994	55.69
428.206	14.61
428.418	15.39
428.63	53.94
428.842	81.45
429.054	52.59
429.266	99.86
429.478	32.63
429.69	41.54
429.902	18.1
430.114	76.03
430.325	52
430.537	16.94
430.749	52.97
430.961	4.73
431.173	51.04
431.384	87.46
431.596	16.74
431.808	48.91
432.02	49.68
432.231	73.12
432.443	75.84
432.655	53.55
432.867	12.29
433.078	50.84
433.29	95.99
433.502	62.27
433.713	101.22
433.925	61.89
434.136	110.52
434.348	31.66
434.56	12.87
434.771	117.1
434.983	16.36
435.194	36.89
435.406	39.8
435.617	67.12
435.829	116.72
436.04	80.68
436.252	89.98
436.463	95.99
436.675	89.01
436.886	75.06
437.098	99.47
437.309	118.65
437.521	57.43
437.732	80.49
437.943	67.31
438.155	51.23
438.366	28.76
438.578	111.29
438.789	73.51
439	110.32
439.211	69.64
439.423	74.09
439.634	68.86
439.845	81.07
440.057	72.35
440.268	74.09
440.479	45.81
440.69	51.04
440.902	63.24
441.113	68.47
441.324	72.74
441.535	55.3
441.746	119.04
441.957	47.16
442.168	41.35
442.38	61.69
442.591	101.41
442.802	64.79
443.013	35.92
443.224	62.66
443.435	58.79
443.646	44.84
443.857	39.8
444.068	61.11
444.279	67.5
444.49	132.8
444.701	56.07
444.912	146.36
445.123	72.54
445.334	81.45
445.545	84.55
445.756	96.37
445.967	55.49
446.178	83.97
446.388	104.12
446.599	121.75
446.81	103.93
447.021	59.75
447.232	101.22
447.443	107.61
447.653	50.26
447.864	103.54
448.075	93.27
448.286	96.57
448.496	91.53
448.707	116.33
448.918	69.64
449.129	176.39
449.339	71.38
449.55	102.96
449.761	54.52
449.971	121.56
450.182	88.24
450.393	99.09
450.603	55.49
450.814	104.51
451.024	101.6
451.235	134.54
451.446	138.61
451.656	144.42
451.867	61.3
452.077	83.97
452.288	141.32
452.498	139.97
452.709	91.92
452.919	95.21
453.13	86.88
453.34	122.72
453.55	70.8
453.761	112.45
453.971	107.03
454.182	126.02
454.392	117.69
454.602	163.02
454.813	118.65
455.023	154.3
455.233	64.6
455.444	83
455.654	46.39
455.864	95.79
456.075	90.75
456.285	83.2
456.495	97.34
456.705	132.99
456.916	121.37
457.126	139.19
457.336	91.72
457.546	83
457.756	82.23
457.967	115.36
458.177	64.79
458.387	92.3
458.597	93.66
458.807	117.69
459.017	120.01
459.227	104.12
459.437	82.23
459.647	130.09
459.857	130.67
460.068	77.19
460.278	131.64
460.488	116.52
460.698	163.22
460.908	104.7
461.117	29.92
461.327	67.89
461.537	98.31
461.747	119.04
461.957	92.89
462.167	193.05
462.377	131.05
462.587	105.87
462.797	124.08
463.007	110.9
463.216	143.45
463.426	159.92
463.636	125.05
463.846	62.47
464.056	92.5
464.265	113.23
464.475	94.82
464.685	115.94
464.895	124.47
465.104	122.72
465.314	117.1
465.524	114.2
465.733	71.19
465.943	167.48
466.153	159.53
466.362	157.79
466.572	102.96
466.782	100.64
466.991	126.79
467.201	181.62
467.41	46.58
467.62	131.44
467.829	108.97
468.039	136.67
468.249	106.06
468.458	137.64
468.668	136.87
468.877	140.55
469.086	165.35
469.296	136.67
469.505	98.5
469.715	169.8
469.924	126.4
470.134	157.6
470.343	177.17
470.552	122.14
470.762	116.72
470.971	101.02
471.18	139.77
471.39	125.24
471.599	86.88
471.808	169.03
472.018	83.59
472.227	150.04
472.436	139.77
472.645	89.4
472.855	73.9
473.064	157.02
473.273	126.6
473.482	144.23
473.691	165.35
473.901	176.58
474.11	137.45
474.319	229.67
474.528	145.2
474.737	169.22
474.946	170.97
475.155	136.87
475.364	157.21
475.573	145.58
475.783	141.71
475.992	151.59
476.201	172.71
476.41	94.82
476.619	102.96
476.828	141.13
477.037	121.56
477.245	141.13
477.454	158.76
477.663	133.19
477.872	113.23
478.081	186.27
478.29	113.04
478.499	202.74
478.708	170.77
478.917	220.95
479.125	151.59
479.334	176.78
479.543	120.4
479.752	175.03
479.961	177.94
480.169	157.98
480.378	136.67
480.587	285.86
480.796	190.73
481.004	158.57
481.213	189.37
481.422	171.93
481.63	140.35
481.839	172.71
482.048	201.38
482.256	156.24
482.465	177.17
482.674	181.82
482.882	186.47
483.091	250.79
483.299	193.83
483.508	220.37
483.716	161.28
483.925	178.52
484.134	191.7
484.342	152.95
484.551	196.15
484.759	208.17
484.967	191.12
485.176	213.78
485.384	197.12
485.593	247.88
485.801	215.14
486.01	208.75
486.218	187.24
486.426	156.63
486.635	181.82
486.843	196.93
487.051	201
487.26	180.85
487.468	203.9
487.676	219.02
487.885	178.33
488.093	176.97
488.301	182.98
488.509	191.31
488.717	200.03
488.926	199.45
489.134	185.11
489.342	194.02
489.55	199.06
489.758	199.83
489.967	173.87
490.175	278.5
490.383	175.81
490.591	251.56
490.799	152.17
491.007	217.85
491.215	201.77
491.423	201.97
491.631	199.45
491.839	204.48
492.047	250.4
492.255	160.31
492.463	168.45
492.671	211.46
492.879	239.94
493.087	195.18
493.295	211.07
493.503	213.01
493.711	200.03
493.919	263.77
494.127	245.75
494.334	240.71
494.542	212.82
494.75	195.77
494.958	200.42
495.166	258.35
495.374	203.13
495.581	218.05
495.789	244.78
495.997	253.7
496.205	231.22
496.412	225.22
496.62	215.14
496.828	249.63
497.035	201.19
497.243	254.86
497.451	207.58
497.658	218.24
497.866	211.65
498.074	276.56
498.281	189.37
498.489	273.65
498.696	237.81
498.904	224.44
499.112	225.41
499.319	296.9
499.527	221.73
499.734	255.63
499.942	208.94
500.149	224.63
500.357	229.09
500.564	190.15
500.771	281.4
500.979	218.82
501.186	220.76
501.394	241.68
501.601	263.58
501.808	252.53
502.016	241.68
502.223	244.2
502.43	264.93
502.638	242.65
502.845	202.55
503.052	296.9
503.26	202.35
503.467	301.75
503.674	231.61
503.881	251.76
504.089	322.48
504.296	279.85
504.503	227.93
504.71	262.61
504.917	221.53
505.125	271.13
505.332	245.17
505.539	249.05
505.746	303.1
505.953	275.01
506.16	244.78
506.367	320.54
506.574	288.38
506.781	286.05
506.988	220.18
507.195	270.75
507.402	251.76
507.609	307.95
507.816	270.16
508.023	257.38
508.23	251.37
508.437	224.25
508.644	266.87
508.851	297.87
509.058	311.05
509.265	275.01
509.472	282.76
509.679	332.74
509.885	283.73
510.092	254.28
510.299	234.32
510.506	284.11
510.713	277.53
510.92	267.45
511.126	284.31
511.333	299.81
511.54	285.66
511.746	335.84
511.953	318.79
512.16	310.27
512.367	283.53
512.573	273.07
512.78	285.28
512.987	268.03
513.193	279.66
513.4	218.24
513.606	292.25
513.813	306.2
514.02	308.53
514.226	337.2
514.433	343.21
514.639	278.5
514.846	298.84
515.052	276.36
515.259	289.15
515.465	284.7
515.672	282.76
515.878	354.83
516.085	251.56
516.291	311.63
516.497	277.53
516.704	287.02
516.91	259.7
517.117	266.29
517.323	250.6
517.529	257.76
517.736	275.98
517.942	290.7
518.148	247.5
518.354	276.56
518.561	297.68
518.767	274.81
518.973	318.41
519.179	340.88
519.386	264.74
519.592	302.13
519.798	280.82
520.004	333.91
520.21	287.41
520.417	326.54
520.623	309.11
520.829	354.06
521.035	326.54
521.241	352.89
521.447	336.43
521.653	421.29
521.859	314.34
522.065	336.43
522.271	403.46
522.477	365.29
522.683	357.54
522.889	358.71
523.095	356.58
523.301	328.09
523.507	300.39
523.713	374.98
523.919	320.93
524.125	365.49
524.331	344.56
524.537	402.11
524.742	346.11
524.948	365.1
525.154	394.55
525.36	467.4
525.566	396.1
525.772	426.32
525.977	352.12
526.183	388.54
526.389	428.07
526.595	349.21
526.8	343.4
527.006	327.32
527.212	330.03
527.417	314.92
527.623	312.21
527.829	407.34
528.034	377.31
528.24	368.39
528.446	330.81
528.651	413.15
528.857	358.71
529.062	456.36
529.268	379.83
529.473	394.94
529.679	381.96
529.884	428.26
530.09	419.35
530.295	447.64
530.501	434.66
530.706	384.67
530.912	371.49
531.117	390.09
531.323	406.76
531.528	435.24
531.733	417.61
531.939	390.09
532.144	439.5
532.35	406.37
532.555	445.7
532.76	444.54
532.966	435.82
533.171	428.84
533.376	403.85
533.581	360.84
533.787	402.3
533.992	401.72
534.197	482.9
534.402	422.06
534.607	400.36
534.813	493.17
535.018	428.07
535.223	383.12
535.428	428.46
535.633	474.37
535.838	408.11
536.043	414.12
536.249	517
536.454	414.7
536.659	409.66
536.864	422.06
537.069	428.07
537.274	460.81
537.479	446.47
537.684	450.54
537.889	382.54
538.094	520.68
538.299	412.96
538.504	467.98
538.708	447.64
538.913	489.87
539.118	435.04
539.323	417.99
539.528	411.41
539.733	428.84
539.938	470.11
540.142	449.77
540.347	427.29
540.552	406.56
540.757	473.21
540.962	446.86
541.166	400.56
541.371	408.5
541.576	445.12
541.781	339.91
541.985	461.59
542.19	457.71
542.395	465.85
542.599	494.72
542.804	491.04
543.008	471.86
543.213	423.42
543.418	398.62
543.622	460.04
543.827	410.24
544.031	483.48
544.236	505.76
544.44	467.21
544.645	530.17
544.849	465.07
545.054	480.96
545.258	548.58
545.463	495.88
545.667	416.44
545.872	474.76
546.076	464.11
546.281	474.57
546.485	425.94
546.689	498.2
546.894	504.6
547.098	468.76
547.302	463.52
547.507	475.34
547.711	467.79
547.915	518.35
548.119	470.31
548.324	454.22
548.528	520.49
548.732	450.74
548.936	524.36
549.141	512.15
549.345	459.26
549.549	461.78
549.753	463.72
549.957	520.29
550.161	536.18
550.366	473.02
550.57	464.3
550.774	480.96
550.978	456.16
551.182	517.39
551.386	455.19
551.59	449.77
551.794	473.41
551.998	485.03
552.202	474.57
552.406	464.49
552.61	484.06
552.814	470.89
553.018	495.1
553.222	456.36
553.426	451.12
553.63	513.7
553.833	429.42
554.037	394.74
554.241	501.89
554.445	504.4
554.649	469.34
554.853	460.81
555.056	493.55
555.26	498.59
555.464	508.67
555.668	476.31
555.871	499.75
556.075	533.85
556.279	453.26
556.483	420.9
556.686	470.5
556.89	486.39
557.094	471.86
557.297	442.41
557.501	518.16
557.704	431.94
557.908	472.05
558.112	449.57
558.315	521.07
558.519	474.18
558.722	454.42
558.926	443.96
559.129	425.74
559.333	411.99
559.536	452.67
559.74	428.07
559.943	412.96
560.147	423.81
560.35	449.96
560.553	449.96
560.757	369.94
560.96	500.92
561.164	423.81
561.367	516.03
561.57	434.27
561.774	463.72
561.977	450.74
562.18	430.2
562.384	519.52
562.587	441.82
562.79	438.72
562.993	430.39
563.197	504.79
563.4	496.07
563.603	473.99
563.806	513.32
564.009	417.99
564.212	463.91
564.416	412.18
564.619	481.16
564.822	390.87
565.025	490.84
565.228	441.44
565.431	459.07
565.634	373.43
565.837	407.72
566.04	417.02
566.243	413.54
566.446	340.49
566.649	464.88
566.852	377.5
567.055	399.59
567.258	459.65
567.461	482.51
567.664	471.86
567.867	377.11
568.07	411.02
568.273	420.51
568.475	436.59
568.678	420.51
568.881	409.66
569.084	419.35
569.287	370.33
569.489	365.49
569.692	442.02
569.895	459.65
570.098	364.33
570.3	374.79
570.503	320.73
570.706	349.41
570.909	321.12
571.111	352.12
571.314	339.53
571.516	394.74
571.719	385.83
571.922	353.48
572.124	352.12
572.327	389.51
572.529	306.78
572.732	295.55
572.935	354.06
573.137	394.74
573.34	344.18
573.542	380.02
573.745	350.96
573.947	360.06
574.15	345.53
574.352	351.73
574.554	423.22
574.757	347.86
574.959	337.01
575.162	300.58
575.364	345.53
575.566	420.12
575.769	324.22
575.971	369.75
576.173	272.88
576.376	338.75
576.578	376.34
576.78	387.77
576.982	280.43
577.185	329.06
577.387	288.96
577.589	309.3
577.791	364.13
577.993	360.06
578.196	320.93
578.398	364.71
578.6	336.81
578.802	302.71
579.004	300
579.206	317.83
579.408	331.39
579.61	336.23
579.812	349.6
580.014	330.81
580.216	310.46
580.418	308.33
580.62	316.28
580.822	288.18
581.024	313.95
581.226	375.37
581.428	316.86
581.63	377.5
581.832	293.8
582.034	333.52
582.236	333.91
582.438	345.14
582.64	346.89
582.841	412.57
583.043	412.76
583.245	357.35
583.447	349.6
583.649	325.58
583.85	361.61
584.052	360.26
584.254	305.04
584.456	409.47
584.657	304.46
584.859	336.23
585.061	308.33
585.262	297.1
585.464	310.66
585.666	356.77
585.867	327.9
586.069	356.96
586.27	352.89
586.472	339.14
586.674	309.88
586.875	317.63
587.077	324.61
587.278	321.31
587.48	313.76
587.681	384.86
587.883	329.64
588.084	258.15
588.285	316.28
588.487	310.66
588.688	326.35
588.89	282.37
589.091	279.46
589.292	288.57
589.494	304.65
589.695	289.93
589.896	262.41
590.098	253.5
590.299	304.46
590.5	259.51
590.702	269.39
590.903	258.15
591.104	314.53
591.305	284.5
591.507	352.89
591.708	314.92
591.909	293.03
592.11	353.67
592.311	304.46
592.512	301.75
592.714	248.46
592.915	276.75
593.116	291.48
593.317	293.61
593.518	283.92
593.719	283.92
593.92	306.01
594.121	325.58
594.322	297.48
594.523	313.18
594.724	263.77
594.925	299.81
595.126	309.69
595.327	326.16
595.528	312.79
595.729	322.09
595.929	283.15
596.13	277.53
596.331	298.06
596.532	318.6
596.733	341.85
596.934	314.14
597.135	321.12
597.335	313.37
597.536	276.95
597.737	317.24
597.938	290.9
598.138	327.71
598.339	301.94
598.54	312.21
598.74	309.3
598.941	311.43
599.142	344.37
599.342	314.73
599.543	270.94
599.744	303.1
599.944	279.27
600.145	281.01
600.345	308.91
600.546	373.24
600.746	344.56
600.947	351.34
601.147	294.96
601.348	316.47
601.548	304.85
601.749	295.16
601.949	264.74
602.15	272.88
602.35	302.33
602.551	360.06
602.751	261.06
602.951	279.46
603.152	237.81
603.352	309.11
603.552	281.4
603.753	306.59
603.953	297.87
604.153	289.73
604.354	311.43
604.554	313.18
604.754	298.45
604.954	229.28
605.155	313.95
605.355	306.78
605.555	314.34
605.755	339.72
605.955	288.76
606.155	317.24
606.356	305.23
606.556	322.28
606.756	331.58
606.956	243.81
607.156	331.58
607.356	284.5
607.556	306.01
607.756	299.23
607.956	353.86
608.156	302.52
608.356	293.8
608.556	320.73
608.756	319.96
608.956	254.47
609.156	322.67
609.356	277.53
609.556	293.03
609.755	296.32
609.955	283.15
610.155	299.03
610.355	314.92
610.555	254.08
610.755	310.08
610.954	251.37
611.154	278.69
611.354	302.52
611.554	250.4
611.753	266.1
611.953	224.25
612.153	306.01
612.352	290.31
612.552	256.21
612.752	218.63
612.951	277.72
613.151	271.71
613.351	232.38
613.55	255.44
613.75	272.3
613.949	306.78
614.149	287.21
614.348	266.48
614.548	241.3
614.747	217.85
614.947	270.94
615.146	216.11
615.346	315.5
615.545	263
615.745	282.37
615.944	292.83
616.144	291.67
616.343	292.64
616.542	229.67
616.742	255.63
616.941	277.72
617.14	240.91
617.34	251.37
617.539	250.79
617.738	230.06
617.938	264.93
618.137	273.85
618.336	213.98
618.535	263.19
618.734	239.55
618.934	272.1
619.133	274.43
619.332	281.21
619.531	245.75
619.73	243.43
619.929	277.72
620.128	275.59
620.328	293.22
620.527	239.55
620.726	254.08
620.925	260.48
621.124	220.18
621.323	275.4
621.522	217.08
621.721	229.86
621.92	188.21
622.119	258.15
622.318	229.09
622.517	278.11
622.715	259.12
622.914	211.07
623.113	237.42
623.312	210.88
623.511	241.88
623.71	223.08
623.909	239.16
624.107	274.43
624.306	203.13
624.505	222.12
624.704	223.86
624.902	223.47
625.101	264.93
625.3	242.07
625.499	208.55
625.697	184.92
625.896	210.1
626.095	226.38
626.293	160.12
626.492	203.13
626.69	268.23
626.889	214.37
627.088	235.87
627.286	184.33
627.485	230.64
