Data from oakcork_FLMT105791__161__17-31-34-058.txt Node

Date: Mon Mar 20 17:31:34 GMT 2023
User: antho
Spectrometer: FLMT10579
Trigger mode: 0
Integration Time (sec): 1.000000E-1
Scans to average: 10
Electric dark correction enabled: true
Nonlinearity correction enabled: false
Boxcar width: 0
XAxis mode: Wavelengths
Number of Pixels in Spectrum: 3648
>>>>>Begin Spectral Data<<<<<
345.248	-157.37
345.464	-157.37
345.681	-157.37
345.898	-180.23
346.114	-153.11
346.331	-19.42
346.548	28.43
346.764	-21.17
346.981	6.93
347.197	-3.92
347.414	23.98
347.631	-25.62
347.847	65.24
348.064	-10.32
348.28	21.46
348.497	-43.64
348.713	-21.94
348.93	7.9
349.146	10.41
349.363	-24.85
349.579	11.77
349.796	4.99
350.012	5.38
350.229	4.8
350.445	5.76
350.661	-40.54
350.878	9.45
351.094	13.32
351.311	10.8
351.527	7.7
351.743	-16.9
351.96	15.84
352.176	32.89
352.392	8.67
352.609	30.18
352.825	-13.61
353.041	-18.26
353.257	0.92
353.474	-7.99
353.69	24.17
353.906	6.93
354.122	-37.25
354.339	41.99
354.555	7.51
354.771	-23.88
354.987	13.32
355.203	57.88
355.42	-15.94
355.636	-29.3
355.852	-1.99
356.068	-8.19
356.284	-59.72
356.5	58.66
356.716	-2.95
356.932	-8.38
357.148	14.1
357.364	-2.57
357.58	34.24
357.796	48.39
358.012	35.21
358.228	35.6
358.444	-38.8
358.66	65.83
358.876	13.13
359.092	-6.05
359.308	20.88
359.524	6.15
359.74	-7.99
359.956	-11.09
360.172	-10.9
360.388	10.61
360.604	-7.8
360.819	56.33
361.035	21.65
361.251	19.33
361.467	1.89
361.683	43.74
361.898	26.11
362.114	30.37
362.33	35.79
362.546	45.68
362.762	-19.04
362.977	9.25
363.193	0.92
363.409	17.97
363.624	-35.5
363.84	-10.51
364.056	-13.03
364.271	7.51
364.487	15.65
364.703	6.93
364.918	-10.7
365.134	-7.22
365.35	-27.17
365.565	87.53
365.781	25.14
365.996	7.51
366.212	80.94
366.427	30.76
366.643	-31.44
366.858	-0.82
367.074	-38.8
367.289	36.76
367.505	84.04
367.72	-9.35
367.936	-20.97
368.151	29.4
368.367	15.84
368.582	18.55
368.798	-36.67
369.013	41.22
369.228	5.38
369.444	-0.05
369.659	66.02
369.874	14.48
370.09	37.34
370.305	-43.45
370.52	-19.04
370.736	62.34
370.951	-5.28
371.166	56.53
371.381	47.23
371.597	24.94
371.812	-20.2
372.027	-21.17
372.242	23.78
372.458	74.16
372.673	-3.73
372.888	-15.35
373.103	19.91
373.318	101.67
373.533	30.95
373.749	37.54
373.964	-28.14
374.179	55.75
374.394	10.61
374.609	42.19
374.824	-22.52
375.039	27.08
375.254	-19.42
375.469	79
375.684	3.05
375.899	71.83
376.114	26.49
376.329	26.11
376.544	36.96
376.759	33.66
376.974	-22.33
377.189	3.05
377.404	-4.12
377.619	28.04
377.834	-40.54
378.049	-38.6
378.264	-20.59
378.478	24.75
378.693	-17.29
378.908	48.97
379.123	23.98
379.338	44.9
379.553	35.41
379.767	7.31
379.982	29.21
380.197	33.08
380.412	16.03
380.626	44.9
380.841	59.63
381.056	22.43
381.271	54.78
381.485	-4.31
381.7	-36.28
381.915	35.99
382.129	12.74
382.344	11.77
382.559	-27.56
382.773	50.13
382.988	-12.06
383.202	20.1
383.417	-48.68
383.632	84.04
383.846	38.89
384.061	22.81
384.275	19.52
384.49	47.81
384.704	46.45
384.919	26.11
385.133	15.84
385.348	37.54
385.562	-9.74
385.777	68.15
385.991	4.21
386.206	-2.18
386.42	-0.82
386.634	48.78
386.849	31.92
387.063	23.01
387.277	-20
387.492	17.39
387.706	-26.01
387.92	-19.23
388.135	53.62
388.349	32.31
388.563	17
388.778	15.06
388.992	39.48
389.206	37.73
389.42	84.23
389.635	24.56
389.849	25.53
390.063	64.08
390.277	44.51
390.491	55.17
390.706	31.14
390.92	49.55
391.134	24.94
391.348	52.07
391.562	-29.3
391.776	35.21
391.99	-4.31
392.205	58.46
392.419	-20.2
392.633	-4.5
392.847	61.95
393.061	-8.96
393.275	49.16
393.489	23.2
393.703	32.11
393.917	49.55
394.131	-9.35
394.345	41.41
394.559	46.45
394.773	25.72
394.986	31.73
395.2	3.83
395.414	34.63
395.628	-14.58
395.842	35.79
396.056	-4.89
396.27	-36.09
396.484	17.78
396.697	31.34
396.911	58.85
397.125	64.47
397.339	48.78
397.553	32.31
397.766	81.52
397.98	88.3
398.194	31.53
398.408	7.9
398.621	36.57
398.835	49.74
399.049	30.37
399.262	87.72
399.476	78.23
399.69	53.62
399.903	95.86
400.117	25.72
400.331	32.89
400.544	11.58
400.758	112.13
400.971	44.13
401.185	41.8
401.398	21.65
401.612	58.66
401.826	42.58
402.039	47.03
402.253	11.19
402.466	69.89
402.68	26.88
402.893	41.99
403.106	25.72
403.32	27.85
403.533	70.28
403.747	33.86
403.96	41.99
404.174	35.99
404.387	-7.99
404.6	45.09
404.814	60.79
405.027	37.54
405.24	24.75
405.454	9.06
405.667	83.84
405.88	-13.42
406.094	53.81
406.307	62.34
406.52	38.51
406.733	17.78
406.947	3.83
407.16	111.55
407.373	77.64
407.586	27.85
407.799	37.73
408.012	73.19
408.226	29.59
408.439	100.12
408.652	7.7
408.865	35.6
409.078	64.08
409.291	54.01
409.504	8.28
409.717	54.59
409.93	55.36
410.143	62.73
410.357	-2.76
410.57	10.41
410.783	31.34
410.996	52.26
411.209	42.38
411.421	81.52
411.634	41.22
411.847	20.49
412.06	63.11
412.273	28.82
412.486	36.38
412.699	148.36
412.912	23.98
413.125	76.09
413.338	54.01
413.55	91.4
413.763	58.27
413.976	63.5
414.189	29.4
414.402	35.99
414.615	94.89
414.827	30.95
415.04	66.02
415.253	57.88
415.466	76.87
415.678	113.29
415.891	63.5
416.104	42.96
416.316	55.75
416.529	37.54
416.742	72.41
416.954	93.53
417.167	69.51
417.38	32.31
417.592	61.95
417.805	-1.99
418.017	11.58
418.23	62.92
418.442	32.69
418.655	34.83
418.868	61.37
419.08	88.3
419.293	76.09
419.505	43.54
419.718	40.64
419.93	79
420.142	31.73
420.355	96.24
420.567	86.36
420.78	78.61
420.992	60.4
421.205	110.19
421.417	12.55
421.629	31.73
421.842	11.19
422.054	3.83
422.266	62.34
422.479	77.45
422.691	22.81
422.903	92.56
423.115	12.74
423.328	41.61
423.54	47.03
423.752	62.34
423.964	23.2
424.177	55.56
424.389	28.43
424.601	140.61
424.813	66.99
425.025	80.55
425.238	95.47
425.45	40.06
425.662	59.24
425.874	332.81
426.086	51.88
426.298	70.28
426.51	82.1
426.722	85.98
426.934	18.75
427.146	69.51
427.358	19.52
427.57	85.01
427.782	50.13
427.994	87.53
428.206	37.93
428.418	11.77
428.63	67.38
428.842	83.84
429.054	48.39
429.266	69.51
429.478	-5.09
429.69	59.63
429.902	24.36
430.114	68.93
430.325	74.93
430.537	51.88
430.749	50.71
430.961	10.8
431.173	57.49
431.384	75.32
431.596	8.28
431.808	69.7
432.02	82.49
432.231	79.97
432.443	81.91
432.655	72.41
432.867	43.35
433.078	68.73
433.29	121.43
433.502	100.31
433.713	92.95
433.925	56.53
434.136	121.62
434.348	-5.28
434.56	44.13
434.771	157.86
434.983	46.45
435.194	45.09
435.406	53.62
435.617	87.53
435.829	143.71
436.04	81.33
436.252	110.77
436.463	123.17
436.675	114.26
436.886	83.46
437.098	63.89
437.309	131.51
437.521	83.26
437.732	105.54
437.943	71.64
438.155	86.56
438.366	21.65
438.578	112.32
438.789	91.98
439	91.79
439.211	67.57
439.423	106.51
439.634	92.56
439.845	91.01
440.057	117.56
440.268	117.17
440.479	56.53
440.69	82.49
440.902	68.73
441.113	99.34
441.324	67.96
441.535	92.18
441.746	111.36
441.957	58.46
442.168	81.33
442.38	117.75
442.591	132.86
442.802	75.51
443.013	85.59
443.224	71.83
443.435	70.67
443.646	72.61
443.857	106.13
444.068	70.09
444.279	72.61
444.49	178.59
444.701	97.99
444.912	181.69
445.123	121.04
445.334	127.82
445.545	119.11
445.756	83.65
445.967	74.74
446.178	118.91
446.388	153.98
446.599	119.3
446.81	116.78
447.021	108.06
447.232	131.12
447.443	136.54
447.653	81.13
447.864	150.3
448.075	99.93
448.286	133.25
448.496	96.44
448.707	111.16
448.918	100.89
449.129	165.61
449.339	108.64
449.55	129.76
449.761	108.84
449.971	161.73
450.182	70.86
450.393	146.81
450.603	108.64
450.814	160.76
451.024	129.76
451.235	131.12
451.446	168.12
451.656	163.47
451.867	90.63
452.077	126.86
452.288	173.94
452.498	171.61
452.709	115.04
452.919	120.07
453.13	129.57
453.34	189.24
453.55	69.31
453.761	147.2
453.971	147.59
454.182	168.12
454.392	120.07
454.602	176.07
454.813	141.19
455.023	157.08
455.233	114.46
455.444	131.89
455.654	85.39
455.864	145.07
456.075	120.66
456.285	123.76
456.495	134.41
456.705	139.84
456.916	174.91
457.126	199.7
457.336	140.61
457.546	77.64
457.756	103.03
457.967	164.25
458.177	129.96
458.387	147.97
458.597	109.61
458.807	131.12
459.017	128.41
459.227	115.42
459.437	113.49
459.647	157.27
459.857	152.43
460.068	116.78
460.278	159.02
460.488	167.93
460.698	202.03
460.908	161.73
461.117	92.95
461.327	107.68
461.537	127.24
461.747	147.2
461.957	147.01
462.167	251.24
462.377	167.35
462.587	125.31
462.797	181.88
463.007	146.62
463.216	170.26
463.426	192.73
463.636	163.09
463.846	81.91
464.056	143.32
464.265	162.31
464.475	121.24
464.685	163.86
464.895	154.17
465.104	159.79
465.314	196.61
465.524	126.47
465.733	96.83
465.943	250.27
466.153	209.39
466.362	169.87
466.572	166.96
466.782	135.38
466.991	179.94
467.201	206.68
467.41	122.21
467.62	164.64
467.829	163.67
468.039	156.31
468.249	182.85
468.458	160.96
468.668	182.85
468.877	181.88
469.086	213.07
469.296	198.54
469.505	148.94
469.715	231.29
469.924	199.51
470.134	185.17
470.343	225.47
470.552	170.84
470.762	145.07
470.971	156.5
471.18	176.07
471.39	164.83
471.599	144.29
471.808	203
472.018	153.59
472.227	215.79
472.436	203.58
472.645	163.28
472.855	158.24
473.064	238.84
473.273	182.07
473.482	203.77
473.691	225.09
473.901	189.82
474.11	173.74
474.319	258.99
474.528	190.99
474.737	216.56
474.946	197.77
475.155	217.14
475.364	214.24
475.573	190.02
475.783	208.04
475.992	243.49
476.201	232.84
476.41	199.9
476.619	196.61
476.828	217.72
477.037	181.69
477.245	224.12
477.454	209.97
477.663	182.27
477.872	201.06
478.081	264.61
478.29	204.16
478.499	279.14
478.708	209.2
478.917	277.4
479.125	217.92
479.334	254.15
479.543	218.3
479.752	212.69
479.961	257.83
480.169	267.9
480.378	214.62
480.587	336.68
480.796	238.65
481.004	238.45
481.213	253.18
481.422	222.95
481.63	230.7
481.839	264.8
482.048	315.18
482.256	266.94
482.465	246.79
482.674	257.44
482.882	267.32
483.091	326.22
483.299	277.59
483.508	293.09
483.716	282.63
483.925	264.42
484.134	268.1
484.342	253.37
484.551	289.02
484.759	279.14
484.967	287.67
485.176	321.57
485.384	284.37
485.593	288.25
485.801	268.49
486.01	262.67
486.218	260.54
486.426	204.74
486.635	256.67
486.843	242.91
487.051	263.45
487.26	257.83
487.468	296.97
487.676	320.99
487.885	227.22
488.093	272.36
488.301	278.56
488.509	284.57
488.717	332.42
488.926	254.54
489.134	280.5
489.342	280.5
489.55	254.92
489.758	281.85
489.967	276.24
490.175	404.5
490.383	275.65
490.591	374.85
490.799	273.52
491.007	347.53
491.215	323.12
491.423	307.23
491.631	316.15
491.839	289.99
492.047	342.5
492.255	297.16
492.463	276.82
492.671	291.73
492.879	344.43
493.087	289.22
493.295	319.83
493.503	337.65
493.711	354.51
493.919	363.62
494.127	351.99
494.334	370.01
494.542	288.83
494.75	308.2
494.958	336.49
495.166	361.48
495.374	335.33
495.581	343.27
495.789	366.13
495.997	381.05
496.205	331.45
496.412	369.23
496.62	333.78
496.828	367.49
497.035	324.87
497.243	372.14
497.451	348.5
497.658	365.94
497.866	322.73
498.074	407.98
498.281	348.7
498.489	412.44
498.696	352.38
498.904	345.4
499.112	328.35
499.319	427.16
499.527	361.87
499.734	403.72
499.942	324.09
500.149	347.92
500.357	390.35
500.564	340.37
500.771	357.22
500.979	335.72
501.186	343.08
501.394	385.31
501.601	383.96
501.808	376.4
502.016	366.33
502.223	343.47
502.43	343.27
502.638	361.87
502.845	327.77
503.052	411.47
503.26	324.67
503.467	424.26
503.674	382.6
503.881	369.43
504.089	444.02
504.296	410.31
504.503	331.07
504.71	395.78
504.917	352.96
505.125	411.66
505.332	388.8
505.539	396.94
505.746	450.03
505.953	433.95
506.16	419.22
506.367	460.1
506.574	458.94
506.781	454.1
506.988	376.98
507.195	431.23
507.402	396.75
507.609	455.45
507.816	379.11
508.023	403.91
508.23	387.06
508.437	373.88
508.644	444.21
508.851	487.81
509.058	418.25
509.265	435.88
509.472	446.93
509.679	503.89
509.885	420.58
510.092	427.75
510.299	443.44
510.506	422.71
510.713	432.4
510.92	447.7
511.126	469.21
511.333	474.44
511.54	468.82
511.746	526.17
511.953	492.65
512.16	502.92
512.367	478.12
512.573	457.97
512.78	469.98
512.987	436.27
513.193	463.2
513.4	397.33
513.606	418.83
513.813	479.67
514.02	456.03
514.226	515.51
514.433	519.19
514.639	420
514.846	475.21
515.052	460.68
515.259	483.74
515.465	493.43
515.672	491.1
515.878	582.36
516.085	479.67
516.291	494.59
516.497	496.14
516.704	483.74
516.91	432.2
517.117	432.4
517.323	430.26
517.529	483.35
517.736	446.35
517.942	481.22
518.148	453.9
518.354	458.36
518.561	489.36
518.767	502.92
518.973	522.49
519.179	528.69
519.386	494.59
519.592	489.16
519.798	484.71
520.004	554.26
520.21	511.83
520.417	548.64
520.623	550.58
520.829	562.01
521.035	564.14
521.241	590.11
521.447	602.31
521.653	644.35
521.859	563.17
522.065	598.44
522.271	638.74
522.477	579.26
522.683	626.72
522.889	605.8
523.095	638.35
523.301	602.89
523.507	590.88
523.713	643.58
523.919	570.34
524.125	633.31
524.331	600.96
524.537	657.34
524.742	643.58
524.948	668.57
525.154	673.42
525.36	751.3
525.566	664.7
525.772	708.1
525.977	646.87
526.183	674.77
526.389	703.25
526.595	627.5
526.8	658.3
527.006	638.15
527.212	610.84
527.417	612.39
527.623	603.28
527.829	673.42
528.034	665.67
528.24	673.03
528.446	694.15
528.651	716.04
528.857	696.09
529.062	747.82
529.268	712.17
529.473	716.43
529.679	666.44
529.884	762.73
530.09	754.21
530.295	773.39
530.501	757.12
530.706	723.21
530.912	699.77
531.117	737.55
531.323	766.42
531.528	765.45
531.733	782.11
531.939	720.69
532.144	776.3
532.35	753.63
532.555	795.87
532.76	802.65
532.966	810.98
533.171	759.63
533.376	772.62
533.581	724.18
533.787	767.38
533.992	811.75
534.197	809.23
534.402	757.89
534.607	786.95
534.813	875.11
535.018	775.72
535.223	765.45
535.428	784.82
535.633	824.15
535.838	834.61
536.043	826.09
536.249	902.23
536.454	810.78
536.659	806.52
536.864	796.64
537.069	782.11
537.274	827.06
537.479	845.27
537.684	859.8
537.889	773.39
538.094	871.62
538.299	835.58
538.504	849.53
538.708	833.84
538.913	883.44
539.118	834.42
539.323	883.25
539.528	844.11
539.733	850.11
539.938	865.81
540.142	859.61
540.347	835.78
540.552	821.05
540.757	855.93
540.962	820.66
541.166	783.85
541.371	800.9
541.576	839.46
541.781	760.41
541.985	853.6
542.19	841.98
542.395	893.51
542.599	906.11
542.804	878.01
543.008	923.35
543.213	824.15
543.418	822.99
543.622	895.26
543.827	851.66
544.031	907.08
544.236	903.59
544.44	852.25
544.645	949.89
544.849	882.08
545.054	889.64
545.258	970.63
545.463	920.44
545.667	878.6
545.872	904.17
546.076	890.8
546.281	896.23
546.485	847.6
546.689	899.33
546.894	933.43
547.098	901.26
547.302	880.15
547.507	916.18
547.711	908.24
547.915	939.43
548.119	880.73
548.324	899.91
548.528	966.94
548.732	960.55
548.936	945.83
549.141	955.9
549.345	882.66
549.549	935.75
549.753	887.31
549.957	986.32
550.161	978.76
550.366	914.44
550.57	931.1
550.774	921.8
550.978	907.66
551.182	925.48
551.386	917.73
551.59	919.86
551.794	877.63
551.998	931.49
552.202	911.92
552.406	883.25
552.61	912.5
552.814	908.63
553.018	980.12
553.222	896.42
553.426	918.31
553.63	977.99
553.833	919.28
554.037	867.75
554.241	958.81
554.445	935.36
554.649	922.77
554.853	896.81
555.056	956.29
555.26	976.24
555.464	913.66
555.668	937.69
555.871	960.94
556.075	959.39
556.279	917.15
556.483	876.85
556.686	893.9
556.89	910.56
557.094	918.51
557.297	871.04
557.501	958.81
557.704	852.44
557.908	955.71
558.112	892.74
558.315	968.49
558.519	934.59
558.722	874.14
558.926	895.06
559.129	880.92
559.333	829.38
559.536	851.47
559.74	823.96
559.943	826.09
560.147	867.36
560.35	879.95
560.553	831.71
560.757	814.66
560.96	903.39
561.164	867.36
561.367	886.35
561.57	844.3
561.774	849.53
561.977	838.88
562.18	826.48
562.384	911.73
562.587	850.11
562.79	846.24
562.993	846.63
563.197	863.48
563.4	921.8
563.603	878.79
563.806	934.2
564.009	845.85
564.212	844.88
564.416	805.17
564.619	848.37
564.822	809.04
565.025	900.1
565.228	844.5
565.431	851.28
565.634	778.23
565.837	813.88
566.04	809.43
566.243	804.97
566.446	707.9
566.649	829
566.852	781.92
567.055	797.22
567.258	819.7
567.461	831.71
567.664	828.8
567.867	720.5
568.07	798.38
568.273	793.15
568.475	825.12
568.678	803.62
568.881	788.7
569.084	773.39
569.287	695.5
569.489	700.35
569.692	786.76
569.895	775.91
570.098	697.05
570.3	718.17
570.503	647.65
570.706	705
570.909	713.72
571.111	703.64
571.314	679.62
571.516	728.83
571.719	709.65
571.922	683.49
572.124	688.53
572.327	726.31
572.529	648.81
572.732	660.44
572.935	672.06
573.137	746.65
573.34	661.02
573.542	712.94
573.745	697.25
573.947	692.21
574.15	671.48
574.352	634.67
574.554	759.05
574.757	629.82
574.959	637.96
575.162	660.24
575.364	638.93
575.566	723.4
575.769	657.92
575.971	667.41
576.173	567.63
576.376	682.14
576.578	672.06
576.78	729.02
576.982	585.84
577.185	631.18
577.387	594.17
577.589	587.39
577.791	676.52
577.993	649
578.196	591.66
578.398	629.63
578.6	649.97
578.802	587.39
579.004	592.04
579.206	581.97
579.408	640.48
579.61	607.35
579.812	652.1
580.014	606.77
580.216	579.45
580.418	609.48
580.62	566.27
580.822	556.39
581.024	609.67
581.226	635.83
581.428	611.03
581.63	648.23
581.832	582.55
582.034	644.55
582.236	607.35
582.438	638.54
582.64	662.37
582.841	682.91
583.043	693.57
583.245	638.35
583.447	650.75
583.649	609.48
583.85	653.07
584.052	664.89
584.254	603.47
584.456	669.35
584.657	567.82
584.859	594.95
585.061	627.31
585.262	575.77
585.464	568.79
585.666	640.09
585.867	596.5
586.069	662.18
586.27	615.68
586.472	628.86
586.674	583.91
586.875	576.93
587.077	572.86
587.278	596.11
587.48	600.76
587.681	695.7
587.883	611.61
588.084	552.32
588.285	572.86
588.487	538.57
588.688	592.04
588.89	524.81
589.091	515.32
589.292	544.96
589.494	542.83
589.695	532.37
589.896	516.87
590.098	484.51
590.299	540.89
590.5	474.44
590.702	510.48
590.903	535.08
591.104	582.16
591.305	554.65
591.507	588.17
591.708	571.51
591.909	511.83
592.11	598.05
592.311	583.71
592.512	551.16
592.714	508.93
592.915	518.03
593.116	530.43
593.317	551.16
593.518	528.3
593.719	521.52
593.92	578.48
594.121	584.1
594.322	541.67
594.523	573.06
594.724	530.63
594.925	517.64
595.126	546.12
595.327	565.11
595.528	525.98
595.729	533.34
595.929	535.66
596.13	555.62
596.331	535.86
596.532	556.78
596.733	606.38
596.934	588.17
597.135	598.05
597.335	552.52
597.536	501.37
597.737	546.51
597.938	529.27
598.138	574.8
598.339	517.26
598.54	570.92
598.74	542.25
598.941	540.31
599.142	568.6
599.342	557.36
599.543	531.21
599.744	516.68
599.944	531.98
600.145	555.42
600.345	545.74
600.546	596.69
600.746	585.84
600.947	605.22
601.147	562.01
601.348	606.57
601.548	530.43
601.749	520.94
601.949	500.01
602.15	514.74
602.35	512.03
602.551	598.63
602.751	488.19
602.951	514.16
603.152	472.5
603.352	559.49
603.552	549.22
603.753	560.46
603.953	563.37
604.153	562.4
604.354	513.77
604.554	536.24
604.754	533.73
604.954	519
605.155	553.29
605.355	522.29
605.555	576.16
605.755	558.72
605.955	535.66
606.155	553.1
606.356	555.81
606.556	577.71
606.756	560.85
606.956	493.23
607.156	586.62
607.356	497.88
607.556	558.72
607.756	536.83
607.956	562.98
608.156	534.89
608.356	507.76
608.556	548.06
608.756	527.33
608.956	478.31
609.156	545.35
609.356	507.18
609.556	478.7
609.755	519.97
609.955	482.38
610.155	524.43
610.355	549.81
610.555	507.96
610.755	503.31
610.954	453.32
611.154	510.48
611.354	540.12
611.554	484.9
611.753	493.23
611.953	448.86
612.153	521.52
612.352	510.48
612.552	458.75
612.752	403.53
612.951	497.88
613.151	500.98
613.351	470.95
613.55	491.49
613.75	490.71
613.949	485.29
614.149	507.18
614.348	484.9
614.548	457
614.747	419.8
614.947	472.11
615.146	433.56
615.346	500.79
615.545	465.33
615.745	498.08
615.944	497.11
616.144	471.53
616.343	516.87
616.542	434.72
616.742	446.35
616.941	461.46
617.14	414.18
617.34	466.49
617.539	450.41
617.738	422.9
617.938	509.89
618.137	454.48
618.336	428.33
618.535	490.13
618.734	439.18
618.934	480.64
619.133	438.6
619.332	476.76
619.531	433.95
619.73	444.99
619.929	483.54
620.128	457.2
620.328	499.82
620.527	448.86
620.726	445.96
620.925	453.9
621.124	433.75
621.323	447.31
621.522	410.89
621.721	427.94
621.92	425.81
622.119	455.65
622.318	403.91
622.517	434.72
622.715	431.04
622.914	391.13
623.113	424.26
623.312	413.99
623.511	427.55
623.71	399.26
623.909	425.42
624.107	499.43
624.306	403.33
624.505	420.96
624.704	402.17
624.902	410.7
625.101	484.51
625.3	445.57
625.499	450.03
625.697	397.91
625.896	405.08
626.095	447.31
626.293	380.47
626.492	378.15
626.69	450.8
626.889	420.19
627.088	447.9
