Data from oakcork_FLMT105791__210__17-32-41-056.txt Node

Date: Mon Mar 20 17:32:41 GMT 2023
User: antho
Spectrometer: FLMT10579
Trigger mode: 0
Integration Time (sec): 1.000000E-1
Scans to average: 10
Electric dark correction enabled: true
Nonlinearity correction enabled: false
Boxcar width: 0
XAxis mode: Wavelengths
Number of Pixels in Spectrum: 3648
>>>>>Begin Spectral Data<<<<<
345.248	-135.3
345.464	-135.3
345.681	-135.3
345.898	-150.99
346.114	-150.61
346.331	-21.76
346.548	36.36
346.764	6.14
346.981	-17.31
347.197	-33.78
347.414	13.89
347.631	-25.83
347.847	60.97
348.064	-3.75
348.28	22.6
348.497	-26.61
348.713	-10.91
348.93	25.51
349.146	25.51
349.363	3.81
349.579	12.14
349.796	22.22
350.012	4.39
350.229	-6.85
350.445	9.82
350.661	-20.41
350.878	5.17
351.094	29.58
351.311	32.48
351.527	16.6
351.743	-0.06
351.96	38.49
352.176	45.08
352.392	41.2
352.609	26.29
352.825	-9.36
353.041	19.12
353.257	-25.83
353.474	-7.04
353.69	20.86
353.906	5.75
354.122	-16.15
354.339	49.15
354.555	-0.06
354.771	-11.69
354.987	80.34
355.203	57.09
355.42	3.23
355.636	-11.5
355.852	11.75
356.068	23.19
356.284	-15.56
356.5	60
356.716	25.51
356.932	13.5
357.148	12.72
357.364	0.71
357.58	58.45
357.796	85.77
358.012	36.75
358.228	40.82
358.444	-51.6
358.66	49.15
358.876	19.7
359.092	0.9
359.308	17.57
359.524	23.19
359.74	-4.71
359.956	-3.55
360.172	-1.61
360.388	36.55
360.604	-6.07
360.819	92.55
361.035	2.65
361.251	15.82
361.467	-0.65
361.683	38.49
361.898	23.77
362.114	35
362.33	38.1
362.546	54.57
362.762	5.55
362.977	20.09
363.193	-21.38
363.409	61.74
363.624	-33.39
363.84	-11.69
364.056	6.14
364.271	39.27
364.487	23.19
364.703	-2
364.918	-22.73
365.134	20.47
365.35	-2.39
365.565	110.57
365.781	32.87
365.996	27.84
366.212	60
366.427	20.47
366.643	28.61
366.858	2.84
367.074	3.23
367.289	61.55
367.505	103.2
367.72	-22.54
367.936	7.88
368.151	36.94
368.367	15.24
368.582	53.22
368.798	4.2
369.013	74.72
369.228	21.05
369.444	32.29
369.659	74.14
369.874	58.64
370.09	72.98
370.305	-38.23
370.52	15.24
370.736	94.68
370.951	18.15
371.166	78.02
371.381	75.69
371.597	27.84
371.812	9.62
372.027	-13.43
372.242	32.29
372.458	77.82
372.673	4.59
372.888	8.27
373.103	23.57
373.318	106.3
373.533	34.03
373.749	53.41
373.964	-13.82
374.179	72.01
374.394	0.71
374.609	61.74
374.824	1.68
375.039	61.35
375.254	9.04
375.469	79.95
375.684	29.38
375.899	55.93
376.114	23.38
376.329	15.24
376.544	72.4
376.759	57.87
376.974	-8.59
377.189	5.17
377.404	42.95
377.619	68.72
377.834	-25.45
378.049	-4.71
378.264	2.65
378.478	24.93
378.693	7.49
378.908	28.42
379.123	39.65
379.338	71.04
379.553	30.16
379.767	30.16
379.982	52.44
380.197	62.52
380.412	52.25
380.626	27.25
380.841	119.48
381.056	48.76
381.271	88.67
381.485	28.8
381.7	0.32
381.915	51.08
382.129	2.26
382.344	47.98
382.559	38.88
382.773	57.48
382.988	-18.66
383.202	23.77
383.417	0.71
383.632	94.48
383.846	16.79
384.061	48.57
384.275	43.72
384.49	77.82
384.704	88.48
384.919	56.9
385.133	34.62
385.348	76.08
385.562	-17.7
385.777	77.63
385.991	34.81
386.206	21.44
386.42	18.34
386.634	81.12
386.849	63.48
387.063	57.48
387.277	23.19
387.492	13.11
387.706	-3.36
387.92	-1.42
388.135	57.67
388.349	32.68
388.563	26.48
388.778	51.86
388.992	47.02
389.206	53.8
389.42	115.22
389.635	57.87
389.849	82.86
390.063	94.29
390.277	59.22
390.491	113.67
390.706	61.93
390.92	97.39
391.134	24.54
391.348	71.23
391.562	14.66
391.776	57.09
391.99	35.58
392.205	79.18
392.419	40.04
392.633	37.13
392.847	90.8
393.061	19.89
393.275	90.8
393.489	41.2
393.703	71.04
393.917	49.53
394.131	37.13
394.345	49.34
394.559	100.49
394.773	25.7
394.986	72.78
395.2	48.37
395.414	87.12
395.628	22.8
395.842	45.47
396.056	41.98
396.27	-0.45
396.484	71.04
396.697	56.32
396.911	66.97
397.125	74.53
397.339	58.25
397.553	66.39
397.766	107.85
397.98	67.36
398.194	92.74
398.408	62.9
398.621	82.08
398.835	78.6
399.049	86.54
399.262	109.6
399.476	119.28
399.69	101.07
399.903	122.38
400.117	83.63
400.331	103.98
400.544	86.35
400.758	183.61
400.971	93.13
401.185	121.8
401.398	52.83
401.612	128
401.826	109.4
402.039	112.5
402.253	58.06
402.466	105.92
402.68	65.03
402.893	108.24
403.106	115.6
403.32	76.08
403.533	96.81
403.747	116.76
403.96	100.1
404.174	105.53
404.387	56.12
404.6	105.14
404.814	148.93
405.027	100.68
405.24	60.58
405.454	88.09
405.667	132.26
405.88	30.93
406.094	121.61
406.307	135.75
406.52	73.75
406.733	50.12
406.947	44.5
407.16	153.19
407.373	116.96
407.586	85.96
407.799	68.72
408.012	125.87
408.226	99.52
408.439	147.38
408.652	60.19
408.865	132.85
409.078	139.05
409.291	115.22
409.504	77.63
409.717	124.9
409.93	141.56
410.143	119.86
410.357	35.2
410.57	60.38
410.783	81.31
410.996	121.8
411.209	89.83
411.421	163.46
411.634	118.51
411.847	75.69
412.06	104.17
412.273	113.28
412.486	114.44
412.699	195.04
412.912	122.19
413.125	129.55
413.338	111.92
413.55	114.83
413.763	118.9
413.976	142.34
414.189	90.22
414.402	97.97
414.615	157.45
414.827	78.79
415.04	144.08
415.253	136.33
415.466	142.15
415.678	177.02
415.891	127.61
416.104	105.14
416.316	107.27
416.529	106.5
416.742	146.99
416.954	184
417.167	139.63
417.38	108.05
417.592	160.55
417.805	111.73
418.017	78.98
418.23	144.28
418.442	90.22
418.655	109.6
418.868	133.23
419.08	157.84
419.293	158.23
419.505	135.17
419.718	125.29
419.93	187.48
420.142	120.45
420.355	176.44
420.567	163.07
420.78	155.32
420.992	131.1
421.205	184.77
421.417	91.97
421.629	132.26
421.842	129.75
422.054	102.23
422.266	157.26
422.479	195.43
422.691	138.85
422.903	153.19
423.115	110.37
423.328	145.83
423.54	135.95
423.752	142.53
423.964	115.41
424.177	181.48
424.389	159.39
424.601	224.68
424.813	159.39
425.025	176.05
425.238	176.44
425.45	122.58
425.662	127.61
425.874	426.37
426.086	167.72
426.298	184.96
426.51	144.66
426.722	171.21
426.934	116.57
427.146	168.88
427.358	127.81
427.57	184
427.782	137.88
427.994	159.78
428.206	128.58
428.418	119.48
428.63	179.35
428.842	187.48
429.054	168.11
429.266	190.78
429.478	111.73
429.69	160.55
429.902	101.46
430.114	167.14
430.325	156.68
430.537	108.63
430.749	117.73
430.961	94.68
431.173	114.83
431.384	145.83
431.596	66.97
431.808	132.46
432.02	146.21
432.231	202.01
432.443	181.48
432.655	173.53
432.867	146.99
433.078	171.21
433.29	237.08
433.502	194.65
433.713	232.04
433.925	202.6
434.136	211.12
434.348	142.15
434.56	125.87
434.771	255.88
434.983	128.39
435.194	174.7
435.406	171.6
435.617	202.4
435.829	240.38
436.04	228.17
436.252	228.56
436.463	233.21
436.675	233.4
436.886	213.06
437.098	212.67
437.309	243.28
437.521	211.7
437.732	224.68
437.943	214.03
438.155	227.59
438.366	166.75
438.578	275.25
438.789	212.28
439	207.44
439.211	228.75
439.423	228.17
439.634	223.91
439.845	246.96
440.057	214.22
440.268	241.93
440.479	217.32
440.69	252
440.902	212.67
441.113	206.47
441.324	214.22
441.535	221.78
441.746	265.18
441.957	209.96
442.168	203.37
442.38	259.36
442.591	268.08
442.802	229.14
443.013	201.82
443.224	271.38
443.435	223.91
443.646	215.58
443.857	236.5
444.068	218.68
444.279	220.81
444.49	309.74
444.701	226.81
444.912	374.64
445.123	284.36
445.334	280.87
445.545	269.24
445.756	265.95
445.967	252.97
446.178	278.93
446.388	278.16
446.599	275.25
446.81	293.66
447.021	273.31
447.232	298.89
447.443	306.06
447.653	252.19
447.864	291.72
448.075	289.78
448.286	298.31
448.496	285.33
448.707	307.22
448.918	256.84
449.129	326.01
449.339	279.51
449.55	286.88
449.761	268.08
449.971	327.37
450.182	262.46
450.393	309.93
450.603	281.06
450.814	305.47
451.024	323.49
451.235	352.17
451.446	343.45
451.656	360.69
451.867	289.59
452.077	327.95
452.288	363.02
452.498	359.53
452.709	296.17
452.919	331.05
453.13	273.12
453.34	330.27
453.55	242.31
453.761	318.65
453.971	327.37
454.182	349.07
454.392	345.58
454.602	355.66
454.813	340.74
455.023	367.47
455.233	277.38
455.444	326.01
455.654	266.34
455.864	309.93
456.075	307.02
456.285	296.17
456.495	326.21
456.705	314
456.916	362.05
457.126	387.43
457.336	318.65
457.546	287.46
457.756	311.67
457.967	343.06
458.177	336.47
458.387	319.23
458.597	327.76
458.807	320.78
459.017	305.28
459.227	321.75
459.437	317.29
459.647	350.23
459.857	371.35
460.068	326.79
460.278	384.52
460.488	325.62
460.698	402.35
460.908	324.85
461.117	307.02
461.327	301.99
461.537	365.92
461.747	361.66
461.957	340.35
462.167	418.04
462.377	387.82
462.587	356.24
462.797	397.5
463.007	368.06
463.216	384.33
463.426	415.33
463.636	377.94
463.846	316.52
464.056	342.29
464.265	404.29
464.475	326.79
464.685	369.61
464.895	397.12
465.104	350.42
465.314	398.47
465.524	356.62
465.733	338.41
465.943	456.6
466.153	433.74
466.362	400.8
466.572	395.37
466.782	380.84
466.991	388.2
467.201	408.94
467.41	326.4
467.62	382.59
467.829	378.13
468.039	415.52
468.249	394.02
468.458	410.87
468.668	437.03
468.877	414.75
469.086	440.52
469.296	444.39
469.505	377.36
469.715	480.62
469.924	452.14
470.134	438.97
470.343	482.95
470.552	426.76
470.762	396.92
470.971	400.8
471.18	412.04
471.39	427.73
471.599	395.57
471.808	454.66
472.018	406.8
472.227	473.45
472.436	445.94
472.645	462.8
472.855	418.04
473.064	501.74
473.273	469.58
473.482	462.99
473.691	500.19
473.901	475.58
474.11	468.03
474.319	561.41
474.528	448.46
474.737	499.61
474.946	489.92
475.155	527.7
475.364	518.79
475.573	502.32
475.783	510.85
475.992	498.25
476.201	554.44
476.41	503.87
476.619	446.91
476.828	502.32
477.037	499.42
477.245	494.38
477.454	553.47
477.663	543.78
477.872	537.39
478.081	607.72
478.29	499.22
478.499	602.88
478.708	543.01
478.917	609.66
479.125	538.75
479.334	585.05
479.543	546.69
479.752	547.08
479.961	546.3
480.169	603.85
480.378	560.25
480.587	687.54
480.796	605.59
481.004	601.91
481.213	605.2
481.422	568.78
481.63	605.2
481.839	626.13
482.048	663.91
482.256	625.74
482.465	633.3
482.674	663.13
482.882	679.79
483.091	736.37
483.299	639.5
483.508	645.69
483.716	670.69
483.925	685.03
484.134	625.35
484.342	633.1
484.551	670.88
484.759	672.24
484.967	679.02
485.176	734.24
485.384	666.43
485.593	702.08
485.801	656.74
486.01	647.24
486.218	628.45
486.426	582.53
486.635	604.04
486.843	594.16
487.051	619.54
487.26	633.3
487.468	640.85
487.676	669.33
487.885	594.55
488.093	662.36
488.301	693.94
488.509	681.54
488.717	711.38
488.926	722.81
489.134	685.03
489.342	732.11
489.55	673.79
489.758	734.62
489.967	713.89
490.175	807.86
490.383	730.56
490.591	803.6
490.799	706.53
491.007	769.5
491.215	742.76
491.423	736.17
491.631	777.64
491.839	706.73
492.047	762.14
492.255	743.15
492.463	703.04
492.671	755.16
492.879	766.01
493.087	752.06
493.295	802.05
493.503	788.87
493.711	819.29
493.919	828.01
494.127	805.54
494.334	826.27
494.542	773.18
494.75	788.29
494.958	836.54
495.166	857.85
495.374	822.59
495.581	821.04
495.789	826.27
495.997	876.06
496.205	816.58
496.412	812.32
496.62	832.08
496.828	848.35
497.035	809.8
497.243	833.63
497.451	885.55
497.658	864.05
497.866	854.17
498.074	902.22
498.281	825.3
498.489	933.6
498.696	845.25
498.904	838.28
499.112	825.3
499.319	896.6
499.527	859.4
499.734	875.67
499.942	836.92
500.149	833.24
500.357	869.86
500.564	827.82
500.771	845.06
500.979	845.25
501.186	803.21
501.394	881.29
501.601	862.89
501.808	862.3
502.016	850.29
502.223	854.94
502.43	871.99
502.638	858.82
502.845	825.88
503.052	961.5
503.26	842.93
503.467	967.12
503.674	850.87
503.881	862.5
504.089	968.67
504.296	915.39
504.503	844.87
504.71	902.8
504.917	863.47
505.125	903.96
505.332	899.7
505.539	925.66
505.746	960.53
505.953	964.41
506.16	937.67
506.367	977.97
506.574	1017.69
506.781	1024.08
506.988	932.05
507.195	973.13
507.402	921.98
507.609	971.19
507.816	904.93
508.023	914.03
508.23	912.48
508.437	904.73
508.644	956.08
508.851	991.15
509.058	1000.83
509.265	956.47
509.472	1003.35
509.679	1071.75
509.885	998.7
510.092	996.18
510.299	984.75
510.506	996.76
510.713	1005.29
510.92	1000.25
511.126	1017.11
511.333	1043.65
511.54	1012.46
511.746	1071.94
511.953	1066.32
512.16	1086.66
512.367	1040.94
512.573	1045.4
512.78	1030.67
512.987	1024.47
513.193	1059.35
513.4	977
513.606	1030.09
513.813	1021.95
514.02	1027.57
514.226	1077.36
514.433	1043.65
514.639	1014.4
514.846	1031.06
515.052	1031.64
515.259	1040.36
515.465	1070
515.672	1043.07
515.878	1145.18
516.085	1060.12
516.291	1094.61
516.497	1050.82
516.704	1039.58
516.91	1004.13
517.117	966.15
517.323	950.46
517.529	996.96
517.736	968.87
517.942	1010.13
518.148	992.7
518.354	1018.66
518.561	1024.47
518.767	1045.59
518.973	1082.01
519.179	1102.94
519.386	1039.58
519.592	1049.85
519.798	1040.16
520.004	1151.18
520.21	1086.47
520.417	1137.62
520.623	1186.06
520.829	1169.59
521.035	1189.16
521.241	1165.32
521.447	1218.22
521.653	1311.99
521.859	1193.22
522.065	1238.37
522.271	1301.72
522.477	1276.54
522.683	1295.91
522.889	1221.32
523.095	1237.79
523.301	1244.96
523.507	1198.07
523.713	1227.52
523.919	1225.97
524.125	1296.69
524.331	1239.34
524.537	1343.96
524.742	1337.57
524.948	1307.34
525.154	1325.75
525.36	1433.28
525.566	1316.06
525.772	1392.98
525.977	1316.25
526.183	1328.46
526.389	1345.9
526.595	1281.19
526.8	1287.97
527.006	1264.52
527.212	1220.16
527.417	1237.98
527.623	1222.67
527.829	1286.8
528.034	1301.72
528.24	1313.54
528.446	1322.65
528.651	1392.98
528.857	1387.55
529.062	1442.58
529.268	1429.4
529.473	1397.63
529.679	1419.13
529.884	1479.58
530.09	1429.4
530.295	1458.85
530.501	1453.62
530.706	1427.66
530.912	1392.2
531.117	1466.21
531.323	1475.13
531.528	1516.01
531.733	1479
531.939	1473.38
532.144	1486.17
532.35	1453.23
532.555	1493.73
532.76	1515.43
532.966	1486.36
533.171	1496.44
533.376	1460.6
533.581	1407.7
533.787	1488.11
533.992	1504
534.197	1527.05
534.402	1525.5
534.607	1497.02
534.813	1601.06
535.018	1522.98
535.223	1503.8
535.428	1567.93
535.633	1610.36
535.838	1611.52
536.043	1594.48
536.249	1648.53
536.454	1557.28
536.659	1591.96
536.864	1582.46
537.069	1528.6
537.274	1582.46
537.479	1579.36
537.684	1598.16
537.889	1536.35
538.094	1669.07
538.299	1594.86
538.504	1616.76
538.708	1612.49
538.913	1633.22
539.118	1606.68
539.323	1630.71
539.528	1534.8
539.733	1561.15
539.938	1608.81
540.142	1588.28
540.347	1592.34
540.552	1561.93
540.757	1554.56
540.962	1546.62
541.166	1541
541.371	1582.46
541.576	1548.94
541.781	1528.6
541.985	1595.83
542.19	1581.69
542.395	1676.43
542.599	1661.51
542.804	1646.01
543.008	1697.55
543.213	1605.91
543.418	1605.52
543.622	1663.26
543.827	1586.14
544.031	1671.78
544.236	1687.86
544.44	1677.01
544.645	1698.13
544.849	1636.32
545.054	1731.45
545.258	1753.15
545.463	1733.39
545.667	1676.82
545.872	1685.34
546.076	1677.59
546.281	1712.85
546.485	1676.24
546.689	1733.2
546.894	1756.45
547.098	1704.91
547.302	1686.89
547.507	1676.24
547.711	1697.55
547.915	1744.05
548.119	1673.91
548.324	1697.35
548.528	1740.37
548.732	1721.96
548.936	1745.6
549.141	1760.9
549.345	1731.07
549.549	1706.07
549.753	1715.95
549.957	1790.55
550.161	1776.4
550.366	1784.15
550.57	1698.52
550.774	1722.93
550.978	1746.76
551.182	1749.86
551.386	1713.05
551.59	1743.47
551.794	1716.54
551.998	1740.75
552.202	1755.09
552.406	1679.34
552.61	1769.82
552.814	1717.7
553.018	1762.26
553.222	1721.38
553.426	1725.45
553.63	1779.89
553.833	1737.46
554.037	1707.43
554.241	1774.08
554.445	1779.31
554.649	1713.05
554.853	1717.5
555.056	1799.85
555.26	1800.43
555.464	1752.19
555.668	1759.16
555.871	1785.9
556.075	1787.06
556.279	1699.29
556.483	1710.34
556.686	1748.5
556.89	1730.29
557.094	1743.85
557.297	1643.3
557.501	1787.64
557.704	1668.68
557.908	1765.17
558.112	1630.12
558.315	1738.24
558.519	1711.11
558.722	1723.32
558.926	1661.71
559.129	1648.72
559.333	1602.81
559.536	1634.58
559.74	1625.09
559.943	1618.11
560.147	1637.29
560.35	1622.37
560.553	1620.24
560.757	1612.69
560.96	1688.06
561.164	1633.22
561.367	1696.19
561.57	1649.11
561.774	1664.22
561.977	1642.33
562.18	1599.71
562.384	1717.31
562.587	1635.55
562.79	1613.46
562.993	1586.73
563.197	1647.56
563.4	1665
563.603	1676.04
563.806	1736.49
564.009	1580.33
564.212	1633.42
564.416	1608.42
564.619	1608.23
564.822	1524.14
565.025	1637.87
565.228	1592.54
565.431	1612.69
565.634	1491.4
565.837	1553.01
566.04	1516.59
566.243	1519.88
566.446	1452.07
566.649	1575.1
566.852	1482.68
567.055	1562.7
567.258	1536.74
567.461	1609.01
567.664	1567.54
567.867	1510.58
568.07	1554.56
568.273	1559.99
568.475	1570.45
568.678	1505.16
568.881	1538.29
569.084	1454.78
569.287	1415.26
569.489	1450.52
569.692	1484.04
569.895	1478.61
570.098	1436.57
570.3	1417.58
570.503	1387.36
570.706	1415.07
570.909	1407.32
571.111	1349.77
571.314	1365.27
571.516	1364.69
571.719	1401.7
571.922	1352.48
572.124	1367.02
572.327	1388.33
572.529	1346.87
572.732	1337.95
572.935	1408.48
573.137	1449.55
573.34	1379.22
573.542	1390.27
573.745	1414.1
573.947	1389.49
574.15	1350.74
574.352	1334.08
574.554	1430.76
574.757	1326.72
574.959	1334.08
575.162	1350.74
575.364	1343.38
575.566	1417.58
575.769	1295.72
575.971	1358.68
576.173	1237.79
576.376	1319.16
576.578	1333.89
576.78	1353.45
576.982	1238.37
577.185	1278.47
577.387	1252.51
577.589	1260.65
577.791	1282.15
577.993	1320.71
578.196	1292.62
578.398	1305.4
578.6	1312.19
578.802	1220.93
579.004	1242.24
579.206	1274.99
579.408	1285.84
579.61	1236.04
579.812	1300.17
580.014	1219.77
580.216	1290.87
580.418	1265.1
580.62	1271.11
580.822	1236.43
581.024	1266.85
581.226	1282.15
581.428	1268.98
581.63	1350.16
581.832	1274.02
582.034	1322.07
582.236	1281.38
582.438	1336.21
582.64	1319.35
582.841	1354.81
583.043	1374.57
583.245	1323.42
583.447	1293.59
583.649	1276.15
583.85	1320.9
584.052	1371.86
584.254	1259.1
584.456	1329.43
584.657	1254.64
584.859	1291.84
585.061	1247.28
585.262	1260.07
585.464	1237.98
585.666	1297.65
585.867	1268.4
586.069	1308.7
586.27	1290.1
586.472	1287.77
586.674	1255.03
586.875	1250.77
587.077	1241.27
587.278	1253.87
587.48	1265.69
587.681	1357.72
587.883	1285.45
588.084	1180.05
588.285	1234.88
588.487	1219.19
588.688	1215.31
588.89	1137.04
589.091	1125.99
589.292	1124.44
589.494	1115.34
589.695	1104.1
589.896	1026.21
590.098	1022.73
590.299	1094.99
590.5	1043.85
590.702	1082.59
590.903	1118.83
591.104	1195.74
591.305	1148.47
591.507	1185.47
591.708	1188.96
591.909	1136.07
592.11	1203.88
592.311	1198.07
592.512	1148.28
592.714	1112.24
592.915	1142.08
593.116	1155.25
593.317	1154.28
593.518	1169.01
593.719	1128.32
593.92	1180.44
594.121	1167.07
594.322	1164.74
594.523	1152.93
594.724	1108.56
594.925	1109.33
595.126	1145.76
595.327	1155.83
595.528	1127.74
595.729	1158.74
595.929	1148.66
596.13	1133.36
596.331	1166.1
596.532	1151.96
596.733	1231.78
596.934	1174.43
597.135	1208.14
597.335	1200.01
597.536	1112.24
597.737	1155.06
597.938	1124.83
598.138	1177.92
598.339	1129.48
598.54	1156.41
598.74	1157.96
598.941	1171.14
599.142	1219.19
599.342	1170.75
599.543	1131.03
599.744	1166.87
599.944	1143.43
600.145	1127.54
600.345	1161.26
600.546	1214.34
600.746	1197.1
600.947	1257.35
601.147	1182.76
601.348	1221.32
601.548	1159.9
601.749	1185.86
601.949	1119.79
602.15	1128.9
602.35	1133.55
602.551	1189.54
602.751	1133.94
602.951	1130.64
603.152	1090.34
603.352	1148.08
603.552	1138.2
603.753	1185.86
603.953	1179.47
604.153	1167.65
604.354	1153.12
604.554	1145.18
604.754	1158.93
604.954	1129.29
605.155	1150.41
605.355	1151.38
605.555	1202.33
605.755	1223.26
605.955	1158.93
606.155	1160.29
606.356	1127.74
606.556	1178.89
606.756	1172.69
606.956	1110.3
607.156	1211.05
607.356	1147.31
607.556	1159.9
607.756	1155.83
607.956	1154.28
608.156	1160.87
608.356	1089.76
608.556	1159.13
608.756	1133.74
608.956	1118.63
609.156	1124.06
609.356	1096.93
609.556	1073.68
609.755	1156.99
609.955	1094.99
610.155	1118.05
610.355	1131.81
610.555	1081.82
610.755	1098.48
610.954	1041.13
611.154	1114.56
611.354	1151.76
611.554	1086.28
611.753	1089.96
611.953	1042.88
612.153	1089.96
612.352	1106.81
612.552	1052.76
612.752	1000.45
612.951	1074.85
613.151	1045.59
613.351	1059.35
613.55	1031.83
613.75	1075.81
613.949	1020.4
614.149	1057.99
614.348	1022.73
614.548	1009.75
614.747	1006.84
614.947	1032.03
615.146	958.98
615.346	1070.39
615.545	1062.83
615.745	1075.62
615.944	1048.88
616.144	1060.51
616.343	1030.48
616.542	1005.87
616.742	1002.38
616.941	1022.15
617.14	944.45
617.34	1005.87
617.539	1010.52
617.738	951.04
617.938	1056.44
618.137	986.3
